timestamp,TP9,AF7,AF8,TP10
1631192845316,0.3136041164398193,-0.3725895583629608,-0.2133075594902038,1.0924128293991089
1631192845379,0.3407725095748901,-0.3654848933219909,-0.1206483840942382,1.0924128293991089
1631192845519,0.3574665486812591,-0.3609161972999573,-0.0596072487533092,1.0924128293991089
1631192845551,0.3589353859424591,-0.3560821413993835,-0.0281195566058158,1.0924128293991089
1631192845660,0.3457857966423034,-0.3529026210308075,-0.0159196332097053,1.0924128293991089
1631192845769,0.3222394585609436,-0.3512431979179382,-0.0114534841850399,1.0924128293991089
1631192845879,0.2977901697158813,-0.3483553826808929,-0.007398082409054,1.0924128293991089
1631192845957,0.2793720662593841,-0.3394789397716522,0.0001589982566656,1.0924128293991089
1631192846084,0.2794815599918365,-0.3275328576564789,0.0122229857370257,1.0924128293991089
1631192846147,0.2924901247024536,-0.3194952607154846,0.0244926325976848,1.0924128293991089
1631192846256,0.3102461993694305,-0.3245594203472137,0.0307392589747905,1.0924128293991089
1631192846381,0.3177700042724609,-0.3438548147678375,0.0266803242266178,1.0924128293991089
1631192846475,0.323204904794693,-0.3739601373672485,0.0111026773229241,1.0924128293991089
1631192846600,0.3271671533584595,-0.4080687165260315,-0.0176860764622688,1.0924128293991089
1631192846662,0.333755612373352,-0.432470828294754,-0.0643903464078903,1.0924128293991089
1631192846772,0.3333161473274231,-0.4159266948699951,-0.122151106595993,1.0924128293991089
1631192846868,0.3222916424274444,-0.3492665588855743,-0.1648069024085998,1.0924128293991089
1631192846978,0.2970733940601349,-0.2642249763011932,-0.165931150317192,1.0924128293991089
1631192847087,0.2667863368988037,-0.1971858739852905,-0.13423652946949,1.0924128293991089
1631192847181,0.2361557781696319,-0.157654270529747,-0.0993719547986984,1.0924128293991089
1631192847306,0.2214539647102356,-0.1378066390752792,-0.080292597413063,1.0924128293991089
1631192847384,0.2241360694169998,-0.1240433529019355,-0.0761571824550628,1.0924128293991089
1631192847478,0.2241360694169998,-0.1119276881217956,-0.0834567546844482,1.0924128293991089
1631192847618,0.2241360694169998,-0.1041066870093345,-0.0999965742230415,1.0924128293991089
1631192847759,0.2241360694169998,-0.1035409271717071,-0.1204996928572654,1.0924128293991089
1631192847962,0.2241360694169998,-0.1083251610398292,-0.1315811723470688,1.0924128293991089
1631192847993,0.4026636779308319,-0.1140004843473434,-0.1230039373040199,1.0924128293991089
1631192848105,0.4145427942276001,-0.1176238432526588,-0.0991638600826263,1.0924128293991089
1631192848183,0.4597928822040558,-0.1191190928220748,-0.073815070092678,1.0924128293991089
1631192848214,0.510891318321228,-0.1235767900943756,-0.0561557784676551,1.0924128293991089
1631192848293,0.549820065498352,-0.1455157697200775,-0.052980750799179,1.0924128293991089
1631192848386,0.5719290971755981,-0.1984358876943588,-0.0664458721876144,1.0924128293991089
1631192848511,0.5787894129753113,-0.2840590476989746,-0.0942535102367401,1.0924128293991089
1631192848589,0.5757338404655457,-0.3832839131355285,-0.1269376277923584,1.0924128293991089
1631192848699,0.568850040435791,-0.4674755334854126,-0.152308851480484,1.0924128293991089
1631192848857,0.564633309841156,-0.5245288610458374,-0.1606222689151764,1.0924128293991089
1631192848936,0.5681902170181274,-0.5777233242988586,-0.1522896289825439,1.0924128293991089
1631192849061,0.5811492800712585,-0.6498844027519226,-0.132986843585968,1.0924128293991089
1631192849154,0.6054850220680237,-0.740536093711853,-0.1120601445436477,1.0924128293991089
1631192849232,0.6320244669914246,-0.8235180974006653,-0.0972582995891571,1.0924128293991089
1631192849326,0.6541187763214111,-0.8681144714355469,-0.0955274328589439,1.0924128293991089
1631192849467,0.6653124094009399,-0.8754066228866577,-0.1079780608415603,1.0924128293991089
1631192849529,0.6620545983314514,-0.8698763251304626,-0.1291284263134002,1.0924128293991089
1631192849654,0.6484773755073547,-0.8594248294830322,-0.1496702879667282,1.0924128293991089
1631192849748,0.6328855752944946,-0.8257661461830139,-0.1643832772970199,1.0924128293991089
1631192849795,0.620307207107544,-0.7644457221031189,-0.1780151575803756,1.0924128293991089
1631192849920,0.6109457612037659,-0.6900891065597534,-0.2016999721527099,1.0924128293991089
1631192850047,0.6036601662635803,-0.6151607036590576,-0.2371795326471328,1.0924128293991089
1631192850140,0.5968279838562012,-0.5451784133911133,-0.2718776762485504,1.0924128293991089
1631192850266,0.5910622477531433,-0.4836038947105407,-0.290199726819992,1.0924128293991089
1631192850359,0.5891249179840088,-0.4324863255023956,-0.2928735613822937,1.0924128293991089
1631192850438,0.5976288318634033,-0.3901039958000183,-0.29605433344841,1.0924128293991089
1631192850515,0.6161818504333496,-0.3536230623722076,-0.3130358457565307,1.0924128293991089
1631192850656,0.6345616579055786,-0.323549211025238,-0.3422216475009918,1.0924128293991089
1631192850750,0.6436494588851929,-0.3043603301048279,-0.3733826577663421,1.0924128293991089
1631192850877,0.6448342204093933,-0.2969424724578857,-0.3978661596775055,1.0924128293991089
1631192850987,0.645169734954834,-0.2968242764472961,-0.4141537547111511,1.0924128293991089
1631192851112,0.6457194089889526,-0.2980464696884155,-0.4203460812568664,1.0924128293991089
1631192851320,0.641350507736206,-0.3010869324207306,-0.4115335345268249,1.0924128293991089
1631192851382,0.625931441783905,-0.3124773800373077,-0.3864277005195617,1.0924128293991089
1631192851444,0.6287820935249329,-0.3370089828968048,-0.3564246892929077,1.0924128293991089
1631192851507,0.6317135095596313,-0.369133710861206,-0.3348935842514038,1.0924128293991089
1631192851538,0.6398786902427673,-0.3912726640701294,-0.3287605345249176,1.0924128293991089
1631192851648,0.6559092402458191,-0.3843780159950256,-0.3383640944957733,1.0924128293991089
1631192851719,0.6770212650299072,-0.3503758907318115,-0.3618368208408355,1.0924128293991089
1631192851872,0.6946651935577393,-0.3114003241062164,-0.3929241895675659,1.0924128293991089
1631192851965,0.691438615322113,-0.2875669300556183,-0.4230920970439911,1.0924128293991089
1631192852079,0.6259751319885254,-0.2838598489761352,-0.4385089576244354,1.0924128293991089
1631192852188,0.5445849895477295,-0.290714830160141,-0.4322269558906555,1.0924128293991089
1631192852220,0.4572862982749939,-0.2930952608585357,-0.4104501903057098,1.0924128293991089
1631192852345,0.3782553970813751,-0.2838911414146423,-0.384526640176773,1.0924128293991089
1631192852502,0.3236821889877319,-0.2667174935340881,-0.3585497736930847,1.0924128293991089
1631192852579,0.3060199618339538,-0.2467568963766098,-0.331946849822998,1.0924128293991089
1631192852656,0.3060199618339538,-0.222920536994934,-0.3038216531276703,1.0924128293991089
1631192852784,0.3060199618339538,-0.1936926394701004,-0.2773731350898742,1.0924128293991089
1631192852878,0.6432816386222839,-0.1621489971876144,-0.2544858157634735,1.0924128293991089
1631192853003,0.6396098136901855,-0.1364818215370178,-0.2353046238422393,1.0924128293991089
1631192853115,0.6375648379325867,-0.1237942203879356,-0.2201029509305954,1.0924128293991089
1631192853224,0.6369261145591736,-0.1289680004119873,-0.2087556570768356,1.0924128293991089
1631192853316,0.626010000705719,-0.1528578698635101,-0.1997467130422592,1.0924128293991089
1631192853382,0.6011829376220703,-0.1881321966648101,-0.1913424730300903,1.0924128293991089
1631192853472,0.5731540322303772,-0.2189996689558029,-0.1820659339427948,1.0924128293991089
1631192853564,0.5753571391105652,-0.2334086596965789,-0.1741205900907516,1.0924128293991089
1631192853690,0.6061602830886841,-0.2350130081176757,-0.168168693780899,1.0924128293991089
1631192853782,0.6687144637107849,-0.2358034402132034,-0.1611235737800598,1.0924128293991089
1631192853969,0.7372128367424011,-0.2418373972177505,-0.1479939520359039,1.0924128293991089
1631192854015,0.7853747606277466,-0.2487792521715164,-0.1301351934671402,1.0924128293991089
1631192854126,0.807185709476471,-0.2503718435764313,-0.1168331578373909,1.0924128293991089
1631192854189,0.8124878406524658,-0.2485578656196594,-0.1168144270777702,1.0924128293991089
1631192854336,0.810232400894165,-0.2510659992694855,-0.1269619464874267,1.0924128293991089
1631192854461,0.8107161521911621,-0.262834221124649,-0.1354096084833145,1.0924128293991089
1631192854556,0.8099026083946228,-0.2809384763240814,-0.1328248828649521,1.0924128293991089
1631192854638,0.8065992593765259,-0.2994593679904938,-0.121459349989891,1.0924128293991089
1631192854685,0.8062976598739624,-0.314053475856781,-0.1099279448390007,1.0924128293991089
1631192854763,0.8153694272041321,-0.3215604126453399,-0.1027229875326156,1.0924128293991089
1631192854954,0.8326586484909058,-0.322264015674591,-0.0992965325713157,1.0924128293991089
1631192855032,0.8506312370300293,-0.321194440126419,-0.097449854016304,1.0924128293991089
1631192855110,0.8603240847587585,-0.3239098489284515,-0.094944953918457,1.0924128293991089
1631192855281,0.8552708625793457,-0.3306549489498138,-0.093342512845993,1.0924128293991089
1631192855314,0.834312379360199,-0.336592823266983,-0.0974410250782966,1.0924128293991089
1631192855452,0.8075909614562988,-0.3329052627086639,-0.1135524660348892,1.0924128293991089
1631192855545,0.7924485802650452,-0.3132534027099609,-0.1430379599332809,1.0924128293991089
1631192855686,0.7972380518913269,-0.2836083173751831,-0.1791847497224807,1.0924128293991089
1631192855732,0.8103886842727661,-0.2589943408966064,-0.2141839265823364,1.0924128293991089
1631192855810,0.8179038763046265,-0.2496355772018432,-0.2507414221763611,1.0924128293991089
1631192855890,0.8185362219810486,-0.252165138721466,-0.2981579303741455,1.0924128293991089
1631192855983,0.8197946548461914,-0.25666144490242,-0.3592790067195892,1.0924128293991089
1631192856171,0.8235912322998047,-0.2593694031238556,-0.4235463738441467,1.0924128293991089
1631192856264,0.8243497610092163,-0.2632832825183868,-0.4722487330436706,1.0924128293991089
1631192856343,0.8178263902664185,-0.2677854895591736,-0.4953088462352752,1.0924128293991089
1631192856471,0.8085835576057434,-0.26175057888031,-0.4946067035198211,1.0924128293991089
1631192856518,0.8048465251922607,-0.2316766679286956,-0.4793044328689575,1.0924128293991089
1631192856611,0.8107119202613831,-0.178238108754158,-0.4597018659114837,1.0924128293991089
1631192856783,0.8209716081619263,-0.1190199181437492,-0.4420632421970367,1.0924128293991089
1631192856911,0.8305936455726624,-0.0713895186781883,-0.4231633245944977,1.0924128293991089
1631192856943,0.8367891311645508,-0.0456473268568515,-0.3970519006252289,1.0924128293991089
1631192857021,0.8421667814254761,-0.044122714549303,-0.3668906688690185,1.0924128293991089
1631192857192,0.8505666851997375,-0.0613632276654243,-0.3446394503116607,1.0924128293991089
1631192857270,0.8631365299224854,-0.0845692008733749,-0.3374780416488647,1.0924128293991089
1631192857364,0.8762961030006409,-0.0987391322851181,-0.3409900665283203,1.0924128293991089
1631192857473,0.8832728862762451,-0.0991501435637474,-0.3450088798999786,1.0924128293991089
1631192857645,0.8812087178230286,-0.0937112420797348,-0.3444373607635498,1.0924128293991089
1631192857708,0.8740886449813843,-0.0896971374750137,-0.3411163687705993,1.0924128293991089
1631192857775,0.8866689205169678,-0.0860752612352371,-0.3419392108917236,1.0924128293991089
1631192857837,0.9024046063423156,-0.0740059837698936,-0.3522734940052032,1.0924128293991089
1631192858056,0.9200238585472108,-0.0529826618731021,-0.375223159790039,1.0924128293991089
1631192858134,0.9355810880661012,-0.0364671722054481,-0.4082320928573608,1.0924128293991089
1631192858212,0.946805775165558,-0.0373575240373611,-0.4436263144016266,1.0924128293991089
1631192858384,0.9558857679367064,-0.0552243180572986,-0.4689479470252991,1.0924128293991089
1631192858462,0.9615789651870728,-0.0788352489471435,-0.4790537059307098,1.0924128293991089
1631192858509,0.9587368369102478,-0.0933271795511245,-0.4768195152282715,1.0924128293991089
1631192858587,0.9369068145751952,-0.0966418087482452,-0.46638885140419,1.0924128293991089
1631192858681,0.8844459652900696,-0.093553826212883,-0.4456683099269867,1.0924128293991089
1631192858806,0.7907885313034058,-0.0916576981544494,-0.4143194854259491,1.0924128293991089
1631192858853,0.618554949760437,-0.0944266244769096,-0.3798986077308655,1.0924128293991089
1631192859056,0.618554949760437,-0.0850866585969924,-0.350303590297699,1.0924128293991089
1631192859134,0.618554949760437,-0.0735785514116287,-0.3138842284679413,1.0924128293991089
1631192859272,0.618554949760437,-0.058288849890232,-0.2323189675807953,1.0924128293991089
1631192859350,0.618554949760437,-0.0422630198299884,-0.0961258262395858,1.0924128293991089
1631192859397,0.618554949760437,-0.037700567394495,0.0487060286104679,1.0924128293991089
1631192859484,0.618554949760437,-0.0563218370079994,0.160732701420784,1.0924128293991089
1631192859592,0.618554949760437,-0.099349670112133,0.227300152182579,1.0924128293991089
1631192859703,0.618554949760437,-0.1552911549806594,0.2570092380046844,1.0924128293991089
1631192859874,0.618554949760437,-0.2077401280403137,0.2653578817844391,1.0924128293991089
1631192859952,0.618554949760437,-0.2451371252536773,0.2642797231674194,1.0924128293991089
1631192860014,0.618554949760437,-0.2768967151641845,0.2604264616966247,1.0924128293991089
1631192860085,0.618554949760437,-0.2768967151641845,0.2583092451095581,1.0924128293991089
1631192860236,0.618554949760437,-0.2768967151641845,0.2596018612384796,1.0924128293991089
1631192860237,0.618554949760437,-0.2768967151641845,0.2585439682006836,1.0924128293991089
1631192860486,0.618554949760437,-0.2768967151641845,0.2703603506088257,1.0924128293991089
1631192860488,0.618554949760437,-0.2768967151641845,0.2617369294166565,1.0924128293991089
1631192860643,0.618554949760437,-0.2768967151641845,0.2901704907417297,1.0924128293991089
1631192860706,0.618554949760437,-0.2768967151641845,0.3153943121433258,1.0924128293991089
1631192860800,0.618554949760437,-0.2768967151641845,0.3469181954860687,1.0924128293991089
1631192860899,0.618554949760437,-0.2768967151641845,0.3906034529209137,1.0924128293991089
1631192861039,0.618554949760437,-0.2768967151641845,0.4446565806865692,1.0924128293991089
1631192861133,0.618554949760437,-0.2768967151641845,0.4968184232711792,1.0924128293991089
1631192861226,0.618554949760437,-0.2768967151641845,0.5348803997039795,1.0924128293991089
1631192861321,0.618554949760437,-0.2768967151641845,0.5564247965812683,1.0924128293991089
1631192861399,0.618554949760437,-0.2768967151641845,0.5699120759963989,1.0924128293991089
1631192861539,0.618554949760437,-0.2768967151641845,0.5829256176948547,1.0924128293991089
1631192861616,0.618554949760437,-0.2768967151641845,0.6000388860702515,1.0924128293991089
1631192861759,0.618554949760437,-0.2768967151641845,0.6239412426948547,1.0924128293991089
1631192861819,0.618554949760437,-0.2768967151641845,0.6507202386856079,1.0924128293991089
1631192861928,0.618554949760437,-0.2768967151641845,0.6725753545761108,1.0924128293991089
1631192862117,0.618554949760437,-0.2768967151641845,0.6835823059082031,1.0924128293991089
1631192862179,1.007104754447937,-0.0029714002739638,0.6849676966667175,1.0924128293991089
1631192862240,1.0014880895614624,0.0790055766701698,0.6812187433242798,1.0924128293991089
1631192862318,0.9896493554115297,0.2093118578195572,0.6682872176170349,1.0924128293991089
1631192862445,0.979680359363556,0.3069005906581878,0.6379929780960083,1.0924128293991089
1631192862585,0.970772385597229,0.3474788069725036,0.5879602432250977,1.0924128293991089
1631192862630,0.9574467539787292,0.3427019417285919,0.5283666849136353,1.0924128293991089
1631192862708,0.9374760985374452,0.3162999153137207,0.4767346680164337,1.0924128293991089
1631192862833,0.9170300364494324,0.2898784875869751,0.4447465240955353,1.0924128293991089
1631192863005,0.9060006141662598,0.2699460387229919,0.4248803853988647,1.0924128293991089
1631192863052,0.907465159893036,0.2561624050140381,0.4047087430953979,1.0924128293991089
1631192863265,0.9161563515663148,0.2467769384384155,0.3732516169548034,1.0924128293991089
1631192863315,0.9233500361442566,0.2395910024642944,0.3219206035137176,1.0924128293991089
1631192863349,0.9245057702064514,0.2389840483665466,0.2539980411529541,1.0924128293991089
1631192863457,0.90906423330307,0.243196353316307,0.1871342658996582,1.0924128293991089
1631192863598,0.8843532800674438,0.2569166123867035,0.1400500833988189,1.0924128293991089
1631192863680,0.8623508214950562,0.2716603577136993,0.1041036322712898,1.0924128293991089
1631192863747,0.8486315011978149,0.2668443322181701,0.0519708208739757,1.0924128293991089
1631192863810,0.8372538685798645,0.228731632232666,-0.0293408874422311,1.0924128293991089
1631192863907,0.8195343017578125,0.1655144989490509,-0.125975102186203,1.0924128293991089
1631192864161,0.7958394289016724,0.1069280058145523,-0.2013794332742691,1.0924128293991089
1631192864193,0.7930648922920227,0.0889179483056068,-0.2267249226570129,1.0924128293991089
1631192864255,0.7995675802230835,0.0976556614041328,-0.2041089534759521,1.0924128293991089
1631192864334,0.8110386729240417,0.1125867962837219,-0.1378709077835083,1.0924128293991089
1631192864474,0.815269410610199,0.124485544860363,-0.0329885818064212,1.0924128293991089
1631192864536,0.802647054195404,0.131799578666687,0.0791781768202781,1.0924128293991089
1631192864771,0.7709632515907288,0.1350196748971939,0.1659870445728302,1.0924128293991089
1631192864771,0.7283923029899597,0.1363702714443206,0.2174181342124939,1.0924128293991089
1631192864896,0.6922463178634644,0.1400609016418457,0.2399981319904327,1.0924128293991089
1631192865008,0.677818775177002,0.1424083113670349,0.2471725642681121,1.0924128293991089
1631192865040,0.6790642738342285,0.1308731883764267,0.247805580496788,1.0924128293991089
1631192865164,0.6679089665412903,0.09539745002985,0.2442187964916229,1.0924128293991089
1631192865336,0.6679089665412903,0.09539745002985,0.2382466048002243,1.0924128293991089
1631192865369,0.6679089665412903,0.09539745002985,0.2312664538621902,1.0924128293991089
1631192865488,0.6679089665412903,0.09539745002985,0.2240285873413086,1.0924128293991089
1631192865566,0.6679089665412903,0.09539745002985,0.2164296358823776,1.0924128293991089
1631192865721,0.6679089665412903,0.09539745002985,0.2068213820457458,1.0924128293991089
1631192865815,0.6679089665412903,0.09539745002985,0.191903218626976,1.0924128293991089
1631192865893,0.6679089665412903,0.09539745002985,0.1581981629133224,1.0924128293991089
1631192866018,0.6679089665412903,0.09539745002985,0.0885152220726013,1.0924128293991089
1631192866096,0.6679089665412903,0.09539745002985,-0.0259604975581169,1.0924128293991089
1631192866252,0.6679089665412903,0.09539745002985,-0.1721199601888656,1.0924128293991089
1631192866346,0.6679089665412903,0.09539745002985,-0.3118566572666168,1.0924128293991089
1631192866408,0.6679089665412903,0.09539745002985,-0.4077852666378021,1.0924128293991089
1631192866502,0.6679089665412903,0.09539745002985,-0.4699467122554779,1.0924128293991089
1631192866596,0.6679089665412903,0.09539745002985,-0.5195790529251099,1.0924128293991089
1631192866705,0.6679089665412903,0.09539745002985,-0.5468629002571106,1.0924128293991089
1631192866767,0.6679089665412903,-0.5571352243423462,-0.5317063331604004,1.0924128293991089
1631192866908,0.6679089665412903,-0.5571352243423462,-0.4526940882205963,1.0924128293991089
1631192867051,0.6679089665412903,-0.5571352243423462,-0.3296181559562683,1.0924128293991089
1631192867161,0.6679089665412903,-0.5571352243423462,-0.2063163369894027,1.0924128293991089
1631192867270,0.6679089665412903,-0.5571352243423462,-0.1092750430107116,1.0924128293991089
1631192867302,0.6679089665412903,-0.5571352243423462,-0.0421405285596847,1.0924128293991089
1631192867426,0.6679089665412903,-0.5571352243423462,0.0039236419834196,1.0924128293991089
1631192867551,0.6679089665412903,-0.5571352243423462,0.0359642058610916,1.0924128293991089
1631192867707,0.6679089665412903,-0.5571352243423462,0.0559238567948341,1.0924128293991089
1631192867770,0.6679089665412903,-0.5571352243423462,0.0645658299326896,1.0924128293991089
1631192867864,0.6679089665412903,-0.5571352243423462,0.0668706446886062,1.0924128293991089
1631192867911,0.6679089665412903,-0.5571352243423462,0.0676169395446777,1.0924128293991089
1631192867992,0.6679089665412903,-0.5571352243423462,0.0699986293911933,1.0924128293991089
1631192868117,0.6679089665412903,-0.5571352243423462,0.0748328045010566,1.0924128293991089
1631192868180,0.6679089665412903,-0.5571352243423462,0.0801382884383201,1.0924128293991089
1631192868367,0.6679089665412903,-0.5571352243423462,0.0808314830064773,1.0924128293991089
1631192868430,0.1812898814678192,0.0901882424950599,0.0699766799807548,1.0924128293991089
1631192868571,0.2388549298048019,0.1201256215572357,0.0505172535777092,1.0924128293991089
1631192868617,0.2825642824172973,0.1820584237575531,0.0363668203353881,1.0924128293991089
1631192868743,0.3085451126098633,0.2370543181896209,0.0377980470657348,1.0924128293991089
1631192868821,0.3085451126098633,0.273164838552475,0.0529175288975238,1.0924128293991089
1631192868963,0.3085451126098633,0.273164838552475,0.0795384868979454,1.0924128293991089
1631192869057,0.3085451126098633,0.273164838552475,0.1234478130936622,1.0924128293991089
1631192869119,0.3085451126098633,0.273164838552475,0.1838226467370987,1.0924128293991089
1631192869276,0.3085451126098633,0.273164838552475,0.2459883838891983,1.0924128293991089
1631192869385,0.3085451126098633,0.273164838552475,0.2936842441558838,1.0924128293991089
1631192869557,0.3085451126098633,0.273164838552475,0.3228090703487396,1.0924128293991089
1631192869619,0.3085451126098633,0.273164838552475,0.3369205892086029,1.0924128293991089
1631192869698,0.335697740316391,0.2971245348453522,0.3410016298294067,1.0924128293991089
1631192869744,0.3694175779819488,0.3206525146961212,0.3393889963626861,1.0924128293991089
1631192869838,0.4063750505447387,0.3535757660865783,0.3346931040287018,1.0924128293991089
1631192869949,0.4063750505447387,0.3560826778411865,0.3256423473358154,1.0924128293991089
1631192870106,0.4063750505447387,0.3401605188846588,0.3064360022544861,1.0924128293991089
1631192870309,0.4063750505447387,0.2889212965965271,0.2721819579601288,1.0924128293991089
1631192870372,0.4063750505447387,0.2144502103328704,0.2258917838335037,1.0924128293991089
1631192870590,0.4063750505447387,0.1415323466062545,0.1782006621360778,1.0924128293991089
1631192870653,0.6912306547164917,0.1744022667407989,0.1340622752904892,1.0924128293991089
1631192870684,0.7479833960533142,0.2070578634738922,0.0831982344388961,1.0924128293991089
1631192870762,0.788154661655426,0.2232655882835388,0.010240945033729,1.0924128293991089
1631192870887,0.8154558539390564,0.2180048525333404,-0.0887641683220863,1.0924128293991089
1631192870950,0.8429900407791138,0.197391852736473,-0.199245274066925,1.0924128293991089
1631192870965,0.8759794235229492,0.1727695912122726,-0.295076459646225,1.0924128293991089
1631192871137,0.90638267993927,0.1501201391220092,-0.3543353080749511,1.0924128293991089
1631192871199,0.9226167798042296,0.1290404945611953,-0.3732053935527801,1.0924128293991089
1631192871262,0.9217116832733154,0.1080474257469177,-0.3646363615989685,1.0924128293991089
1631192871403,0.908198058605194,0.0889344662427902,-0.3442147076129913,1.0924128293991089
1631192871512,0.8911811113357544,0.074051134288311,-0.3148942291736603,1.0924128293991089
1631192871731,0.8765254020690918,0.0648593977093696,-0.2700783312320709,1.0924128293991089
1631192871777,0.875537633895874,0.0557427518069744,-0.2081896811723709,1.0924128293991089
1631192871809,0.8730001449584961,0.039063986390829,-0.1389437764883041,1.0924128293991089
1631192871856,0.8650037050247192,0.0091151669621467,-0.0799503475427627,1.0924128293991089
1631192872077,0.8632744550704956,-0.0809169188141822,-0.0329950638115406,1.0924128293991089
1631192872077,0.8676757216453552,-0.0321061983704566,-0.0445409715175628,1.0924128293991089
1631192872202,0.8555060029029846,-0.1353404968976974,-0.0352225936949253,1.0924128293991089
1631192872311,0.8457128405570984,-0.1745558679103851,-0.0371252037584781,1.0924128293991089
1631192872374,0.8270291090011597,-0.1875656098127365,-0.0315364897251129,1.0924128293991089
1631192872612,0.787959098815918,-0.1856276541948318,-0.0222974959760904,1.0924128293991089
1631192872831,0.7229154109954834,-0.1803818643093109,-0.0161774214357137,1.0924128293991089
1631192872878,0.643865168094635,-0.1708298027515411,-0.0160295329988002,1.0924128293991089
1631192872924,0.577308177947998,-0.1512333899736404,-0.0209449362009763,1.0924128293991089
1631192872955,0.547670841217041,-0.1261617988348007,-0.028202012181282,1.0924128293991089
1631192873039,0.5411319732666016,-0.1148099824786186,-0.0377967879176139,1.0924128293991089
1631192873133,0.5411319732666016,-0.1322861313819885,-0.0535395219922065,1.0924128293991089
1631192873258,0.5411319732666016,-0.1435241401195526,-0.0747743546962738,1.0924128293991089
1631192873351,0.5411319732666016,-0.0948951542377471,-0.0904442593455314,1.0924128293991089
1631192873399,0.5411319732666016,-0.0117097841575741,-0.0837710797786712,1.0924128293991089
1631192873523,0.5411319732666016,0.068354383111,-0.0522511303424835,1.0924128293991089
1631192873617,0.3035921454429626,0.1060438677668571,-0.0124554811045527,1.0924128293991089
1631192873726,0.2800220549106598,0.1380089074373245,0.0194114260375499,1.0924128293991089
1631192873852,0.2829820513725281,0.1527226120233535,0.0376819409430027,1.0924128293991089
1631192873945,0.3105489313602447,0.1518255025148391,0.0473641417920589,1.0924128293991089
1631192874023,0.3631815612316131,0.1492673307657241,0.0570104345679283,1.0924128293991089
1631192874195,0.4235046505928039,0.1552959084510803,0.0699651986360549,1.0924128293991089
1631192874336,0.4673888683319092,0.1651597619056701,0.0853467136621475,1.0924128293991089
1631192874523,0.4821856915950775,0.1707253903150558,0.1002575680613517,1.0924128293991089
1631192874617,0.4730195701122284,0.1695864796638488,0.1127813979983329,1.0924128293991089
1631192874835,0.4526333808898926,0.1648260504007339,0.1220148578286171,1.0924128293991089
1631192874867,0.4341144859790802,0.1608574986457824,0.1223185360431671,1.0924128293991089
1631192874867,0.43608158826828,0.1588507443666458,0.126671016216278,1.0924128293991089
1631192874914,0.4396120905876159,0.1516298353672027,0.1011857241392135,1.0924128293991089
1631192874929,0.4724727869033813,0.1350607275962829,0.0566907562315464,1.0924128293991089
1631192875085,0.5077647566795349,0.1142690107226371,-0.0092160478234291,1.0924128293991089
1631192875117,0.530552089214325,0.0912346094846725,-0.082642525434494,1.0924128293991089
1631192875289,0.5431501865386963,0.0699206665158271,-0.1429993957281112,1.0924128293991089
1631192875508,0.561393678188324,0.0656450390815734,-0.1762357354164123,1.0924128293991089
1631192875585,0.6111822128295898,0.0593380443751812,-0.1852678805589676,1.0924128293991089
1631192875617,0.6106765866279602,0.0535559169948101,-0.1795360445976257,1.0924128293991089
1631192875679,0.5997121334075928,0.0380532518029212,-0.1660586148500442,1.0924128293991089
1631192875898,0.5859179496765137,0.0119816567748785,-0.1529373824596405,1.0924128293991089
1631192875994,0.5838866233825684,-0.0168882627040147,-0.147713765501976,1.0924128293991089
1631192876088,0.6012150645256042,-0.0410933457314968,-0.1504724770784378,1.0924128293991089
1631192876182,0.6337156891822815,-0.0620256140828132,-0.1499767899513244,1.0924128293991089
1631192876213,0.6694445610046387,-0.0836760848760604,-0.1295772045850753,1.0924128293991089
1631192876353,0.6968120336532593,-0.0972045287489891,-0.0880541801452636,1.0924128293991089
1631192876509,0.7077381014823914,-0.0830141454935073,-0.0401812046766281,1.0924128293991089
1631192876634,0.8333545923233032,-0.0357339642941951,-0.002147545106709,1.0924128293991089
1631192876806,0.856543779373169,-0.0357339642941951,0.0191227905452251,1.0924128293991089
1631192876806,0.9059255123138428,-0.0357339642941951,0.0240161921828985,1.0924128293991089
1631192877059,0.9059255123138428,-0.0357339642941951,0.0173040125519037,1.0924128293991089
1631192877153,0.9059255123138428,-0.0357339642941951,0.0030111111700534,1.0924128293991089
1631192877231,0.9059255123138428,-0.0357339642941951,-0.0162272192537784,1.0924128293991089
1631192877293,0.9059255123138428,-0.0357339642941951,-0.0409912951290607,1.0924128293991089
1631192877371,0.9059255123138428,-0.0357339642941951,-0.0710763782262802,1.0924128293991089
1631192877387,0.9059255123138428,-0.0357339642941951,-0.0997600480914115,1.0924128293991089
1631192877449,0.9059255123138428,-0.0357339642941951,-0.1172288134694099,1.0924128293991089
1631192877605,0.9059255123138428,-0.0357339642941951,-0.1214272528886795,1.0924128293991089
1631192877715,0.9059255123138428,-0.0357339642941951,-0.1223727762699127,1.0924128293991089
1631192877808,0.9059255123138428,-0.0357339642941951,-0.13052299618721,1.0924128293991089
1631192877902,0.9059255123138428,-0.0357339642941951,-0.1443202644586563,1.0924128293991089
1631192877933,0.9059255123138428,-0.0357339642941951,-0.1494525372982025,1.0924128293991089
1631192877965,0.9059255123138428,-0.0357339642941951,-0.1322304159402847,1.0924128293991089
1631192878171,1.100921392440796,0.3084985315799713,-0.0901684686541557,1.0924128293991089
1631192878249,1.0573915243148804,0.2613152861595154,-0.0314623452723026,1.0924128293991089
1631192878265,1.0196603536605835,0.2111367732286453,0.0286473575979471,1.0924128293991089
1631192878358,0.986531138420105,0.1625847369432449,0.0776743739843368,1.0924128293991089
1631192878468,0.9578726887702942,0.1253473311662674,0.1116306036710739,1.0924128293991089
1631192878718,0.935119092464447,0.1237413212656974,0.1346854567527771,1.0924128293991089
1631192878811,0.9184672236442566,0.1739556044340133,0.1536723375320434,1.0924128293991089
1631192878874,0.9054018259048462,0.2489168792963028,0.1704680472612381,1.0924128293991089
1631192878999,0.8914439678192139,0.3083441853523254,0.1842892616987228,1.0924128293991089
1631192879064,0.8734925389289856,0.3338569104671478,0.1936313062906265,1.0924128293991089
1631192879189,0.8734925389289856,0.3245016932487488,0.2152242660522461,1.0924128293991089
1631192879189,0.8734925389289856,0.3306947350502014,0.2008055448532104,1.0924128293991089
1631192879283,0.8341082334518433,0.3666966557502746,0.2497482150793075,1.0924128293991089
1631192879408,0.7844926714897156,0.5023098587989807,0.3096665441989898,1.0924128293991089
1631192879502,0.7418413758277893,0.5127557516098022,0.3814980685710907,1.0924128293991089
1631192879642,0.7149300575256348,0.5304139852523804,0.4458255469799042,1.0924128293991089
1631192879736,0.6998869776725769,0.5553404688835144,0.4921706318855285,1.0924128293991089
1631192879829,0.6910796165466309,0.6826002597808838,0.5194836258888245,1.0924128293991089
1631192879939,0.6885095834732056,0.7215210199356079,0.5319056510925293,1.0924128293991089
1631192880035,0.6909769773483276,0.7292182445526123,0.535308837890625,1.0924128293991089
1631192880113,0.6910318732261658,0.7240871787071228,0.5338294506072998,1.0924128293991089
1631192880238,0.6910318732261658,0.7061037421226501,0.531714677810669,1.0924128293991089
1631192880301,0.6910318732261658,0.6753294467926025,0.533055305480957,1.0924128293991089
1631192880457,0.6910318732261658,0.6406108140945435,0.5397454500198364,1.0924128293991089
1631192880582,0.6910318732261658,0.6158278584480286,0.549956202507019,1.0924128293991089
1631192880675,0.6910318732261658,0.6071791648864746,0.5588140487670898,1.0924128293991089
1631192880910,0.6910318732261658,0.5775684714317322,0.5404805541038513,1.0924128293991089
1631192880910,0.6910318732261658,0.6044239401817322,0.5586134195327759,1.0924128293991089
1631192881100,0.6910318732261658,0.4944338202476501,0.4965311586856842,1.0924128293991089
1631192881100,0.6910318732261658,0.4944338202476501,0.4261426627635956,1.0924128293991089
1631192881131,0.6910318732261658,0.4944338202476501,0.3370510041713714,1.0924128293991089
1631192881256,0.6910318732261658,0.4944338202476501,0.2416222691535949,1.0924128293991089
1631192881428,0.6910318732261658,0.3041320145130157,0.1541927456855774,1.0924128293991089
1631192881490,0.6910318732261658,0.2126740366220474,0.0880582705140113,1.0924128293991089
1631192881600,0.6910318732261658,0.2127783298492431,0.0479797273874282,1.0924128293991089
1631192881662,0.6910318732261658,0.2478278428316116,0.029235677793622,1.0924128293991089
1631192881756,0.6910318732261658,0.2939769625663757,0.0156636536121368,1.0924128293991089
1631192881881,0.6910318732261658,0.3476879000663757,-0.009077270515263,1.0924128293991089
1631192882006,0.6910318732261658,0.3521927893161773,-0.0543305315077304,1.0924128293991089
1631192882037,0.6910318732261658,0.3527160584926605,-0.1194004863500595,1.0924128293991089
1631192882224,0.6910318732261658,0.3439184427261352,-0.1950956732034683,1.0924128293991089
1631192882302,0.6910318732261658,0.31468665599823,-0.2659692168235779,1.0924128293991089
1631192882396,0.6910318732261658,0.2312904000282287,-0.3131786584854126,1.0924128293991089
1631192882599,0.8238763213157654,-0.2825070917606354,-0.329372376203537,1.0924128293991089
1631192882833,0.8746721148490906,-0.3298840522766113,-0.3286321759223938,1.0924128293991089
1631192882849,0.9310954213142396,-0.3546281158924103,-0.3314480483531952,1.0924128293991089
1631192882943,0.9763227701187134,-0.3445164561271667,-0.3482144176959991,1.0924128293991089
1631192882974,0.997083842754364,-0.3130466938018799,-0.3727599084377289,1.0924128293991089
1631192883227,0.9976001381874084,-0.2791574895381927,-0.3864493668079376,1.0924128293991089
1631192883258,0.989219069480896,-0.2384264469146728,-0.3761238157749176,1.0924128293991089
1631192883383,0.9812420010566713,-0.1698526293039322,-0.3445993959903717,1.0924128293991089
1631192883477,0.9757791757583618,-0.0728974863886833,-0.2984293103218078,1.0924128293991089
1631192883555,0.9757791757583618,0.0166785567998886,-0.2450453042984008,1.0924128293991089
1631192883742,0.9757791757583618,0.0980441272258758,-0.193748727440834,1.0924128293991089
1631192883805,0.9757791757583618,0.1105536371469497,-0.147988274693489,1.0924128293991089
1631192883867,0.9944285154342652,0.1258193552494049,-0.1038763895630836,1.0924128293991089
1631192883914,1.0106900930404663,0.1474515348672866,-0.0565772056579589,1.0924128293991089
1631192883961,1.0247896909713743,0.1767021715641021,-0.0122896134853363,1.0924128293991089
1631192884008,1.035560131072998,0.2131796926259994,0.0179197825491428,1.0924128293991089
1631192884074,1.0358545780181885,0.2550841867923736,0.0333203747868537,1.0924128293991089
1631192884231,1.0162913799285889,0.299191415309906,0.0433662571012973,1.0924128293991089
1631192884309,0.9750170707702636,0.3423314094543457,0.0568218864500522,1.0924128293991089
1631192884387,0.92975252866745,0.3863338828086853,0.0703734308481216,1.0924128293991089
1631192884465,0.92975252866745,0.4372400641441345,0.0748578161001205,1.0924128293991089
1631192884590,0.92975252866745,0.4961562752723694,0.0659395307302475,1.0924128293991089
1631192884762,0.92975252866745,0.4562032520771026,0.0460081733763217,1.0924128293991089
1631192885012,0.92975252866745,0.340774267911911,0.0173847898840904,1.0924128293991089
1631192885076,0.92975252866745,0.1168894246220588,-0.017790924757719,1.0924128293991089
1631192885139,0.2910186648368835,-0.3880174458026886,-0.0562580488622188,1.0924128293991089
1631192885311,0.4949217140674591,-0.3524773418903351,-0.0953518152236938,1.0924128293991089
1631192885373,0.6663498878479004,-0.2743381261825561,-0.1382317543029785,1.0924128293991089
1631192885483,0.7837815880775452,-0.2069398313760757,-0.194054439663887,1.0924128293991089
1631192885561,0.8498973250389099,-0.1757088005542755,-0.2618321478366852,1.0924128293991089
1631192885608,0.8758596181869507,-0.1783021092414856,-0.3200618028640747,1.0924128293991089
1631192885639,0.8751375079154968,-0.2001150846481323,-0.3520119786262512,1.0924128293991089
1631192885701,0.8603765368461609,-0.2231882363557815,-0.3687940537929535,1.0924128293991089
1631192885795,0.8412348628044128,-0.2316974401473999,-0.3907758593559265,1.0924128293991089
1631192886048,0.8227188587188721,-0.2159250974655151,-0.4094469249248504,1.0924128293991089
1631192886173,0.8073304295539856,-0.1773705184459686,-0.3971688449382782,1.0924128293991089
1631192886204,0.7943907976150513,-0.1291126906871795,-0.3493690490722656,1.0924128293991089
1631192886251,0.8036579489707947,-0.0859108418226242,-0.2947807908058166,1.0924128293991089
1631192886407,0.8161682486534119,-0.0428568199276924,-0.2591297030448913,1.0924128293991089
1631192886642,0.8308373689651489,-0.011308348737657,-0.2474836111068725,1.0924128293991089
1631192886704,0.8404824733734131,0.0062709208577871,-0.250444084405899,1.0924128293991089
1631192886816,0.8333799839019775,0.0078656878322362,-0.2557879686355591,1.0924128293991089
1631192887035,0.804054319858551,-0.0041586435399949,-0.257659912109375,1.0924128293991089
1631192887035,0.759233832359314,-0.0210432820022106,-0.2563914358615875,1.0924128293991089
1631192887113,0.7137789130210876,-0.0310150235891342,-0.2540531754493713,1.0924128293991089
1631192887160,0.6776899695396423,-0.0302542001008987,-0.2530077993869781,1.0924128293991089
1631192887238,0.65275639295578,-0.0232609268277883,-0.2520214915275574,1.0924128293991089
1631192887285,0.6381365060806274,-0.0158045087009668,-0.2463384419679641,1.0924128293991089
1631192887379,0.6316552758216858,-0.012282027862966,-0.2351188063621521,1.0924128293991089
1631192887457,0.6285665035247803,-0.0181882809847593,-0.2289330661296844,1.0924128293991089
1631192887660,0.6221873164176941,-0.0389096289873123,-0.2431451082229614,1.0924128293991089
1631192887910,0.6111080646514893,-0.0751318410038948,-0.2824328541755676,1.0924128293991089
1631192887941,0.5982339978218079,-0.1196207553148269,-0.3307719826698303,1.0924128293991089
1631192888177,0.5832117795944214,-0.1583598554134369,-0.3606185019016266,1.0924128293991089
1631192888380,0.566279411315918,-0.1765502095222473,-0.3604792356491089,1.0924128293991089
1631192888427,0.5546772480010986,-0.1678142696619033,-0.3434670269489288,1.0924128293991089
1631192888568,0.5584656596183777,-0.1377795040607452,-0.3264973163604736,1.0924128293991089
1631192888708,0.5788968205451965,-0.1018803715705871,-0.3130444288253784,1.0924128293991089
1631192888867,0.6082364320755005,-0.0719363391399383,-0.3001169860363006,1.0924128293991089
1631192888867,0.6438965797424316,-0.0515122488141059,-0.2887018322944641,1.0924128293991089
1631192888929,0.6871147751808167,-0.0346374921500682,-0.2833620905876159,1.0924128293991089
1631192889023,0.7333338260650635,-0.0151812462136149,0.0722995623946189,1.0924128293991089
1631192889101,0.7496464848518372,0.0195443201810121,0.0620757192373275,1.0924128293991089
1631192889257,0.7676149606704712,0.0332450717687606,0.0470996461808681,1.0924128293991089
1631192889460,0.7865870594978333,0.0456895716488361,0.0360977835953235,1.0924128293991089
1631192889554,0.8094618916511536,0.0579715780913829,0.041161686182022,1.0924128293991089
1631192889663,0.8383805751800537,0.0717007741332054,0.0665376335382461,1.0924128293991089
1631192889772,0.8732534050941467,0.0891239270567894,0.1007266864180564,1.0924128293991089
1631192889850,0.9126623272895812,0.1098977103829383,0.3799366950988769,1.0924128293991089
1631192889929,0.9522838592529296,0.1293480545282364,0.3882983028888702,1.0924128293991089
1631192889960,0.9861133694648744,0.1410699933767318,0.390748530626297,1.0924128293991089
1631192889991,1.0129706859588623,0.1418141275644302,0.4028012454509735,1.0924128293991089
1631192890022,1.0351654291152954,0.1350316852331161,0.4011346399784088,1.0924128293991089
1631192890053,1.0351654291152954,0.1292546093463897,0.3984609842300415,1.0924128293991089
1631192890085,1.0351654291152954,0.127578005194664,0.3973135948181152,1.0924128293991089
1631192890132,1.0351654291152954,0.1914478838443756,0.4050258100032806,1.0924128293991089
1631192890225,1.0351654291152954,0.3565676808357239,0.3195827901363373,1.0924128293991089
1631192890303,1.0351654291152954,0.549385666847229,0.4098816812038421,1.0924128293991089
1631192890382,1.0351654291152954,1.0523216724395752,0.7483130097389221,1.0924128293991089
1631192890491,1.0351654291152954,1.1961965560913086,0.7971072196960449,1.0924128293991089
1631192890569,1.0351654291152954,1.1504473686218262,0.8260628581047058,1.0924128293991089
1631192890663,1.0351654291152954,1.1007341146469116,0.835432767868042,1.0924128293991089
1631192890788,1.0351654291152954,1.0519105195999146,0.8346491456031799,1.0924128293991089
1631192890916,1.0351654291152954,1.0072944164276123,0.7597110867500305,1.0924128293991089
1631192891025,0.0880212113261222,0.9674934148788452,0.7605783343315125,1.0924128293991089
1631192891088,0.0935294851660728,0.9323034882545472,0.7637597918510437,1.0924128293991089
1631192891166,0.0935294851660728,0.9323034882545472,0.7615721821784973,1.0924128293991089
1631192891275,0.0935294851660728,0.9323034882545472,0.7645547389984131,1.0924128293991089
1631192891478,0.0935294851660728,0.9323034882545472,0.7699748873710632,1.0924128293991089
1631192891697,0.0935294851660728,0.964737355709076,0.7796556353569031,1.0924128293991089
1631192891728,0.0935294851660728,0.9973320364952089,0.7909488677978516,1.0924128293991089
1631192891916,0.0935294851660728,1.0249056816101074,0.8039018511772156,1.0924128293991089
1631192891978,0.0935294851660728,1.0438889265060425,0.7981235384941101,1.0924128293991089
1631192892025,0.0935294851660728,0.8202775120735168,0.4771783947944641,1.0924128293991089
1631192892072,0.0935294851660728,0.1469191312789917,0.3684380948543548,1.0924128293991089
1631192892228,0.0935294851660728,-0.1307436823844909,0.2671068608760834,1.0924128293991089
1631192892275,0.0880476832389831,-0.3479198515415191,0.2220483869314193,1.0924128293991089
1631192892353,0.0880476832389831,-0.3479198515415191,0.22685307264328,1.0924128293991089
1631192892431,0.0880476832389831,-0.3479198515415191,0.2439194917678833,1.0924128293991089
1631192892649,0.0880476832389831,-0.3479198515415191,0.3653431832790375,1.0924128293991089
1631192892697,0.0880476832389831,-0.3479198515415191,0.460107147693634,1.0924128293991089
1631192892916,0.0880476832389831,-0.3479198515415191,0.520048975944519,1.0924128293991089
1631192892950,0.0880476832389831,-0.3479198515415191,0.5434644222259521,1.0924128293991089
1631192893090,0.0880476832389831,-0.3479198515415191,0.5357183814048767,1.0924128293991089
1631192893228,0.0880476832389831,-0.3479198515415191,0.5018367767333984,1.0924128293991089
1631192893400,0.0880476832389831,-0.3479198515415191,0.3905977308750152,1.0924128293991089
1631192893403,0.0880476832389831,-0.3479198515415191,0.4397576749324798,1.0924128293991089
1631192893507,0.0880476832389831,-0.3479198515415191,0.3457053601741791,1.0924128293991089
1631192893606,0.0880476832389831,-0.3479198515415191,0.3074996769428253,1.0924128293991089
1631192893659,0.0880476832389831,-0.3479198515415191,0.2770302891731262,1.0924128293991089
1631192893738,0.0880476832389831,-0.3479198515415191,0.2514834105968475,1.0924128293991089
1631192893784,0.8860955238342285,0.0571557693183422,0.2270096242427826,1.0924128293991089
1631192893878,0.8492341041564941,0.0254945456981658,0.201688677072525,1.0924128293991089
1631192893946,0.8050417304039001,-0.0094836391508579,0.1758164912462234,1.0924128293991089
1631192894039,0.7610304355621338,-0.040558110922575,0.0615687929093837,1.0924128293991089
1631192894174,0.7219572067260742,-0.0666292309761047,-0.0930930376052856,1.0924128293991089
1631192894315,0.6889125108718872,-0.0891638547182083,-0.2587799727916717,1.0924128293991089
1631192894424,0.6612036824226379,-0.1080887913703918,-0.3699389696121216,1.0924128293991089
1631192894440,0.6364216208457947,-0.1233924925327301,-0.4078720211982727,1.0924128293991089
1631192894696,0.6133182048797607,-0.1377548724412918,-0.4216010868549347,1.0924128293991089
1631192894791,0.5934228897094727,-0.1515876799821853,-0.4270634353160858,1.0924128293991089
1631192894993,0.5789487957954407,-0.1594106554985046,-0.4130786955356598,1.0924128293991089
1631192895070,0.5710292458534241,-0.1557389944791793,-0.3828879594802856,1.0924128293991089
1631192895133,0.5305115580558777,-0.1608693748712539,-0.3535004258155823,1.0924128293991089
1631192895148,0.4909297227859497,-0.1732510477304458,-0.3374432623386383,1.0924128293991089
1631192895211,0.4645978212356567,-0.1899684071540832,-0.333217978477478,1.0924128293991089
1631192895242,0.4632588624954223,-0.1978231370449066,-0.3317084014415741,1.0924128293991089
1631192895336,0.4880208671092987,-0.1913933157920837,-0.3263694047927856,1.0924128293991089
1631192895509,0.5302197933197021,-0.1753669381141662,-0.3143708705902099,1.0924128293991089
1631192895556,0.5839671492576599,-0.1510562449693679,-0.2998609542846679,1.0924128293991089
1631192895697,0.649204671382904,-0.1187105178833007,-0.2839868366718292,1.0924128293991089
1631192895869,0.7240606546401978,-0.0816742703318595,-0.2554152309894562,1.0924128293991089
1631192895916,0.7987210750579834,-0.0463176257908344,-0.1940295994281768,1.0924128293991089
1631192895997,0.8589582443237305,-0.0156837254762649,-0.0989819839596748,1.0924128293991089
1631192896106,0.8976457118988037,0.0123517019674181,0.0053643402643501,1.0924128293991089
1631192896184,0.914540469646454,0.0369274504482746,0.0927365198731422,1.0924128293991089
1631192896262,0.916037619113922,0.0519621856510639,0.150544136762619,1.0924128293991089
1631192896434,0.936178743839264,0.0548803657293319,0.1792118549346923,1.0924128293991089
1631192896512,0.955970823764801,0.0496472753584384,0.1879013627767563,1.0924128293991089
1631192896606,0.9755696654319764,0.0543737486004829,0.1904927343130111,1.0924128293991089
1631192896731,0.9940252304077148,0.0628869459033012,0.2048041224479675,1.0924128293991089
1631192896809,1.0101767778396606,0.0730298906564712,0.2452235668897628,1.0924128293991089
1631192896968,1.024625539779663,0.0829789638519287,0.3090149760246277,1.0924128293991089
1631192897077,1.039302110671997,0.092893861234188,0.3760325014591217,1.0924128293991089
1631192897093,1.0514339208602903,0.0989420562982559,0.4299021065235138,1.0924128293991089
1631192897191,1.0522775650024414,0.096795879304409,0.4653336703777313,1.0924128293991089
1631192897300,1.027747392654419,0.0850359350442886,0.4849710762500763,1.0924128293991089
1631192897394,0.960569143295288,0.0664950981736183,0.4907051622867584,1.0924128293991089
1631192897503,0.960569143295288,0.04333371296525,0.4814884662628174,1.0924128293991089
1631192897628,0.960569143295288,0.0108302216976881,0.4612631499767303,1.0924128293991089
1631192897800,0.960569143295288,0.0108302216976881,0.439302384853363,1.0924128293991089
1631192897862,0.960569143295288,0.0108302216976881,0.4242041409015655,1.0924128293991089
1631192897987,0.960569143295288,0.0108302216976881,0.4185404777526855,1.0924128293991089
1631192898019,0.960569143295288,0.0108302216976881,0.4185084998607635,1.0924128293991089
1631192898097,0.960569143295288,0.0108302216976881,0.4182837605476379,1.0924128293991089
1631192898206,0.960569143295288,0.0108302216976881,0.4094161093235016,1.0924128293991089
1631192898340,0.960569143295288,0.0108302216976881,0.380523532629013,1.0924128293991089
1631192898405,0.960569143295288,0.0108302216976881,0.3252426981925964,1.0924128293991089
1631192898500,0.960569143295288,0.0108302216976881,0.2525537014007568,1.0924128293991089
1631192898578,0.960569143295288,0.0108302216976881,0.1879497766494751,1.0924128293991089
1631192898739,0.960569143295288,0.0108302216976881,0.1576398611068725,1.0924128293991089
1631192898895,0.960569143295288,-0.2878909707069397,0.1571376025676727,1.0924128293991089
1631192898942,0.960569143295288,-0.3080773949623108,0.161450445652008,1.0924128293991089
1631192899039,0.6895644664764404,-0.3028178513050079,0.1572575122117996,1.0924128293991089
1631192899101,0.6895644664764404,-0.2639346420764923,0.1421883702278137,1.0924128293991089
1631192899225,0.6895644664764404,-0.2056963592767715,0.1217036619782447,1.0924128293991089
1631192899351,0.6895644664764404,-0.1457993537187576,0.1086669340729713,1.0924128293991089
1631192899522,0.6895644664764404,-0.0968242064118385,0.1173800006508827,1.0924128293991089
1631192899569,0.6895644664764404,-0.0651212409138679,0.1480598449707031,1.0924128293991089
1631192899663,0.6895644664764404,-0.052633911371231,0.1834916323423385,1.0924128293991089
1631192899741,0.6895644664764404,-0.0563549175858497,0.2084594666957855,1.0924128293991089
1631192899928,0.6895644664764404,-0.0582326166331768,0.2214017510414123,1.0924128293991089
1631192900056,0.6895644664764404,0.0002436356589896,0.2285807579755783,1.0924128293991089
1631192900197,0.6895644664764404,0.2108327001333236,0.2339226454496383,1.0924128293991089
1631192900228,0.6895644664764404,0.4990876913070678,0.2325585782527923,1.0924128293991089
1631192900259,0.6895644664764404,0.743125319480896,0.2164848893880844,1.0924128293991089
1631192900541,0.6895644664764404,0.90630304813385,0.1872186213731765,1.0924128293991089
1631192900572,0.6895644664764404,0.9956862330436708,0.1563470363616943,1.0924128293991089
1631192900619,0.6895644664764404,1.0321983098983765,0.1358971297740936,1.0924128293991089
1631192900728,0.6895644664764404,1.0404070615768433,0.1250592172145843,1.0924128293991089
1631192900806,0.6895644664764404,1.039189696311951,0.1129942014813423,1.0924128293991089
1631192900868,0.6895644664764404,1.035846471786499,0.088593378663063,1.0924128293991089
1631192900958,0.6895644664764404,1.0322809219360352,0.0428509712219238,1.0924128293991089
1631192901083,0.6895644664764404,1.0291272401809692,-0.0260194297879934,1.0924128293991089
1631192901177,0.6895644664764404,1.026922345161438,-0.1017601937055587,1.0924128293991089
1631192901324,0.6895644664764404,1.025869369506836,-0.1558940410614013,1.0924128293991089
1631192901355,0.6895644664764404,1.024754762649536,-0.1750513315200805,1.0924128293991089
1631192901543,0.6246995329856873,1.0181996822357178,-0.1819276660680771,1.0924128293991089
1631192901559,0.6166357398033142,0.9906952381134032,-0.2074292004108429,1.0924128293991089
1631192901668,0.6186646223068237,0.9158980846405028,-0.2563760280609131,1.0924128293991089
1631192901808,0.6270390152931213,0.7663279175758362,-0.3054617345333099,1.0924128293991089
1631192901906,0.6430610418319702,0.5182590484619141,-0.329121857881546,1.0924128293991089
1631192902054,0.6683385372161865,0.1603681743144989,-0.3216139376163482,1.0924128293991089
1631192902133,0.6944802403450012,-0.2477653175592422,-0.2957161366939544,1.0924128293991089
1631192902226,0.7158021330833435,-0.4826310873031616,-0.2607126235961914,1.0924128293991089
1631192902257,0.729455292224884,-0.5179259777069092,-0.2220455855131149,1.0924128293991089
1631192902367,0.7376642227172852,-0.5091075301170349,-0.1864189952611923,1.0924128293991089
1631192902555,0.745033323764801,-0.4993202090263366,-0.1598532050848007,1.0924128293991089
1631192902617,0.7531209588050842,-0.4825977087020874,-0.1455858945846557,1.0924128293991089
1631192902663,0.765530526638031,-0.4576907455921173,-0.1455317437648773,1.0924128293991089
1631192902837,0.7730346322059631,-0.4331414103507995,-0.1575823724269867,1.0924128293991089
1631192902993,0.776051938533783,-0.4156799912452698,-0.1749981343746185,1.0924128293991089
1631192903228,0.7737997770309448,-0.4080837666988373,-0.1884594857692718,1.0924128293991089
1631192903368,0.7660614848136902,-0.4078758060932159,-0.1918195039033889,1.0924128293991089
1631192903572,0.7531083226203918,-0.4108620285987854,-0.1888582557439804,1.0924128293991089
1631192903775,0.7370607256889343,-0.4138466715812683,-0.1889937222003936,1.0924128293991089
1631192903822,0.7176812291145325,-0.4151405394077301,-0.1982098221778869,1.0924128293991089
1631192903884,0.6944094896316528,-0.41541188955307,-0.2135534882545471,1.0924128293991089
1631192904071,0.6698117256164551,-0.414944440126419,-0.2259408086538314,1.0924128293991089
1631192904165,0.6495274901390076,0.5422645211219788,-0.1761223077774047,1.0924128293991089
1631192904212,0.6237530708312988,0.5434548258781433,-0.1842401325702667,1.0924128293991089
1631192904368,0.5996752977371216,0.5445891618728638,-0.1983252614736557,1.0924128293991089
1631192904415,0.5991047620773315,0.5445051193237305,-0.2101212590932846,1.0924128293991089
1631192904415,0.6511378288269043,0.5428333878517151,-0.2065614908933639,1.0924128293991089
1631192904478,0.7435224652290344,0.5404053926467896,-0.1857157349586486,1.0924128293991089
1631192904743,0.8322111964225769,0.5387438535690308,-0.1586944311857223,1.0924128293991089
1631192904852,0.8893282413482666,0.5388156771659851,-0.134305328130722,1.0924128293991089
1631192904884,0.9135470390319824,0.5404960513114929,-0.1118799224495887,1.0924128293991089
1631192904915,0.9190314412117004,0.5427581071853638,-0.0894566774368286,1.0924128293991089
1631192905059,1.1102807521820068,0.8984929323196411,0.7212579250335693,1.0924128293991089
1631192905169,1.1104085445404053,0.8996834754943848,0.7227199673652649,1.0924128293991089
1631192905340,1.1114038228988647,0.9014415144920348,0.7225606441497803,1.0924128293991089
1631192905419,1.1126233339309692,0.903691291809082,0.721244752407074,1.0924128293991089
1631192905559,1.1128740310668943,0.9837948679924012,0.7190672159194946,1.0924128293991089
1631192905559,1.109780192375183,0.8172072172164917,0.7093819379806519,1.0924128293991089
1631192905668,1.1070090532302856,0.8180602788925171,0.7067821025848389,1.0924128293991089
1631192905762,1.1028473377227783,0.8182520866394043,0.7057266235351562,1.0924128293991089
1631192905793,1.0904207229614258,0.8231537938117981,0.7067263722419739,1.0924128293991089
1631192905856,1.0579465627670288,0.8227325677871704,0.7093713879585266,1.0924128293991089
1631192905997,0.999748468399048,0.8225156664848328,0.7126843929290771,1.0924128293991089
1631192906031,0.9258888363838196,0.8230821490287781,0.7158154845237732,1.0924128293991089
1631192906063,0.8632686138153076,0.824626088142395,0.7178915739059448,1.0924128293991089
1631192906172,0.8347026109695435,0.8266162276268005,0.7181355357170105,1.0924128293991089
1631192906266,0.8337146043777466,0.8281844258308411,0.7164009213447571,1.0924128293991089
1631192906266,0.372832715511322,0.3677400946617126,-0.119230106472969,1.0924128293991089
1631192906359,0.3975443542003631,0.365831047296524,-0.1303406208753585,1.0924128293991089
1631192906532,0.4212634265422821,0.5271377563476562,-0.1276591420173645,1.0924128293991089
1631192906625,0.4824762642383575,0.3740640580654144,-0.101276971399784,1.0924128293991089
1631192906625,0.4481618404388428,0.6007299423217773,-0.1149049922823906,1.0924128293991089
1631192906828,0.5242025852203369,0.369045615196228,-0.0920726656913757,1.0924128293991089
1631192906922,0.5668902397155762,0.3672004342079162,-0.0882232412695884,1.0924128293991089
1631192906985,0.5998107194900513,0.3683676123619079,-0.0908378958702087,1.0924128293991089
1631192907143,0.6187141537666321,0.356758177280426,-0.1040548235177993,1.0924128293991089
1631192907252,0.6283020973205566,0.3595930337905884,-0.1334910839796066,1.0924128293991089
1631192907315,0.6382926106452942,0.3593781590461731,-0.1804624944925308,1.0924128293991089
1631192907440,0.6584618091583252,0.3577699661254883,-0.2377616316080093,1.0924128293991089
1631192907456,0.6764636039733887,0.3747329115867615,-0.2893459796905517,1.0924128293991089
1631192907627,0.6897197961807251,0.3916094303131103,-0.3126617670059204,1.0924128293991089
1631192907737,0.7001802921295166,0.4130988717079162,-0.2914256453514099,1.0924128293991089
1631192907768,0.7116981744766235,0.4422920644283294,-0.2347998321056366,1.0924128293991089
1631192907830,0.7244353890419006,0.4787880480289459,-0.1751525998115539,1.0924128293991089
1631192908002,0.7327274680137634,0.1851906031370163,-0.1397489458322525,1.0924128293991089
1631192908080,0.7286796569824219,-0.347867876291275,-0.133660078048706,1.0924128293991089
1631192908175,0.7053086757659912,-0.3352415561676025,-0.142581045627594,1.0924128293991089
1631192908252,0.6578197479248047,-0.3306812047958374,-0.1446721106767654,1.0924128293991089
1631192908424,0.5870223045349121,-0.3391313850879669,-0.1263824701309204,1.0924128293991089
1631192908487,0.5870223045349121,-0.3641955256462097,-0.081990860402584,1.0924128293991089
1631192908580,0.5870223045349121,-0.3641955256462097,-0.0148376422002911,1.0924128293991089
1631192908752,0.5870223045349121,-0.3641955256462097,0.0662752389907836,1.0924128293991089
1631192908846,0.5870223045349121,-0.3641955256462097,0.1465769708156585,1.0924128293991089
1631192908877,0.5870223045349121,-0.3641955256462097,0.2114691585302353,1.0924128293991089
1631192908955,1.1350053548812866,0.3131523728370666,0.2554799020290375,1.0924128293991089
1631192909084,1.126967191696167,0.2487765550613403,0.27727210521698,1.0924128293991089
1631192909193,1.126967191696167,0.2097027450799942,0.2785792350769043,1.0924128293991089
1631192909271,1.126967191696167,0.2097027450799942,0.2634819746017456,1.0924128293991089
1631192909427,1.126967191696167,0.2097027450799942,0.2415178418159485,1.0924128293991089
1631192909459,1.126967191696167,0.2097027450799942,0.224704623222351,1.0924128293991089
1631192909552,1.126967191696167,0.2097027450799942,0.2193008661270141,1.0924128293991089
1631192909662,1.126967191696167,0.2097027450799942,0.2197189331054687,1.0924128293991089
1631192909771,1.126967191696167,0.2097027450799942,0.216201364994049,1.0924128293991089
1631192909992,1.126967191696167,0.2097027450799942,0.2032600492238998,1.0924128293991089
1631192910026,1.126967191696167,0.2097027450799942,0.1765013337135315,1.0924128293991089
1631192910089,1.126967191696167,0.2097027450799942,0.1309405416250229,1.0924128293991089
1631192910198,1.108181118965149,0.1484625488519668,0.0611814521253109,1.0924128293991089
1631192910370,1.108181118965149,0.0515241958200931,-0.0302480887621641,1.0924128293991089
1631192910433,1.108181118965149,0.0515241958200931,-0.1178101152181625,1.0924128293991089
1631192910542,1.108181118965149,0.0515241958200931,-0.1598896831274032,1.0924128293991089
1631192910651,1.108181118965149,0.0515241958200931,-0.1393074691295623,1.0924128293991089
1631192910682,1.108181118965149,0.0515241958200931,-0.0887690037488937,1.0924128293991089
1631192910823,0.5260308980941772,0.3474017977714538,-0.0450559519231319,1.0924128293991089
1631192910964,0.4549907743930816,0.3013316094875335,-0.0200486872345209,1.0924128293991089
1631192911123,0.4315493106842041,0.2797118127346039,-0.0070761730894446,1.0924128293991089
1631192911154,0.4613126516342163,0.2961314916610718,0.0043497132137417,1.0924128293991089
1631192911185,0.5307707190513611,0.3509073555469513,0.025058289989829,1.0924128293991089
1631192911451,0.6031312942504883,0.4190904796123504,0.0575611740350723,1.0924128293991089
1631192911482,0.6548706293106079,0.4718512892723083,0.0926621481776237,1.0924128293991089
1631192911591,0.684218168258667,0.4955905973911285,0.1185742616653442,1.0924128293991089
1631192911747,0.7020995020866394,0.4921828210353851,0.1304181814193725,1.0924128293991089
1631192911779,0.7150835990905762,0.4714426398277282,0.1312799602746963,1.0924128293991089
1631192911810,0.7232316732406616,0.4444630444049835,0.1268470883369445,1.0924128293991089
1631192912017,0.7230561375617981,0.4184970259666443,0.1158066317439079,1.0924128293991089
1631192912142,0.7102360129356384,0.3855098485946655,0.0921739116311073,1.0924128293991089
1631192912220,0.7015706300735474,0.3616169393062591,0.0539580024778842,1.0924128293991089
1631192912236,0.7015380859375,0.347564548254013,0.0109523916617035,1.0924128293991089
1631192912345,0.7062222957611084,0.3382411599159241,-0.0168093293905258,1.0924128293991089
1631192912439,0.7133404612541199,0.3289338648319244,-0.0159419775009155,1.0924128293991089
1631192912595,0.7198041677474976,0.3142259418964386,0.0047402568161487,1.0924128293991089
1631192912830,0.7192760705947876,0.2855060696601867,0.0268305987119674,1.0924128293991089
1631192912923,0.7020047903060913,0.2305401414632797,0.0358248502016067,1.0924128293991089
1631192912955,0.6667267084121704,0.1403846591711044,0.0290311444550752,1.0924128293991089
1631192913051,0.6226186156272888,0.0198109671473503,0.0171961970627307,1.0924128293991089
1631192913098,0.5795313715934753,-0.0972085744142532,0.0141407921910285,1.0924128293991089
1631192913129,0.5366613268852234,-0.1524280607700348,0.0242683440446853,1.0924128293991089
1631192913286,0.4897761046886444,-0.1048736646771431,0.0485993772745132,1.0924128293991089
1631192913348,0.4422042369842529,0.0097061656415462,0.0852134451270103,1.0924128293991089
1631192913457,0.4077806174755096,0.1270198076963424,0.1303644478321075,1.0924128293991089
1631192913582,0.3931189477443695,0.2118328660726547,0.1749138534069061,1.0924128293991089
1631192913661,0.3945807814598083,0.2586713135242462,0.2119467258453369,1.0924128293991089
1631192913786,0.4030370712280273,0.2763518095016479,0.2388455122709274,1.0924128293991089
1631192913879,0.4091719090938568,0.2804234027862549,0.2547041177749634,1.0924128293991089
1631192913926,0.4149482250213623,0.304079532623291,0.2570038735866546,1.0924128293991089
1631192914085,0.408283531665802,0.330793559551239,0.2466819435358047,1.0924128293991089
1631192914257,0.3882277607917785,0.3586563169956207,0.2320145517587661,1.0924128293991089
1631192914320,0.3650501370429992,0.3858087956905365,0.2221510261297226,1.0924128293991089
1631192914429,0.3512844443321228,0.4124278128147125,0.2186850011348724,1.0924128293991089
1631192914460,0.3488493263721466,0.4412026107311249,0.215473785996437,1.0924128293991089
1631192914538,0.3532865643501282,0.4729324579238891,0.2080350071191787,1.0924128293991089
1631192914648,0.3625294864177704,0.5044643878936768,0.197475254535675,1.0924128293991089
1631192914773,0.3798602819442749,0.5211318731307983,0.1808869242668151,1.0924128293991089
1631192914898,0.4024483859539032,0.5023872256278992,0.1510668843984604,1.0924128293991089
1631192915042,0.4207577705383301,0.4306098222732544,0.1010566055774688,1.0924128293991089
1631192915073,0.4207577705383301,0.4306098222732544,0.0338297635316848,1.0924128293991089
1631192915182,0.4207577705383301,0.4306098222732544,-0.0325241163372993,1.0924128293991089
1631192915417,0.4207577705383301,0.4306098222732544,-0.0686399191617965,1.0924128293991089
1631192915510,0.4207577705383301,0.4306098222732544,-0.0510636568069458,1.0924128293991089
1631192915541,0.4207577705383301,0.4175820350646972,0.0197716429829597,1.0924128293991089
1631192915667,0.4207577705383301,0.4332379400730133,0.1368222534656524,1.0924128293991089
1631192915760,0.4207577705383301,0.4146540462970733,0.2683487236499786,1.0924128293991089
1631192915791,0.4207577705383301,0.3813380300998688,0.3811956346035003,1.0924128293991089
1631192915916,0.4207577705383301,0.3473723232746124,0.4581185579299927,1.0924128293991089
1631192915995,0.4207577705383301,0.3175414800643921,0.4989148080348968,1.0924128293991089
1631192916092,0.4207577705383301,0.2908281087875366,0.5141676664352417,1.0924128293991089
1631192916217,0.4207577705383301,0.2672417759895324,0.5178350806236267,1.0924128293991089
1631192916404,0.4207577705383301,0.2471682727336883,0.5177831053733826,1.0924128293991089
1631192916514,0.8472127318382263,0.2304382771253585,0.5168840289115906,1.0924128293991089
1631192916607,0.8352969884872437,0.2153105735778808,0.5166227221488953,1.0924128293991089
1631192916654,0.8313928842544556,0.1992558389902115,0.5173366069793701,1.0924128293991089
1631192916685,0.8331093192100525,0.1896563470363617,0.5169491767883301,1.0924128293991089
1631192916888,0.8673600554466248,0.0867874175310134,0.494179755449295,1.0924128293991089
1631192916888,0.8620563745498657,0.153686448931694,0.5110501646995544,1.0924128293991089
1631192916998,0.8351500034332275,0.0002930937334895,0.4615531265735626,1.0924128293991089
1631192917110,0.8066436648368835,-0.0798297971487045,0.4007540941238403,1.0924128293991089
1631192917219,0.7865227460861206,-0.1288030743598938,0.2962305843830108,1.0924128293991089
1631192917297,0.7714142799377441,-0.1499327570199966,0.1358422487974167,1.0924128293991089
1631192917437,0.756463885307312,-0.162098079919815,-0.0747304931282997,1.0924128293991089
1631192917515,0.7395008206367493,-0.1738893389701843,-0.2842239439487457,1.0924128293991089
1631192917656,0.7238441109657288,-0.1775065064430236,-0.3968417942523956,1.0924128293991089
1631192917765,0.6523300409317017,-0.1566343754529953,-0.3792143166065216,1.0924128293991089
1631192917859,0.6466485857963562,-0.106898695230484,-0.2845343351364136,1.0924128293991089
1631192917968,0.6271041631698608,-0.0470140092074871,-0.1783339828252792,1.0924128293991089
1631192918049,0.6081651449203491,0.0008322342182509,-0.0999505370855331,1.0924128293991089
1631192918096,0.5921211242675781,0.0281913746148347,-0.0595182403922081,1.0924128293991089
1631192918299,0.5857851505279541,0.0398505888879299,-0.0504201129078865,1.0924128293991089
1631192918377,0.5965476632118225,0.0463214814662933,-0.0576551854610443,1.0924128293991089
1631192918565,0.6274940371513367,0.0538171790540218,-0.0685482174158096,1.0924128293991089
1631192918612,0.6648966073989868,0.0637756288051605,-0.0767511203885078,1.0924128293991089
1631192918674,0.6905008554458618,0.0747502446174621,-0.0791289657354354,1.0924128293991089
1631192918784,0.6965614557266235,0.0838428139686584,-0.076832465827465,1.0924128293991089
1631192918846,0.6871693730354309,0.0889487490057945,-0.0731435939669609,1.0924128293991089
1631192919034,0.6710169315338135,0.0889560282230377,-0.0703463181853294,1.0924128293991089
1631192919209,0.6554085612297058,0.0839847922325134,-0.0700941756367683,1.0924128293991089
1631192919272,0.6403307914733887,0.0725781843066215,-0.0745716243982315,1.0924128293991089
1631192919350,0.6263920068740845,0.0457497686147689,-0.0959640070796012,1.0924128293991089
1631192919381,0.623771607875824,-0.0055435947142541,-0.1494635194540023,1.0924128293991089
1631192919443,0.6458996534347534,-0.0806667581200599,-0.2406497746706009,1.0924128293991089
1631192919584,0.688239574432373,-0.1626587808132171,-0.3507290780544281,1.0924128293991089
1631192919693,0.7269972562789917,-0.2247673124074936,-0.4398205578327179,1.0924128293991089
1631192919818,0.743078887462616,-0.2538414895534515,-0.4780017733573913,1.0924128293991089
1631192919896,0.7331005930900574,-0.2634999752044678,-0.4816650748252868,1.0924128293991089
1631192919990,0.7035752534866333,-0.2717432379722595,-0.4753955602645874,1.0924128293991089
1631192920057,0.6659694910049438,-0.2902487814426422,-0.4641451835632324,1.0924128293991089
1631192920228,0.6348246932029724,-0.320568710565567,-0.450230211019516,1.0924128293991089
1631192920385,0.6223446130752563,-0.3504206538200378,-0.4381095170974731,1.0924128293991089
1631192920416,0.6305939555168152,-0.3593485951423645,-0.4341041445732116,1.0924128293991089
1631192920447,0.6505866646766663,-0.3348024189472198,-0.4421935379505157,1.0924128293991089
1631192920557,0.6724178791046143,-0.2840301096439361,-0.4558711349964142,1.0924128293991089
1631192920728,0.6911737322807312,-0.2173684984445572,-0.4579439461231231,1.0924128293991089
1631192920791,0.7021541595458984,-0.139891967177391,-0.4322674870491028,1.0924128293991089
1631192920869,0.6972688436508179,-0.0609208531677722,-0.3835419118404388,1.0924128293991089
1631192920994,0.6683236956596375,0.0056111593730747,-0.3324956595897674,1.0924128293991089
1631192921091,0.613760232925415,0.0496252328157424,-0.2946832478046417,1.0924128293991089
1631192921185,0.5455213785171509,0.0716818869113922,-0.2701272368431091,1.0924128293991089
1631192921294,0.4839903116226196,0.0783689692616462,-0.2519538998603821,1.0924128293991089
1631192921449,0.4449214339256286,0.0769969746470451,-0.2323677986860275,1.0924128293991089
1631192921622,0.4260084629058838,0.0719370394945144,-0.2082418501377105,1.0924128293991089
1631192921684,0.4181782603263855,0.0654154792428016,-0.1827140301465988,1.0924128293991089
1631192921714,0.4128058552742004,0.0581961013376712,-0.1585562080144882,1.0924128293991089
1631192921776,0.4057980179786682,0.0500363297760486,-0.1301224678754806,1.0924128293991089
1631192921887,0.3923112750053406,0.0409746579825878,-0.0859488621354103,1.0924128293991089
1631192922124,0.3725632727146148,0.0325168445706367,-0.0269138254225254,1.0924128293991089
1631192922215,0.3253649175167084,0.0116287041455507,0.065890185534954,1.0924128293991089
1631192922236,0.3485813736915588,0.0249148644506931,0.0294909290969371,1.0924128293991089
1631192922246,0.3111923038959503,-0.0195154640823602,0.078249916434288,1.0924128293991089
1631192922385,0.3055893182754516,-0.0742292553186416,0.0772949606180191,1.0924128293991089
1631192922479,0.3071210980415344,-0.1487884223461151,0.0841246023774147,1.0924128293991089
1631192922696,0.3093166351318359,-0.2226016074419021,0.1199010014533996,1.0924128293991089
1631192922806,0.3072127401828766,-0.2707008719444275,0.1844015717506408,1.0924128293991089
1631192922867,0.3035858273506164,-0.2846718728542328,0.2538657784461975,1.0924128293991089
1631192923110,0.3025460541248321,-0.245447963476181,0.3320058286190033,1.0924128293991089
1631192923125,0.3010193109512329,-0.2735514342784881,0.3058767020702362,1.0924128293991089
1631192923295,0.3073059618473053,-0.2030178308486938,0.3379932045936584,1.0924128293991089
1631192923341,0.3150230050086975,-0.1482616513967514,0.3350594043731689,1.0924128293991089
1631192923347,0.3139505386352539,-0.0870687961578369,0.3350173532962799,1.0924128293991089
1631192923436,0.3139505386352539,-0.0870687961578369,0.3456149697303772,1.0924128293991089
1631192923562,0.3139505386352539,-0.0870687961578369,0.367962896823883,1.0924128293991089
1631192923594,0.3139505386352539,-0.0870687961578369,0.3957114219665527,1.0924128293991089
1631192923702,0.3139505386352539,-0.0870687961578369,0.420337826013565,1.0924128293991089
1631192923858,0.3139505386352539,0.3183198571205139,0.437592476606369,1.0924128293991089
1631192923905,0.3139505386352539,0.3498058319091797,0.4479113519191742,1.0924128293991089
1631192924095,1.0631498098373413,0.362010508775711,0.4509210586547851,1.0924128293991089
1631192924095,1.0634033679962158,0.3557178080081939,0.4408794045448303,1.0924128293991089
1631192924204,1.052137017250061,0.3363153040409088,0.4127794802188873,1.0924128293991089
1631192924408,1.0334231853485107,0.3145643472671509,0.3703974485397339,1.0924128293991089
1631192924439,1.0218151807785034,0.3072722256183624,0.3324070572853088,1.0924128293991089
1631192924641,1.0218151807785034,0.3210270404815674,0.3196984529495239,1.0924128293991089
1631192924735,1.0218151807785034,0.3449988067150116,0.3319935202598572,1.0924128293991089
1631192924767,1.0218151807785034,0.3652918636798858,0.3512663841247558,1.0924128293991089
1631192924845,1.0050479173660278,0.37605881690979,0.3569210171699524,1.0924128293991089
1631192925001,0.983988344669342,0.3784861266613006,0.3370476365089416,1.0924128293991089
1631192925113,0.983988344669342,0.3873550295829773,0.2912182509899139,1.0924128293991089
1631192925129,0.983988344669342,0.3905172646045685,0.2364729940891266,1.0924128293991089
1631192925285,0.9644608497619628,0.4040307104587555,0.21728515625,1.0924128293991089
1631192925332,0.9539449214935304,0.4417241811752319,0.2641893923282623,1.0924128293991089
1631192925519,0.9444599747657776,0.4406177401542663,0.3453227877616882,1.0924128293991089
1631192925660,0.9218587279319764,0.4422832131385803,0.3516798019409179,1.0924128293991089
1631192925832,0.8867275714874268,0.4513252675533294,0.3620960712432861,1.0924128293991089
1631192925894,0.8562323451042175,0.4698014557361603,0.3778947591781616,1.0924128293991089
1631192925957,0.8562323451042175,0.5157730579376221,0.4227182865142822,1.0924128293991089
1631192925957,0.8562323451042175,0.4946124255657196,0.4002245962619781,1.0924128293991089
1631192926084,0.8562323451042175,0.5244938135147095,0.4386603236198425,1.0924128293991089
1631192926225,0.8562323451042175,0.5212432146072388,0.4493154287338257,1.0924128293991089
1631192926256,0.8562323451042175,0.5153506994247437,0.4168017208576202,1.0924128293991089
1631192926396,0.8562323451042175,0.5191037058830261,0.3905366361141205,1.0924128293991089
1631192926490,0.8562323451042175,0.5423712730407715,0.3809868991374969,1.0924128293991089
1631192926615,0.8562323451042175,0.5423712730407715,0.389311283826828,1.0924128293991089
1631192926662,0.8562323451042175,0.5423712730407715,0.4065017998218536,1.0924128293991089
1631192926725,0.8562323451042175,0.5423712730407715,0.4029324948787689,1.0924128293991089
1631192926865,0.8562323451042175,0.5423712730407715,0.3444475531578064,1.0924128293991089
1631192926959,0.8562323451042175,0.5423712730407715,0.2135348469018936,1.0924128293991089
1631192927086,0.8562323451042175,0.5423712730407715,0.2483644783496856,1.0924128293991089
1631192927196,0.8562323451042175,0.5423712730407715,0.2630515694618225,1.0924128293991089
1631192927258,0.8562323451042175,0.5423712730407715,0.2671708464622497,1.0924128293991089
1631192927336,0.8562323451042175,0.5423712730407715,0.2719385623931885,1.0924128293991089
1631192927508,0.8562323451042175,0.5423712730407715,0.2836362421512604,1.0924128293991089
1631192927602,0.8562323451042175,0.5423712730407715,0.2948396801948547,1.0924128293991089
1631192927680,0.8562323451042175,0.5423712730407715,0.2951704561710357,1.0924128293991089
1631192927774,0.8562323451042175,0.5423712730407715,0.3042832911014557,1.0924128293991089
1631192927914,0.8562323451042175,0.5423712730407715,0.3118660449981689,1.0924128293991089
1631192927993,0.8562323451042175,0.5423712730407715,0.3230558931827545,1.0924128293991089
1631192928104,0.8562323451042175,0.5423712730407715,0.3337001502513885,1.0924128293991089
1631192928228,0.8562323451042175,0.5423712730407715,0.3365290760993957,1.0924128293991089
1631192928354,0.8562323451042175,0.5423712730407715,0.3323086500167846,1.0924128293991089
1631192928447,0.8562323451042175,0.5423712730407715,0.3293685913085937,1.0924128293991089
1631192928650,0.8562323451042175,0.5423712730407715,0.3310001492500305,1.0924128293991089
1631192928650,0.8562323451042175,0.5423712730407715,0.3306323289871216,1.0924128293991089
1631192928775,0.8562323451042175,0.5423712730407715,0.3220395445823669,1.0924128293991089
1631192928916,0.8562323451042175,0.5423712730407715,0.3037174344062805,1.0924128293991089
1631192929010,0.8562323451042175,0.5423712730407715,0.2764596045017242,1.0924128293991089
1631192929107,0.8562323451042175,0.5423712730407715,0.2388400733470916,1.0924128293991089
1631192929201,0.8562323451042175,0.5423712730407715,0.1958010494709015,1.0924128293991089
1631192929310,0.8562323451042175,0.5423712730407715,0.1610849648714065,1.0924128293991089
1631192929419,0.4832459986209869,0.1769701838493347,0.1433494091033935,1.0924128293991089
1631192929560,0.5369921326637268,0.1909403055906295,0.1369160264730453,1.0924128293991089
1631192929623,0.5740439295768738,0.2274969518184662,0.1301834732294082,1.0924128293991089
1631192929654,0.5854341387748718,0.2620642781257629,0.1169433146715164,1.0924128293991089
1631192929763,0.5729667544364929,0.2766277194023132,0.0934639722108841,1.0924128293991089
1631192929857,0.5455964207649231,0.2697123289108276,0.0522538051009178,1.0924128293991089
1631192929997,0.5158864259719849,0.2499714642763137,-0.0121085988357663,1.0924128293991089
1631192930013,0.4957867860794067,0.2271980047225952,-0.0898915454745292,1.0924128293991089
1631192930185,0.4899146556854248,0.2048958539962768,-0.1535724699497223,1.0924128293991089
1631192930263,0.4975715279579162,0.1825320720672607,-0.175727367401123,1.0924128293991089
1631192930294,0.5159434080123901,0.1608312278985977,-0.1594379544258117,1.0924128293991089
1631192930388,0.5435004234313965,0.1436441391706466,-0.1277839094400406,1.0924128293991089
1631192930560,0.5776156783103943,0.1318752914667129,-0.0832279026508331,1.0924128293991089
1631192930638,0.6223498582839966,0.1414562910795211,-0.0172361675649881,1.0924128293991089
1631192930716,0.6500871181488037,0.1742440313100814,0.0610937774181366,1.0924128293991089
1631192930810,0.6612510085105896,0.2084669023752212,0.1314533054828643,1.0924128293991089
1631192930919,0.6663607358932495,0.2193946242332458,0.177368015050888,1.0924128293991089
1631192931062,0.6741021275520325,0.1983242928981781,0.196550115942955,1.0924128293991089
1631192931255,0.6872607469558716,0.1569322645664215,0.200088158249855,1.0924128293991089
1631192931349,0.7098864912986755,0.1171457171440124,0.2026709914207458,1.0924128293991089
1631192931396,0.7465187907218933,0.0919439420104026,0.2110691964626312,1.0924128293991089
1631192931630,0.7954777479171753,0.0787622854113578,0.2211179137229919,1.0924128293991089
1631192931693,0.8504937887191772,0.0714542418718338,0.225448653101921,1.0924128293991089
1631192931739,0.9042385816574096,0.0697347745299339,0.2217842638492584,1.0924128293991089
1631192931802,0.9474908113479614,0.075741596519947,0.2163419127464294,1.0924128293991089
1631192931852,0.973050594329834,0.0869399458169937,0.2151144295930862,1.0924128293991089
1631192932024,0.9779570698738098,0.0965859964489936,0.2171526998281479,1.0924128293991089
1631192932259,0.9675453901290894,0.0943493023514747,0.2132020741701126,1.0924128293991089
1631192932352,0.9511927962303162,0.067690797150135,0.1914938390254974,1.0924128293991089
1631192932524,0.9365741014480592,0.012032551690936,0.147002100944519,1.0924128293991089
1631192932665,0.9239159822463988,-0.0580944865942001,0.088252767920494,1.0924128293991089
1631192932711,0.9101496934890748,-0.1120334491133689,0.0364057905972003,1.0924128293991089
1631192932711,0.8958288431167603,-0.1301125586032867,0.0071699176914989,1.0924128293991089
1631192932886,0.8847258687019348,-0.1271517723798751,-0.0082788206636905,1.0924128293991089
1631192932902,0.8755651116371155,-0.126142606139183,-0.0283261835575103,1.0924128293991089
1631192932933,0.8599008917808533,-0.1316236108541488,-0.0588142834603786,1.0924128293991089
1631192932996,0.8285452723503113,-0.1377273201942443,-0.093682587146759,1.0924128293991089
1631192933230,0.7744939923286438,-0.1433622986078262,-0.1257871240377426,1.0924128293991089
1631192933324,0.6952065229415894,-0.1518523693084716,-0.1496112048625946,1.0924128293991089
1631192933433,0.5982051491737366,-0.1676084995269775,-0.1668454855680465,1.0924128293991089
1631192933464,0.5047835111618042,-0.1890727132558822,-0.1766224354505539,1.0924128293991089
1631192933527,0.443301796913147,-0.2114546746015548,-0.1772871762514114,1.0924128293991089
1631192933574,0.4154768884181976,-0.2325464785099029,-0.1721960753202438,1.0924128293991089
1631192933714,0.4033873677253723,-0.2509077191352844,-0.1642577052116394,1.0924128293991089
1631192933823,0.403012752532959,-0.2623389363288879,-0.1525138765573501,1.0924128293991089
1631192933896,0.4190766513347626,-0.257550984621048,-0.1375399827957153,1.0924128293991089
1631192933943,0.4487276077270508,-0.2307813018560409,-0.1261181682348251,1.0924128293991089
1631192934099,0.4802880883216858,-0.1912216693162918,-0.1258490830659866,1.0924128293991089
1631192934193,0.4738165736198425,-0.1574605405330658,-0.1337222605943679,1.0924128293991089
1631192934396,0.4566019773483276,-0.137981429696083,-0.1404598802328109,1.0924128293991089
1631192934396,0.435858279466629,-0.1279051452875137,-0.1401400417089462,1.0924128293991089
1631192934459,0.4229326844215393,-0.1173770427703857,-0.1338685452938079,1.0924128293991089
1631192934552,0.478583961725235,-0.1051503345370292,-0.1254694014787674,1.0924128293991089
1631192934724,0.5182735323905945,-0.0966902822256088,-0.1201144754886627,1.0924128293991089
1631192934833,0.5438522696495056,-0.0958581268787384,-0.1237802356481552,1.0924128293991089
1631192934915,0.5623239874839783,-0.1018881648778915,-0.1422396451234817,1.0924128293991089
1631192935025,0.5840809941291809,-0.0952503979206085,-0.1752056777477264,1.0924128293991089
1631192935056,0.6075847148895264,-0.0866304486989975,-0.2132678776979446,1.0924128293991089
1631192935228,0.6359031796455383,-0.0778208449482917,-0.2433247417211532,1.0924128293991089
1631192935290,0.6633118987083435,-0.0712886452674865,-0.2511654198169708,1.0924128293991089
1631192935415,0.681518018245697,-0.0768981128931045,-0.2401222884654998,1.0924128293991089
1631192935524,0.6831191182136536,-0.1049033775925636,-0.2246708869934082,1.0924128293991089
1631192935587,0.6615338325500488,-0.1553803384304046,-0.2134814411401748,1.0924128293991089
1631192935696,0.6615338325500488,-0.2109948396682739,-0.2044525295495987,1.0924128293991089
1631192935852,0.6615338325500488,-0.2458618283271789,-0.1872413456439972,1.0924128293991089
1631192935950,0.6615338325500488,-0.253870815038681,-0.1368676573038101,1.0924128293991089
1631192936012,0.6615338325500488,-0.2604628503322601,-0.0409330986440181,1.0924128293991089
1631192936106,0.6615338325500488,-0.2840211391448974,0.0838735029101371,1.0924128293991089
1631192936184,0.6615338325500488,0.0542411990463733,0.203114777803421,1.0924128293991089
1631192936341,0.6615338325500488,0.2165486514568328,0.2923495769500732,1.0924128293991089
1631192936450,0.6615338325500488,0.2942299544811249,0.3466278612613678,1.0924128293991089
1631192936512,1.09442400932312,0.3015485107898712,0.3738901913166046,1.0924128293991089
1631192936637,1.033777356147766,0.2280463725328445,0.3838862478733063,1.0924128293991089
1631192936700,0.9715084433555604,0.1620214134454727,0.38474041223526,1.0924128293991089
1631192936809,0.9176787734031676,0.1048457846045494,0.3800194561481476,1.0924128293991089
1631192936918,0.8710080981254578,0.055828608572483,0.3719235062599182,1.0924128293991089
1631192937043,0.8305621147155762,0.0156206144019961,0.3641905486583709,1.0924128293991089
1631192937140,0.7987015843391418,-0.0153948348015546,0.3595680296421051,1.0924128293991089
1631192937218,0.7764716744422913,-0.0387862361967563,0.3570171296596527,1.0924128293991089
1631192937343,0.7603698372840881,-0.0571416728198528,0.3523130714893341,1.0924128293991089
1631192937514,0.7476320862770081,-0.0730831176042556,0.3364685177803039,1.0924128293991089
1631192937577,0.7395427823066711,-0.0881131961941719,0.2985863983631134,1.0924128293991089
1631192937608,0.7383226156234741,-0.102058932185173,0.2274520248174667,1.0924128293991089
1631192937733,0.7073222398757935,-0.2089512050151825,0.1185343489050865,1.0924128293991089
1631192937878,0.6506324410438538,-0.3084143996238708,-0.0165378842502832,1.0924128293991089
1631192938050,0.5836280584335327,-0.3664744794368744,-0.1473073065280914,1.0924128293991089
1631192938175,0.5317993760108948,-0.3855669200420379,-0.2436911761760711,1.0924128293991089
1631192938284,0.4941393136978149,-0.3966004550457001,-0.3225121200084686,1.0924128293991089
1631192938284,0.5059223175048828,-0.3906738460063934,-0.2964719831943512,1.0924128293991089
1631192938315,0.4838555753231048,-0.4056033194065094,-0.3427329957485199,1.0924128293991089
1631192938472,0.4751845598220825,-0.4131159484386444,-0.3613933622837066,1.0924128293991089
1631192938612,0.4696967005729675,-0.4154849946498871,-0.369992733001709,1.0924128293991089
1631192938675,0.4646978080272674,-0.4136914014816284,-0.3570402264595032,1.0924128293991089
1631192938847,0.4592097699642181,-0.409547358751297,-0.3273184299468994,1.0924128293991089
1631192938878,0.459346741437912,-0.4067240953445434,-0.2985212504863739,1.0924128293991089
1631192938972,0.4653555452823639,-0.4083364903926849,-0.2841519117355346,1.0924128293991089
1631192939065,0.4647747576236725,-0.4164327383041382,-0.2832478284835815,1.0924128293991089
1631192939175,0.442088633775711,-0.4319142997264862,-0.2890256643295288,1.0924128293991089
1631192939268,0.3946234583854675,-0.4569384157657623,-0.2961563169956207,1.0924128293991089
1631192939409,0.3343261480331421,-0.4848824739456177,-0.298862874507904,1.0924128293991089
1631192939487,0.3034391105175018,-0.5175558924674988,-0.2895269989967346,1.0924128293991089
1631192939534,0.2949666678905487,-0.5477017164230347,-0.2434288412332534,1.0924128293991089
1631192939721,0.3057518005371094,-0.5590965151786804,-0.1402074247598648,1.0924128293991089
1631192939753,0.3278851211071014,-0.5452022552490234,0.0198080819100141,1.0924128293991089
1631192939927,0.3574671149253845,-0.5142953395843506,0.0448978431522846,1.0924128293991089
1631192939958,0.3911187946796417,-0.4807687699794769,0.069530464708805,1.0924128293991089
1631192940098,0.4238245785236358,-0.4599437415599823,0.088754802942276,1.0924128293991089
1631192940286,0.450544536113739,-0.4597994387149811,0.1007352843880653,1.0924128293991089
1631192940364,0.4640098214149475,-0.4849355518817901,0.1107043921947479,1.0924128293991089
1631192940395,0.4497777223587036,-0.5328790545463562,0.128087043762207,1.0924128293991089
1631192940489,0.3930337131023407,-0.5927367806434631,0.158368781208992,1.0924128293991089
1631192940598,0.3930337131023407,-0.5927367806434631,0.2039846777915954,1.0924128293991089
1631192940817,0.3930337131023407,-0.5927367806434631,0.2300090193748474,1.0924128293991089
1631192940929,0.3930337131023407,-0.5927367806434631,0.2505466938018799,1.0924128293991089
1631192941096,0.3930337131023407,-0.5927367806434631,0.3434395790100097,1.0924128293991089
1631192941096,0.3930337131023407,-0.5927367806434631,0.2788341641426086,1.0924128293991089
1631192941112,0.3930337131023407,-0.5927367806434631,0.4395590722560882,1.0924128293991089
1631192941253,0.3930337131023407,-0.5927367806434631,0.5273455381393433,1.0924128293991089
1631192941410,0.3930337131023407,-0.5927367806434631,0.5619391202926636,1.0924128293991089
1631192941507,0.3930337131023407,-0.5927367806434631,0.5805929899215698,1.0924128293991089
1631192941558,0.3930337131023407,-0.5927367806434631,0.5673525333404541,1.0924128293991089
1631192941600,0.3930337131023407,-0.5927367806434631,0.5414717197418213,1.0924128293991089
1631192941771,0.3930337131023407,-0.5927367806434631,0.5145964622497559,1.0924128293991089
1631192941793,0.3930337131023407,-0.5927367806434631,0.4893545806407928,1.0924128293991089
1631192941871,0.3930337131023407,-0.5927367806434631,0.4652262926101684,1.0924128293991089
1631192942173,0.3930337131023407,-0.5927367806434631,0.4426681101322174,1.0924128293991089
1631192942410,0.3930337131023407,-0.5927367806434631,0.4342286884784698,1.0924128293991089
1631192942595,0.3930337131023407,-0.5927367806434631,0.4376281201839447,1.0924128293991089
1631192942612,0.3930337131023407,-0.5927367806434631,0.4534328877925873,1.0924128293991089
1631192942719,0.3930337131023407,-0.5927367806434631,0.4795669615268707,1.0924128293991089
1631192942751,0.3930337131023407,-0.5927367806434631,0.5018253326416016,1.0924128293991089
1631192942814,0.3930337131023407,-0.5927367806434631,0.504017174243927,1.0924128293991089
1631192943004,0.3930337131023407,-0.5927367806434631,0.4814417362213135,1.0924128293991089
1631192943068,0.3930337131023407,0.4877698123455047,0.4457459151744842,1.0924128293991089
1631192943098,0.3930337131023407,0.4741145074367523,0.4185780584812164,1.0924128293991089
1631192943161,0.3930337131023407,0.4834255874156952,0.4133683741092682,1.0924128293991089
1631192943242,0.3930337131023407,0.4834255874156952,0.4255696833133697,1.0924128293991089
1631192943305,0.3930337131023407,0.4834255874156952,0.4484970569610595,1.0924128293991089
1631192943367,0.3930337131023407,0.4834255874156952,0.4804480075836181,1.0924128293991089
1631192943507,0.3930337131023407,0.4834255874156952,0.5217155814170837,1.0924128293991089
1631192943601,0.3930337131023407,0.4834255874156952,0.566376268863678,1.0924128293991089
1631192943737,0.3930337131023407,0.4834255874156952,0.6041950583457947,1.0924128293991089
1631192943784,0.3930337131023407,0.4834255874156952,0.6255912184715271,1.0924128293991089
1631192943831,0.3930337131023407,0.4834255874156952,0.625356912612915,1.0924128293991089
1631192943974,0.3930337131023407,0.4834255874156952,0.6048005819320679,1.0924128293991089
1631192944068,0.3930337131023407,0.4820618033409118,0.5692964792251587,1.0924128293991089
1631192944190,0.3930337131023407,0.4742782115936279,0.528186023235321,1.0924128293991089
1631192944253,0.3930337131023407,0.4742782115936279,0.4925954043865204,1.0924128293991089
1631192944377,0.3930337131023407,0.4742782115936279,0.4713829457759857,1.0924128293991089
1631192944440,0.3930337131023407,0.4742782115936279,0.465300589799881,1.0924128293991089
1631192944549,0.3930337131023407,0.4742782115936279,0.465833455324173,1.0924128293991089
1631192944815,0.3930337131023407,0.1627682447433471,0.4644143283367157,1.0924128293991089
1631192944846,0.3930337131023407,0.1795098334550857,0.4534808993339538,1.0924128293991089
1631192944971,0.3930337131023407,0.1807044893503189,0.4284867644309997,1.0924128293991089
1631192944987,0.3930337131023407,0.1706148087978363,0.3840783536434173,1.0924128293991089
1631192945080,0.3930337131023407,0.1524849683046341,0.3183651566505432,1.0924128293991089
1631192945283,0.3930337131023407,0.1296867430210113,0.2368936240673065,1.0924128293991089
1631192945377,0.3930337131023407,0.1080749407410621,0.158667653799057,1.0924128293991089
1631192945518,0.3930337131023407,0.1080749407410621,0.1081269904971122,1.0924128293991089
1631192945580,0.3930337131023407,0.1080749407410621,0.0909886956214904,1.0924128293991089
1631192945736,0.3930337131023407,0.1080749407410621,0.0954127088189125,1.0924128293991089
1631192945846,0.3930337131023407,0.1080749407410621,0.1107389107346534,1.0924128293991089
1631192946021,0.3930337131023407,0.1080749407410621,0.1283217519521713,1.0924128293991089
1631192946083,0.3930337131023407,0.1192745268344879,0.1376421451568603,1.0924128293991089
1631192946114,0.3930337131023407,0.1179043725132942,0.1290133446455001,1.0924128293991089
1631192946130,0.3930337131023407,0.1001184061169624,0.1031528934836387,1.0924128293991089
1631192946208,0.3930337131023407,0.067367747426033,0.0700068920850753,1.0924128293991089
1631192946240,0.3930337131023407,0.0225313995033502,0.0542761459946632,1.0924128293991089
1631192946474,0.3930337131023407,-0.0304200965911149,0.0843651741743087,1.0924128293991089
1631192946505,0.3930337131023407,-0.0304200965911149,0.1610535234212875,1.0924128293991089
1631192946630,0.3930337131023407,-0.0304200965911149,0.2498045414686203,1.0924128293991089
1631192946775,0.3930337131023407,-0.0304200965911149,0.3178898692131042,1.0924128293991089
1631192946775,0.3930337131023407,-0.0304200965911149,0.3543925881385803,1.0924128293991089
1631192946838,0.461785227060318,0.3755385875701904,0.3660695850849151,1.0924128293991089
1631192947043,0.4026071429252624,0.3080897927284241,0.3644199073314667,1.0924128293991089
1631192947184,0.3466511368751526,0.2521558701992035,0.3553435504436493,1.0924128293991089
1631192947231,0.2981317043304443,0.2039412558078766,0.3397179841995239,1.0924128293991089
1631192947324,0.2574778795242309,0.1662930995225906,0.3201234936714172,1.0924128293991089
1631192947418,0.2263871729373932,0.1399527788162231,0.3020895421504974,1.0924128293991089
1631192947449,0.2109634727239608,0.1212177202105522,0.2917629182338714,1.0924128293991089
1631192947637,0.2108899652957916,0.1042034775018692,0.2901793718338012,1.0924128293991089
1631192947715,0.2192112803459167,0.0851929262280464,0.292346179485321,1.0924128293991089
1631192947793,0.2357264906167984,0.0636368691921234,0.2856787145137787,1.0924128293991089
1631192947871,0.2661193609237671,0.0400364138185977,0.2516095340251922,1.0924128293991089
1631192948255,0.3071695268154144,0.0163151919841766,0.1737131476402282,1.0924128293991089
1631192948302,0.334535539150238,-0.0922010093927383,0.0501748360693454,1.0924128293991089
1631192948427,0.3687179982662201,-0.2028484344482422,-0.0902171432971954,1.0924128293991089
1631192948505,0.4082182049751282,-0.2806366384029388,-0.1887929290533065,1.0924128293991089
1631192948708,0.4813657701015472,-0.3147587776184082,-0.2041041702032089,1.0924128293991089
1631192948724,0.44781494140625,-0.3146869540214538,-0.2150922268629074,1.0924128293991089
1631192948771,0.5105381608009338,-0.2859714329242706,-0.1852857023477554,1.0924128293991089
1631192948818,0.5394774675369263,-0.2413843423128128,-0.1636275500059127,1.0924128293991089
1631192948864,0.5671582221984863,-0.2059476822614669,-0.1430283188819885,1.0924128293991089
1631192949164,0.5892475247383118,-0.1911156177520752,-0.1314477026462555,1.0924128293991089
1631192949351,0.6017322540283203,-0.1938718408346176,-0.1356864273548126,1.0924128293991089
1631192949429,0.6042641997337341,-0.203307643532753,-0.1558115482330322,1.0924128293991089
1631192949461,0.5998492240905762,-0.2078962624073028,-0.1823266446590423,1.0924128293991089
1631192949554,0.5902789831161499,-0.1963922083377838,-0.1978387385606765,1.0924128293991089
1631192949726,0.5759727954864502,-0.1630858033895492,-0.1877295970916748,1.0924128293991089
1631192949742,0.5622630715370178,-0.1192353665828704,-0.157109722495079,1.0924128293991089
1631192949882,0.5580176711082458,-0.0821736007928848,-0.1254709064960479,1.0924128293991089
1631192949961,0.5629758834838867,-0.0620773285627365,-0.1069071516394615,1.0924128293991089
1631192949996,0.5678995251655579,-0.0571776032447814,-0.1024630367755889,1.0924128293991089
1631192950058,0.5641939043998718,-0.0609850622713565,-0.1062343344092369,1.0924128293991089
1631192950152,0.5524654388427734,-0.0723048523068428,-0.1135848388075828,1.0924128293991089
1631192950152,0.5427067279815674,-0.0918277129530906,-0.1236472353339195,1.0924128293991089
1631192950215,0.5481583476066589,-0.1158462911844253,-0.1360512822866439,1.0924128293991089
1631192950340,0.5769296884536743,-0.1371230781078338,-0.1464447379112243,1.0924128293991089
1631192950449,0.6198892593383789,-0.1510316729545593,-0.1484365612268448,1.0924128293991089
1631192950543,0.6592087149620056,-0.1565630286931991,-0.1400033682584762,1.0924128293991089
1631192950810,0.684434175491333,-0.1550325006246566,-0.1258143186569214,1.0924128293991089
1631192950841,0.7018043398857117,-0.1573029458522796,-0.1089264377951622,1.0924128293991089
1631192950841,0.696436882019043,-0.1515529006719589,-0.1137284412980079,1.0924128293991089
1631192950982,0.7053038477897644,-0.1836277693510055,-0.1129935979843139,1.0924128293991089
1631192951078,0.706717848777771,-0.2300445288419723,-0.1214741468429565,1.0924128293991089
1631192951109,0.7036308646202087,-0.2789695858955383,-0.1239310055971145,1.0924128293991089
1631192951234,0.6962286233901978,-0.298410028219223,-0.1117384359240531,1.0924128293991089
1631192951343,0.6893566846847534,-0.2677293121814728,-0.0787317082285881,1.0924128293991089
1631192951484,0.6902815103530884,-0.1949403882026672,-0.0278647243976593,1.0924128293991089
1631192951515,0.7030869126319885,-0.1030420660972595,0.0294088125228881,1.0924128293991089
1631192951609,0.7189444899559021,-0.0160044152289628,0.0793994292616844,1.0924128293991089
1631192951781,0.7219246029853821,0.0515082851052284,0.1129495725035667,1.0924128293991089
1631192951921,0.701207160949707,0.0974107906222343,0.1289138197898864,1.0924128293991089
1631192952112,0.6270474791526794,0.1538020819425583,0.1327130645513534,1.0924128293991089
1631192952112,0.6627833843231201,0.1288304477930069,0.132719874382019,1.0924128293991089
1631192952175,0.6115043759346008,0.1735795736312866,0.1340263783931732,1.0924128293991089
1631192952237,0.613469660282135,0.1872033178806305,0.135097250342369,1.0924128293991089
1631192952362,0.6192070841789246,0.1948446631431579,0.1320481449365615,1.0924128293991089
1631192952487,0.6222056746482849,0.1989541500806808,0.1247922629117965,1.0924128293991089
1631192952565,0.6245322823524475,0.2023837268352508,0.1178555637598037,1.0924128293991089
1631192952659,0.6254810690879822,0.2061572074890136,0.1152544692158699,1.0924128293991089
1631192952784,0.6234490871429443,0.2084645479917526,0.1174065470695495,1.0924128293991089
1631192952862,0.6206482648849487,0.2049340605735778,0.1179910823702812,1.0924128293991089
1631192952971,0.6231672167778015,0.1895214617252349,0.1102983206510543,1.0924128293991089
1631192953081,0.6357175707817078,0.1571376621723175,0.09235879778862,1.0924128293991089
1631192953190,0.6570396423339844,0.1099014729261398,0.0681224092841148,1.0924128293991089
1631192953330,0.6822932362556458,0.061034195125103,0.0445296093821525,1.0924128293991089
1631192953362,0.7084178328514099,0.0259067937731742,0.0258575268089771,1.0924128293991089
1631192953502,0.731782853603363,0.0055655348114669,0.0128406509757041,1.0924128293991089
1631192953596,0.7518320083618164,-0.0105299539864063,0.0040541840717196,1.0924128293991089
1631192953815,0.7729988098144531,-0.0252832490950822,-0.0018285328987985,1.0924128293991089
1631192953908,0.7996736168861389,-0.0331676974892616,-0.004619110841304,1.0924128293991089
1631192953987,0.8297909498214722,-0.0303942169994115,-0.0048705893568694,1.0924128293991089
1631192953987,0.8557578921318054,-0.0218242313712835,-0.0056538870558142,1.0924128293991089
1631192954114,0.8715012669563293,-0.0154015952721238,-0.012430383823812,1.0924128293991089
1631192954177,0.8771793842315674,-0.0156241673976182,-0.0297130439430475,1.0924128293991089
1631192954317,0.8765041828155518,-0.0219018924981355,-0.0584168992936611,1.0924128293991089
1631192954411,0.8721591830253601,-0.028890024870634,-0.0966903269290924,1.0924128293991089
1631192954583,0.8630204200744629,-0.0281494241207838,-0.1406664103269577,1.0924128293991089
1631192954645,0.8445714712142944,-0.0172677058726549,-0.1826154887676239,1.0924128293991089
1631192954677,0.8146564364433289,-0.0033420780673623,-0.2103824764490127,1.0924128293991089
1631192954880,0.7771589756011963,0.0044910251162946,-0.214805319905281,1.0924128293991089
1631192954911,0.7388247847557068,0.0037233049515634,-0.2013956606388092,1.0924128293991089
1631192955052,0.7046529650688171,-0.0018239214550703,-0.1887486428022384,1.0924128293991089
1631192955083,0.6754205822944641,-0.0101784002035856,-0.1904910951852798,1.0924128293991089
1631192955208,0.6464483141899109,-0.0230151396244764,-0.2046217322349548,1.0924128293991089
1631192955270,0.6118531227111816,-0.0413236990571022,-0.2201075404882431,1.0924128293991089
1631192955442,0.5699012875556946,-0.0616160407662391,-0.2300777286291122,1.0924128293991089
1631192955520,0.5250443816184998,-0.079597532749176,-0.2361954897642135,1.0924128293991089
1631192955645,0.4877010285854339,-0.0930278375744819,-0.2441466897726059,1.0924128293991089
1631192955708,0.4664241373538971,-0.1023911982774734,-0.2572260200977325,1.0924128293991089
1631192955817,0.4606819450855255,-0.1093933135271072,-0.2764911651611328,1.0924128293991089
1631192955974,0.4641736149787903,-0.1135030761361122,-0.2993196547031402,1.0924128293991089
1631192956083,0.4762942790985107,-0.1136365383863449,-0.3171616792678833,1.0924128293991089
1631192956208,0.500771701335907,-0.109975591301918,-0.325614869594574,1.0924128293991089
1631192956379,0.5751532912254333,-0.1140397042036056,-0.3559567928314209,1.0924128293991089
1631192956379,0.5368701815605164,-0.1076665595173835,-0.3341940641403198,1.0924128293991089
1631192956442,0.6056597828865051,-0.1317904591560363,-0.3885132074356079,1.0924128293991089
1631192956551,0.6247936487197876,-0.1541347205638885,-0.4129197001457214,1.0924128293991089
1631192956598,0.6312906742095947,-0.1680735200643539,-0.4173188805580139,1.0924128293991089
1631192956739,0.6370586156845093,-0.1637818366289138,-0.4108146131038666,1.0924128293991089
1631192956848,0.6377295851707458,-0.1332418322563171,-0.3979060649871826,1.0924128293991089
1631192956942,0.6399355530738831,-0.12083500623703,-0.3492213785648346,1.0924128293991089
1631192957082,0.6486102938652039,-0.1062591969966888,-0.3435633480548858,1.0924128293991089
1631192957114,0.6601652503013611,-0.0862974599003791,-0.3299926817417145,1.0924128293991089
1631192957208,0.6677724719047546,-0.0591524355113506,-0.3080545663833618,1.0924128293991089
1631192957348,0.6706163883209229,-0.0287431273609399,-0.2805288732051849,1.0924128293991089
1631192957489,0.6743506789207458,-0.0054946485906839,-0.2514761984348297,1.0924128293991089
1631192957583,0.6789606213569641,-0.0030263161752372,0.1667352765798568,1.0924128293991089
1631192957708,0.6736608743667603,-0.027470052242279,0.3090884685516357,1.0924128293991089
1631192957739,0.6460738778114319,-0.0676283538341522,0.3595155775547027,1.0924128293991089
1631192957848,0.6460738778114319,-0.0969124063849449,0.3710392713546753,1.0924128293991089
1631192958020,0.6460738778114319,-0.0667643174529075,0.3696366250514984,1.0924128293991089
1631192958035,0.6460738778114319,-0.0142853874713182,0.3658543229103088,1.0924128293991089
1631192958147,0.6460738778114319,0.0332070589065551,0.3620424568653106,1.0924128293991089
1631192958319,0.6460738778114319,0.0509571805596351,0.3606869280338287,1.0924128293991089
1631192958350,0.4439960718154907,0.0052237859927117,0.3610751032829284,1.0924128293991089
1631192958538,0.5731078386306763,-0.0421178340911865,0.352992981672287,1.0924128293991089
1631192958647,0.5731078386306763,-0.0833988487720489,0.3279006481170654,1.0924128293991089
1631192958678,0.5731078386306763,-0.0905512198805809,0.3094688653945923,1.0924128293991089
1631192958741,0.5731078386306763,-0.0339265204966068,0.3094688653945923,1.0924128293991089
1631192958866,0.5731078386306763,0.1381414979696273,0.3094688653945923,1.0924128293991089
1631192958991,0.5731078386306763,0.3584506511688232,0.3094688653945923,1.0924128293991089
1631192959056,0.5731078386306763,0.539945125579834,0.1379860341548919,1.0924128293991089
1631192959212,0.5731078386306763,0.539945125579834,-0.0473325736820697,1.0924128293991089
1631192959306,0.5731078386306763,0.539945125579834,-0.1839944273233413,1.0924128293991089
1631192959415,0.5731078386306763,0.539945125579834,-0.2306690067052841,1.0924128293991089
1631192959478,0.5731078386306763,0.5665315985679626,-0.2180147767066955,1.0924128293991089
1631192959681,0.6427952647209167,0.5953994989395142,-0.1860587298870086,1.0924128293991089
1631192959712,0.6427952647209167,0.6278789639472961,0.3286436796188354,1.0924128293991089
1631192959821,0.6427952647209167,0.6675085425376892,0.6110358238220215,1.0924128293991089
1631192959915,0.6427952647209167,0.7177020907402039,0.7685527801513672,1.0924128293991089
1631192960149,0.6427952647209167,0.780049741268158,0.8438776135444641,1.0924128293991089
1631192960149,0.6427952647209167,0.8552308082580566,0.8662340641021729,1.0924128293991089
1631192960274,0.6427952647209167,0.9433556199073792,0.8630678653717041,1.0924128293991089
1631192960384,0.6427952647209167,0.9433556199073792,0.797824501991272,1.0924128293991089
1631192960478,0.6427952647209167,0.9433556199073792,0.7016846537590027,1.0924128293991089
1631192960478,0.6427952647209167,0.9433556199073792,0.7437551617622375,1.0924128293991089
1631192960571,0.6427952647209167,0.9433556199073792,0.6724792718887329,1.0924128293991089
1631192960728,0.6427952647209167,0.9433556199073792,0.6538188457489014,1.0924128293991089
1631192960759,0.6427952647209167,0.9433556199073792,0.6393188834190369,1.0924128293991089
1631192960884,0.6427952647209167,0.9433556199073792,0.6253793835639954,1.0924128293991089
1631192961024,0.6427952647209167,0.9433556199073792,0.6143446564674377,1.0924128293991089
1631192961118,0.6427952647209167,0.9433556199073792,0.6093878746032715,1.0924128293991089
1631192961196,0.6427952647209167,0.9433556199073792,0.5700214505195618,1.0924128293991089
1631192961305,0.6427952647209167,0.9433556199073792,0.496242344379425,1.0924128293991089
1631192961430,0.6427952647209167,0.9433556199073792,0.4018944799900055,1.0924128293991089
1631192961493,0.6427952647209167,0.9433556199073792,0.3244606256484985,1.0924128293991089
1631192961618,0.6427952647209167,0.9433556199073792,0.3036797344684601,1.0924128293991089
1631192961696,0.6427952647209167,0.9433556199073792,0.3331064581871032,1.0924128293991089
1631192961930,0.6427952647209167,0.9433556199073792,0.3770776987075805,1.0924128293991089
1631192961962,0.6427952647209167,0.9433556199073792,0.4108732938766479,1.0924128293991089
1631192961993,0.6427952647209167,0.9433556199073792,0.4253412783145904,1.0924128293991089
1631192962090,0.6427952647209167,0.9433556199073792,0.4203368425369262,1.0924128293991089
1631192962231,0.6427952647209167,0.1231462806463241,0.4010963141918182,1.0924128293991089
1631192962324,0.6427952647209167,0.1335465610027313,0.3769943714141845,1.0924128293991089
1631192962449,1.058593511581421,0.1206055581569671,0.3545354902744293,1.0924128293991089
1631192962543,1.0773080587387085,0.098639391362667,0.3292749524116516,1.0924128293991089
1631192962637,1.0996700525283811,0.0830077901482582,0.2918021082878113,1.0924128293991089
1631192962699,1.102713108062744,0.0783240720629692,0.2413023859262466,1.0924128293991089
1631192962858,1.085050106048584,0.0785329267382621,0.1925097852945327,1.0924128293991089
1631192962967,1.057786226272583,0.0755314752459526,0.163065955042839,1.0924128293991089
1631192963124,1.0321242809295654,0.0664210468530654,0.1482117474079132,1.0924128293991089
1631192963139,1.0150165557861328,0.0519898757338523,0.1207021325826644,1.0924128293991089
1631192963202,1.015134334564209,0.0388811230659484,0.0584392696619033,1.0924128293991089
1631192963311,1.0395135879516602,0.0372030213475227,-0.0370941124856472,1.0924128293991089
1631192963405,1.0779776573181152,0.0523124672472476,-0.1434220671653747,1.0924128293991089
1631192963577,1.0779776573181152,0.0507638044655323,-0.2237967848777771,1.0924128293991089
1631192963670,1.0723110437393188,0.040532000362873,-0.2538230419158935,1.0924128293991089
1631192963749,1.0716843605041504,0.0220996439456939,-0.2359729409217834,1.0924128293991089
1631192963876,1.079620599746704,0.0054022832773625,-0.1820496320724487,1.0924128293991089
1631192963923,1.0854953527450562,0.0007475996389985,-0.1099059432744979,1.0924128293991089
1631192964032,1.078349232673645,0.0073158959858119,-0.0368397943675518,1.0924128293991089
1631192964142,1.0609663724899292,0.0135138062760233,0.0216378793120384,1.0924128293991089
1631192964251,1.0517477989196775,0.0097604356706142,0.0580894388258457,1.0924128293991089
1631192964329,1.0683648586273191,-0.0032179984264075,0.0733691155910492,1.0924128293991089
1631192964486,1.1121128797531128,-0.0133829796686768,0.0759469270706176,1.0924128293991089
1631192964517,1.1750600337982178,-0.0049416930414736,0.0759242698550224,1.0924128293991089
1631192964720,1.1750600337982178,-0.0049416930414736,0.0787086263298988,1.0924128293991089
1631192964767,1.1750600337982178,-0.0049416930414736,0.0856326967477798,1.0924128293991089
1631192964911,1.1750600337982178,-0.0049416930414736,0.0939050242304802,1.0924128293991089
1631192965021,1.1750600337982178,-0.0049416930414736,0.1001793816685676,1.0924128293991089
1631192965036,1.1750600337982178,0.485018789768219,0.1024744063615799,1.0924128293991089
1631192965224,1.2844139337539673,0.4592342376708984,0.0994705334305763,1.0924128293991089
1631192965286,1.2404041290283203,0.4163294434547424,0.0900646522641182,1.0924128293991089
1631192965349,1.1936334371566772,0.3709270358085632,0.0690096393227577,1.0924128293991089
1631192965443,1.153621792793274,0.3320585489273071,0.0298533607274293,1.0924128293991089
1631192965568,1.1215693950653076,0.3007975816726684,-0.0216016247868537,1.0924128293991089
1631192965630,1.09545636177063,0.2760733962059021,-0.0561663582921028,1.0924128293991089
1631192965818,1.0742160081863403,0.2572167515754699,-0.041170634329319,1.0924128293991089
1631192965911,1.0590907335281372,0.2474126368761062,0.0201054848730564,1.0924128293991089
1631192965989,1.0510737895965576,0.2505481839179992,0.0924232676625251,1.0924128293991089
1631192966036,1.0473434925079346,0.2629360854625702,0.1488215923309326,1.0924128293991089
1631192966211,1.042435646057129,0.2748559415340423,0.1813958585262298,1.0924128293991089
1631192966242,1.0320488214492798,0.2682685256004333,0.192796841263771,1.0924128293991089
1631192966367,0.9983397722244264,0.2387107759714126,0.1914534866809845,1.0924128293991089
1631192966524,0.9379149675369264,0.1924657523632049,0.1860309243202209,1.0924128293991089
1631192966601,0.867935836315155,0.1444768607616424,0.1802298575639724,1.0924128293991089
1631192966679,0.812309205532074,0.1085263863205909,0.1720888912677765,1.0924128293991089
1631192966869,0.7825837135314941,0.0877023041248321,0.158627763390541,1.0924128293991089
1631192966916,0.7749921679496765,0.0741825699806213,0.1401736289262771,1.0924128293991089
1631192967010,0.7747868299484253,0.0856909900903701,0.1236598715186119,1.0924128293991089
1631192967103,0.7737590074539185,0.0968647673726081,0.1179169416427612,1.0924128293991089
1631192967275,0.7716694474220276,0.1070847660303115,0.1319746226072311,1.0924128293991089
1631192967385,0.767638623714447,0.1154542714357376,0.1606071591377258,1.0924128293991089
1631192967478,0.7560628652572632,0.1148136407136917,0.1857821941375732,1.0924128293991089
1631192967541,0.7277393937110901,0.0907613262534141,0.19265878200531,1.0924128293991089
1631192967572,0.6776586174964905,0.0309057030826807,0.1821976453065872,1.0924128293991089
1631192967775,0.6125895380973816,-0.067431204020977,0.1666046231985092,1.0924128293991089
1631192967931,0.5556890964508057,-0.1856545060873031,0.1590185910463333,1.0924128293991089
1631192967962,0.5350793600082397,-0.2846934199333191,0.1614954173564911,1.0924128293991089
1631192968136,0.5505141019821167,-0.3556684851646423,0.1685414016246795,1.0924128293991089
1631192968199,0.5505141019821167,-0.3556684851646423,0.1774540990591049,1.0924128293991089
1631192968261,0.5505141019821167,-0.3556684851646423,0.1885044425725937,1.0924128293991089
1631192968355,0.5505141019821167,-0.3556684851646423,0.2019607275724411,1.0924128293991089
1631192968433,0.5505141019821167,-0.3556684851646423,0.2170208543539047,1.0924128293991089
1631192968543,0.5505141019821167,-0.3832468092441559,0.2302267700433731,1.0924128293991089
1631192968636,0.5505141019821167,-0.4069644510746002,0.233651801943779,1.0924128293991089
1631192968780,0.7690844535827637,-0.3903302252292633,0.2128726541996002,1.0924128293991089
1631192968812,0.7648220658302307,-0.3419179618358612,0.159251868724823,1.0924128293991089
1631192968937,0.7806491851806641,-0.288538247346878,0.0803408026695251,1.0924128293991089
1631192969046,0.7968432903289795,-0.2480356693267822,0.0036257628817111,1.0924128293991089
1631192969108,0.7963632345199585,-0.2201043665409088,-0.0438553094863891,1.0924128293991089
1631192969233,0.776443362236023,-0.1966652274131775,-0.0594695433974266,1.0924128293991089
1631192969343,0.7460775971412659,-0.1759018898010254,-0.0623539239168167,1.0924128293991089
1631192969452,0.7162558436393738,-0.1627584546804428,-0.0638817250728607,1.0924128293991089
1631192969546,0.6933445930480957,-0.1617743521928787,-0.0645553395152092,1.0924128293991089
1631192969609,0.6771990656852722,-0.1724026948213577,-0.0618394203484058,1.0924128293991089
1631192969749,0.6641956567764282,-0.1918184161186218,-0.0523329302668571,1.0924128293991089
1631192969811,0.6503349542617798,-0.1964171230792999,-0.032859843224287,1.0924128293991089
1631192969968,0.622848391532898,-0.1721120625734329,0.0045910249464213,1.0924128293991089
1631192970015,0.5811116099357605,-0.102387323975563,0.0671584606170654,1.0924128293991089
1631192970171,0.5372883677482605,-0.0014527587918564,0.1454096436500549,1.0924128293991089
1631192970311,0.4973954558372497,0.0903632193803787,0.2164688110351562,1.0924128293991089
1631192970342,0.4570928812026977,0.1502073556184768,0.2638808786869049,1.0924128293991089
1631192970452,0.4151522517204284,0.1760676503181457,0.2837608158588409,1.0924128293991089
1631192970577,0.382631242275238,0.1791102141141891,0.284633457660675,1.0924128293991089
1631192970649,0.3706639409065246,0.172397568821907,0.2799201011657715,1.0924128293991089
1631192970820,0.3779894113540649,0.1674742847681045,0.2853208184242248,1.0924128293991089
1631192970852,0.3912931382656097,0.1774599850177765,0.3107607364654541,1.0924128293991089
1631192971022,0.4011341333389282,0.206730768084526,0.3509417474269867,1.0924128293991089
1631192971069,0.4028407335281372,0.2431627362966537,0.3898215293884277,1.0924128293991089
1631192971114,0.3959487974643707,0.2713265717029571,0.414301723241806,1.0924128293991089
1631192971238,0.3921541273593902,0.2845890522003174,0.4208669662475586,1.0924128293991089
1631192971379,0.392509400844574,0.285751610994339,0.4151721894741058,1.0924128293991089
1631192971441,0.4035370647907257,0.2771226763725281,0.4014903306961059,1.0924128293991089
1631192971568,0.4275751113891601,0.2532754838466644,0.377533495426178,1.0924128293991089
1631192971643,0.4621840119361877,0.2085602432489395,0.3401575088500976,1.0924128293991089
1631192971799,0.5005365610122681,0.1482764184474945,0.2938064932823181,1.0924128293991089
1631192971843,0.5296432375907898,0.0881956592202186,0.2509869933128357,1.0924128293991089
1631192971968,0.5337837934494019,0.0465023480355739,0.2245751023292541,1.0924128293991089
1631192972032,0.5029289722442627,0.0269922520965337,0.2144051194190979,1.0924128293991089
1631192972207,0.4433405995368957,0.0185665767639875,0.209711879491806,1.0924128293991089
1631192972300,0.377762109041214,0.0035458388738334,0.1943609714508056,1.0924128293991089
1631192972435,0.377762109041214,-0.1116182878613472,0.0841105803847312,1.0924128293991089
1631192972435,0.377762109041214,-0.0375860780477523,0.1537480801343917,1.0924128293991089
1631192972576,0.377762109041214,-0.1861762255430221,0.0044274483807384,1.0924128293991089
1631192972677,0.377762109041214,-0.1995787322521209,-0.0435025133192539,1.0924128293991089
1631192972843,0.4452169239521026,-0.1363356858491897,-0.0346292220056057,1.0924128293991089
1631192972934,0.5039059519767761,-0.0481281764805316,-0.000247443356784,1.0924128293991089
1631192973013,0.5191650390625,0.0250942464917898,0.0221453122794628,1.0924128293991089
1631192973050,0.5042933821678162,0.0740907490253448,0.0249868351966142,1.0924128293991089
1631192973184,0.4861133992671966,0.1013329029083252,0.0223028697073459,1.0924128293991089
1631192973309,0.4874247610569,0.112209141254425,0.0267064552754163,1.0924128293991089
1631192973369,0.5078241229057312,0.1141536831855773,0.0371824763715267,1.0924128293991089
1631192973478,0.5351324081420898,0.1143330559134483,0.047122798860073,1.0924128293991089
1631192973567,0.5649765133857727,0.1156239882111549,0.0526019185781478,1.0924128293991089
1631192973677,0.6029406189918518,0.1183381974697113,0.0539161749184131,1.0924128293991089
1631192973802,0.6482458710670471,0.1236747130751609,0.0531503930687904,1.0924128293991089
1631192973907,0.6894180178642273,0.1320234388113021,0.054481491446495,1.0924128293991089
1631192974001,0.7347772121429443,0.1393970847129821,0.0597353689372539,1.0924128293991089
1631192974063,0.761336088180542,0.1360048800706863,0.0619636587798595,1.0924128293991089
1631192974204,0.7760098576545715,0.1145215556025505,0.0484709814190864,1.0924128293991089
1631192974374,0.7914271354675293,0.075577475130558,0.013474996201694,1.0924128293991089
1631192974436,0.8156229853630066,0.0279409158974885,-0.0332466214895248,1.0924128293991089
1631192974530,0.8465248942375183,-0.0167762879282236,-0.0701607391238212,1.0924128293991089
1631192974671,0.8759181499481201,-0.0404991954565048,-0.0669490098953247,1.0924128293991089
1631192974764,0.8964590430259705,-0.026756877079606,-0.0043039941228926,1.0924128293991089
1631192974906,0.9057535529136658,0.019119493663311,0.0947565138339996,1.0924128293991089
1631192974909,0.9060853123664856,0.0696623921394348,0.1859425455331802,1.0924128293991089
1631192975095,0.9007862210273744,0.1051724255084991,0.2443325519561767,1.0924128293991089
1631192975104,0.8907533288002014,0.1258883774280548,0.2720118463039398,1.0924128293991089
1631192975192,0.8735255002975464,0.142860546708107,0.2847976684570312,1.0924128293991089
1631192975302,0.8474904298782349,0.1603922992944717,0.2939529418945312,1.0924128293991089
1631192975418,0.8161290884017944,0.17377869784832,0.2984212636947632,1.0924128293991089
1631192975480,0.7880692481994629,0.1790448129177093,0.2952868640422821,1.0924128293991089
1631192975621,0.7686682939529419,0.1761744916439056,0.2861212193965912,1.0924128293991089
1631192975761,0.7536216378211975,0.169193148612976,0.276560366153717,1.0924128293991089
1631192975855,0.7338190078735352,0.1628796011209488,0.2701818645000458,1.0924128293991089
1631192975902,0.7046908736228943,0.1583447307348251,0.2666465044021606,1.0924128293991089
1631192976069,0.6701502799987793,0.1531407982110977,0.2629609405994415,1.0924128293991089
1631192976162,0.6401798129081726,0.1385514587163925,0.2492241114377975,1.0924128293991089
1631192976413,0.6220640540122986,0.1060614064335823,0.2091083228588104,1.0924128293991089
1631192976444,0.6085257530212402,0.0020497161895036,0.0289087947458028,1.0924128293991089
1631192976444,0.6137533187866211,0.0556213706731796,0.1321858763694763,1.0924128293991089
1631192976522,0.6035043597221375,-0.0354572869837284,-0.0659715011715889,1.0924128293991089
1631192976693,0.6057536602020264,-0.0520115680992603,-0.1207792311906814,1.0924128293991089
1631192976740,0.6257044672966003,-0.0626022368669509,-0.1443695127964019,1.0924128293991089
1631192976865,0.6638939380645752,-0.0771502405405044,-0.1589824855327606,1.0924128293991089
1631192976959,0.707853376865387,-0.0896699130535125,-0.1622270792722702,1.0924128293991089
1631192977053,0.744025707244873,-0.0851299613714218,-0.1348628401756286,1.0924128293991089
1631192977162,0.7678083777427673,-0.0308119542896747,-0.0358638539910316,1.0924128293991089
1631192977272,0.7838205695152283,0.0942444205284118,0.1256393045186996,1.0924128293991089
1631192977360,0.7957781553268433,0.2501466572284698,0.286856472492218,1.0924128293991089
1631192977531,0.7998395562171936,0.4651811420917511,0.4698950052261352,1.0924128293991089
1631192977531,0.8018717169761658,0.3812179565429687,0.4031347930431366,1.0924128293991089
1631192977625,0.7910945415496826,0.5061246752738953,0.4996021091938019,1.0924128293991089
1631192977822,0.7810761332511902,0.5210919380187988,0.5088300704956055,1.0924128293991089
1631192977922,0.7736979126930237,0.5257070660591125,0.5090725421905518,1.0924128293991089
1631192977923,0.7693676948547363,0.5266658067703247,0.5056577920913696,1.0924128293991089
1631192978112,0.7680585980415344,0.5256358981132507,0.501636266708374,1.0924128293991089
1631192978203,0.7693683505058289,0.5238725543022156,0.4992103278636932,1.0924128293991089
1631192978362,0.7695353627204895,0.5217282176017761,0.4970366060733795,1.0924128293991089
1631192978375,0.7715662121772766,0.5225198864936829,0.4977374672889709,1.0924128293991089
1631192978453,0.7615513801574707,0.5209668874740601,0.4981344044208526,1.0924128293991089
1631192978594,0.7509829998016357,0.520890474319458,0.5030032992362976,1.0924128293991089
1631192978656,0.7432608604431152,0.5160183906555176,0.5033847093582153,1.0924128293991089
1631192978791,0.7381110787391663,0.4908826947212219,0.4856936931610107,1.0924128293991089
1631192978927,0.7317726016044617,0.4329327642917633,0.4186732769012451,1.0924128293991089
1631192979023,0.726189136505127,0.3357968032360077,0.2402457594871521,1.0924128293991089
1631192979036,0.7256258130073547,0.3630575537681579,0.326242595911026,1.0924128293991089
1631192979118,0.7343962788581848,0.3763506412506103,0.1901977062225341,1.0924128293991089
1631192979321,0.7431214451789856,0.4380560517311096,0.1724154204130172,1.0924128293991089
1631192979439,0.7571806907653809,0.4535841047763824,0.2364754825830459,1.0924128293991089
1631192979486,0.7726595401763916,0.4758354127407074,0.256680428981781,1.0924128293991089
1631192979656,0.789654016494751,0.5028042197227478,0.2715969979763031,1.0924128293991089
1631192979674,0.8019938468933105,0.5329888463020325,0.2984603941440582,1.0924128293991089
1631192979893,0.7988907694816589,0.5658383369445801,0.3327175974845886,1.0924128293991089
