timestamp,TP9,AF7,AF8,TP10
1631192845316,0.8668094873428345,-0.3129470944404602,-0.3412203788757324,0.8845946788787842
1631192845379,0.8636558651924133,-0.3105246722698211,-0.3381429612636566,0.8845946788787842
1631192845519,0.8603580594062805,-0.3024711310863495,-0.3381259143352508,0.8845946788787842
1631192845551,0.8598237633705139,-0.2891436815261841,-0.3403815627098083,0.8845946788787842
1631192845644,0.8713167309761047,-0.2764531075954437,-0.3443077504634857,0.8845946788787842
1631192845785,0.8851537108421326,-0.2696320414543152,-0.3501376807689667,0.8845946788787842
1631192845879,0.8933610320091248,-0.2649762630462646,-0.3602383136749267,0.8845946788787842
1631192845957,0.8926671147346497,-0.2608001232147217,-0.3719994723796844,0.8845946788787842
1631192846084,0.8818197846412659,-0.2559647858142853,-0.3804994225502014,0.8845946788787842
1631192846147,0.8675023317337036,-0.253742516040802,-0.3832332491874695,0.8845946788787842
1631192846256,0.8567770719528198,-0.2606617510318756,-0.3779218792915344,0.8845946788787842
1631192846381,0.8550902009010315,-0.2745064496994018,-0.3683663606643677,0.8845946788787842
1631192846475,0.8539563417434692,-0.2879885137081146,-0.3597903549671173,0.8845946788787842
1631192846600,0.8543553352355957,-0.2870003879070282,-0.3546335697174072,0.8845946788787842
1631192846662,0.8503880500793457,-0.2594781517982483,-0.3542300760746002,0.8845946788787842
1631192846772,0.8462503552436829,-0.2137220650911331,-0.3567233681678772,0.8845946788787842
1631192846868,0.844971776008606,-0.1682275682687759,-0.3588702082633972,0.8845946788787842
1631192846978,0.8398144245147705,-0.136897012591362,-0.3602060079574585,0.8845946788787842
1631192847087,0.8374016880989075,-0.1207160800695419,-0.3586072325706482,0.8845946788787842
1631192847165,0.8221491575241089,-0.1147373169660568,-0.3530800640583038,0.8845946788787842
1631192847306,0.8050652742385864,-0.1106291636824607,-0.3444101214408874,0.8845946788787842
1631192847368,0.7907828688621521,-0.1081821545958519,-0.3374099433422088,0.8845946788787842
1631192847478,0.7907828688621521,-0.1083640754222869,-0.3391751050949096,0.8845946788787842
1631192847618,0.7907828688621521,-0.1128758788108825,-0.3556888997554779,0.8845946788787842
1631192847759,0.7907828688621521,-0.1169716492295265,-0.3865710496902466,0.8845946788787842
1631192847962,0.7907828688621521,-0.1132924482226371,-0.4267474412918091,0.8845946788787842
1631192847978,0.3959046006202698,-0.102164976298809,-0.4666955471038818,0.8845946788787842
1631192848105,0.412354052066803,-0.0902997776865959,-0.496545135974884,0.8845946788787842
1631192848199,0.4557101726531982,-0.0880612656474113,-0.512157142162323,0.8845946788787842
1631192848214,0.5086424350738525,-0.1028843522071838,-0.5131255984306335,0.8845946788787842
1631192848293,0.5524512529373169,-0.1346375346183776,-0.5044009685516357,0.8845946788787842
1631192848386,0.5785221457481384,-0.1743452697992324,-0.4881598353385925,0.8845946788787842
1631192848511,0.5841242671012878,-0.2077463120222091,-0.4658348858356476,0.8845946788787842
1631192848589,0.5766388773918152,-0.230104774236679,-0.4445186555385589,0.8845946788787842
1631192848699,0.5654067397117615,-0.2428227663040161,-0.4301440119743347,0.8845946788787842
1631192848857,0.5548080205917358,-0.2533476054668426,-0.425226092338562,0.8845946788787842
1631192848936,0.5461999773979187,-0.2632544040679931,-0.4262269139289856,0.8845946788787842
1631192849061,0.5374290347099304,-0.2693078815937042,-0.4256768524646759,0.8845946788787842
1631192849154,0.5338682532310486,-0.2692334353923797,-0.4203062355518341,0.8845946788787842
1631192849232,0.5305131077766418,-0.2660544812679291,-0.4110566675662994,0.8845946788787842
1631192849326,0.5270255208015442,-0.266347587108612,-0.4008308351039886,0.8845946788787842
1631192849467,0.5215774178504944,-0.2744706571102142,-0.390961617231369,0.8845946788787842
1631192849529,0.5117680430412292,-0.290454089641571,-0.3813196718692779,0.8845946788787842
1631192849654,0.4901731312274933,-0.3100464642047882,-0.3729933798313141,0.8845946788787842
1631192849748,0.4558397531509399,-0.327321708202362,-0.369389533996582,0.8845946788787842
1631192849795,0.4159461855888366,-0.3347090184688568,-0.3738860189914703,0.8845946788787842
1631192849920,0.3798496425151825,-0.3268878757953644,-0.3879871070384979,0.8845946788787842
1631192850047,0.3586289882659912,-0.3065208494663238,-0.4098216891288757,0.8845946788787842
1631192850140,0.3532653152942657,-0.2814558744430542,-0.4330946207046509,0.8845946788787842
1631192850266,0.3558378219604492,-0.259775847196579,-0.4514568150043487,0.8845946788787842
1631192850359,0.3596963584423065,-0.2451285123825073,-0.4635193049907684,0.8845946788787842
1631192850438,0.359817773103714,-0.2363865077495575,-0.4693314433097839,0.8845946788787842
1631192850515,0.3571716547012329,-0.2316615730524063,-0.4689498841762543,0.8845946788787842
1631192850656,0.3561670482158661,-0.2289606034755706,-0.4604441821575165,0.8845946788787842
1631192850765,0.3601299822330475,-0.2273368239402771,-0.445905864238739,0.8845946788787842
1631192850877,0.3696295022964477,-0.2267274707555771,-0.4329880475997925,0.8845946788787842
1631192850987,0.3792905509471893,-0.2264214754104614,-0.4288260042667389,0.8845946788787842
1631192851112,0.3865032494068146,-0.2259155511856079,-0.4362155497074127,0.8845946788787842
1631192851320,0.3875709772109985,-0.2251689732074737,-0.4520704746246338,0.8845946788787842
1631192851382,0.3826201558113098,-0.2242745906114578,-0.4705721437931061,0.8845946788787842
1631192851444,0.3852990865707397,-0.2253350466489792,-0.4861417710781097,0.8845946788787842
1631192851507,0.3851702213287353,-0.2324407547712326,-0.4951519072055816,0.8845946788787842
1631192851538,0.3831078708171844,-0.2460871487855911,-0.495417833328247,0.8845946788787842
1631192851648,0.3785048127174377,-0.2605809271335602,-0.4841997027397156,0.8845946788787842
1631192851718,0.3706742227077484,-0.2661566734313965,-0.4625020325183868,0.8845946788787842
1631192851872,0.3606967329978943,-0.2585667073726654,-0.4364011883735657,0.8845946788787842
1631192851965,0.3531323373317718,-0.2449830770492553,-0.4164653420448303,0.8845946788787842
1631192852079,0.4203233420848846,-0.2354428172111511,-0.4114384651184082,0.8845946788787842
1631192852173,0.4836254715919494,-0.2348430156707763,-0.4225825667381286,0.8845946788787842
1631192852235,0.4969599545001983,-0.241663247346878,-0.442190557718277,0.8845946788787842
1631192852344,0.5077359080314636,-0.2513701319694519,-0.4557896256446838,0.8845946788787842
1631192852502,0.5227680802345276,-0.2612184584140777,-0.452137291431427,0.8845946788787842
1631192852593,0.5503988265991211,-0.2705786526203155,-0.4311800003051758,0.8845946788787842
1631192852656,0.5503988265991211,-0.2795564234256744,-0.4014339447021484,0.8845946788787842
1631192852800,0.5503988265991211,-0.2891241908073425,-0.372218370437622,0.8845946788787842
1631192852878,0.5990235209465027,-0.3017977774143219,-0.3497464954853058,0.8845946788787842
1631192853003,0.5676769614219666,-0.3187760412693023,-0.3368207812309265,0.8845946788787842
1631192853115,0.5487545132637024,-0.3395300805568695,-0.3337891101837158,0.8845946788787842
1631192853208,0.5387922525405884,-0.3646933734416961,-0.3401896357536316,0.8845946788787842
1631192853316,0.5293341279029846,-0.3973696529865265,-0.3536274433135986,0.8845946788787842
1631192853381,0.5132008790969849,-0.4411302506923675,-0.3693528771400451,0.8845946788787842
1631192853472,0.4950782358646393,-0.4894216060638428,-0.3796827495098114,0.8845946788787842
1631192853580,0.4451896548271179,-0.5256342887878418,-0.3781627118587494,0.8845946788787842
1631192853696,0.3890859484672546,-0.5381230115890503,-0.3670656383037567,0.8845946788787842
1631192853782,0.3885985910892486,-0.529337465763092,-0.3561855852603912,0.8845946788787842
1631192853971,0.3994191586971283,-0.5109086632728577,-0.3549649119377136,0.8845946788787842
1631192854014,0.4194917678833008,-0.4903148412704468,-0.3651052415370941,0.8845946788787842
1631192854125,0.4392682015895843,-0.4699540734291076,-0.3826239109039306,0.8845946788787842
1631192854187,0.4512015581130981,-0.4525603652000427,-0.4031297862529754,0.8845946788787842
1631192854336,0.4553348124027252,-0.4417434930801391,-0.4222245812416076,0.8845946788787842
1631192854461,0.4613786339759826,-0.43800088763237,-0.4343372285366058,0.8845946788787842
1631192854557,0.463893324136734,-0.4407365322113037,-0.4359161555767059,0.8845946788787842
1631192854638,0.463546484708786,-0.4482278823852539,-0.4298286437988281,0.8845946788787842
1631192854685,0.4567519426345825,-0.4569635093212127,-0.4230370223522186,0.8845946788787842
1631192854763,0.447107583284378,-0.4633830785751343,-0.4202771186828613,0.8845946788787842
1631192854954,0.4407974481582641,-0.4640028178691864,-0.4220297932624817,0.8845946788787842
1631192855032,0.4380746185779571,-0.461639940738678,-0.4282581508159637,0.8845946788787842
1631192855110,0.4429432451725006,-0.4622615277767181,-0.4405622482299804,0.8845946788787842
1631192855264,0.4555117189884186,-0.4693026542663574,-0.4568695724010467,0.8845946788787842
1631192855314,0.4701362252235412,-0.4815830588340759,-0.4695394337177276,0.8845946788787842
1631192855453,0.4751604199409485,-0.4931766986846924,-0.4712829887866974,0.8845946788787842
1631192855545,0.4677289128303528,-0.4987854659557342,-0.4635035097599029,0.8845946788787842
1631192855701,0.4667726457118988,-0.496491938829422,-0.452534407377243,0.8845946788787842
1631192855748,0.5170583128929138,-0.4887644946575165,-0.4410813152790069,0.8845946788787842
1631192855810,0.6206305623054504,-0.4779271185398102,-0.4280766248703003,0.8845946788787842
1631192855890,0.7282518148422241,-0.4621728062629699,-0.4139004051685333,0.8845946788787842
1631192855983,0.806449830532074,-0.4370797276496887,-0.4017545878887176,0.8845946788787842
1631192856171,0.8452960252761841,-0.4055978953838348,-0.3946045041084289,0.8845946788787842
1631192856264,0.859704852104187,-0.3776201903820038,-0.3925044238567352,0.8845946788787842
1631192856343,0.8622082471847534,-0.361706018447876,-0.3943719863891601,0.8845946788787842
1631192856471,0.8613213896751404,-0.35927215218544,-0.3970210552215576,0.8845946788787842
1631192856518,0.8598714470863342,-0.3654734790325165,-0.3970401883125305,0.8845946788787842
1631192856611,0.8567595481872559,-0.374054878950119,-0.391640692949295,0.8845946788787842
1631192856783,0.8514538407325745,-0.3796571791172027,-0.3816941082477569,0.8845946788787842
1631192856896,0.8454912900924683,-0.3798805773258209,-0.3714442849159241,0.8845946788787842
1631192856958,0.8405404686927795,-0.3774659931659698,-0.3651471436023712,0.8845946788787842
1631192857021,0.8371441960334778,-0.3760313987731933,-0.3647325038909912,0.8845946788787842
1631192857192,0.8282252550125122,-0.376755028963089,-0.3703320324420929,0.8845946788787842
1631192857270,0.7952718138694763,-0.3779522478580475,-0.3806034326553345,0.8845946788787842
1631192857364,0.7232096791267395,-0.3787139654159546,-0.3932183384895324,0.8845946788787842
1631192857473,0.6130290031433105,-0.3831876814365387,-0.4053471982479095,0.8845946788787842
1631192857645,0.4895226657390594,-0.3970783054828644,-0.4155198335647583,0.8845946788787842
1631192857708,0.4043323099613189,-0.4197621643543243,-0.4233565926551819,0.8845946788787842
1631192857775,0.361903965473175,-0.4425625205039978,-0.4275342226028442,0.8845946788787842
1631192857837,0.3583229184150696,-0.4544317126274109,-0.4243694543838501,0.8845946788787842
1631192858056,0.37140953540802,-0.4521664977073669,-0.4141921997070312,0.8845946788787842
1631192858134,0.3886276185512543,-0.4433309137821197,-0.4017482399940491,0.8845946788787842
1631192858212,0.403967946767807,-0.4366770684719085,-0.3929433226585388,0.8845946788787842
1631192858384,0.4136191010475158,-0.436472475528717,-0.3903334438800812,0.8845946788787842
1631192858462,0.4169381260871887,-0.4439314305782318,-0.3926333785057068,0.8845946788787842
1631192858509,0.4193126261234283,-0.4564515352249145,-0.3973172307014465,0.8845946788787842
1631192858587,0.4232743084430694,-0.4697772562503814,-0.4026766717433929,0.8845946788787842
1631192858681,0.4394187927246094,-0.4808420836925506,-0.4085717499256134,0.8845946788787842
1631192858806,0.4713002741336822,-0.4887231290340423,-0.4177013337612152,0.8845946788787842
1631192858853,0.4804218411445617,-0.493591845035553,-0.4326514303684234,0.8845946788787842
1631192859056,0.4804218411445617,-0.5005218386650085,-0.4539650380611419,0.8845946788787842
1631192859134,0.4804218411445617,-0.5027175545692444,-0.4768210351467132,0.8845946788787842
1631192859272,0.4804218411445617,-0.5011199116706848,-0.4863039851188659,0.8845946788787842
1631192859350,0.4804218411445617,-0.4989064037799835,-0.4611408114433288,0.8845946788787842
1631192859397,0.4804218411445617,-0.4983654320240021,-0.3959917724132538,0.8845946788787842
1631192859483,0.4804218411445617,-0.5001258850097656,-0.3128377497196197,0.8845946788787842
1631192859592,0.4804218411445617,-0.5005708932876587,-0.2414530217647552,0.8845946788787842
1631192859701,0.4804218411445617,-0.4956855177879333,-0.1967982947826385,0.8845946788787842
1631192859891,0.4804218411445617,-0.4852393567562103,-0.17789326608181,0.8845946788787842
1631192859952,0.4804218411445617,-0.4714130461215973,-0.1744867861270904,0.8845946788787842
1631192860014,0.4804218411445617,-0.4559525847434997,-0.1741128712892532,0.8845946788787842
1631192860076,0.4804218411445617,-0.4559525847434997,-0.1693950593471527,0.8845946788787842
1631192860236,0.4804218411445617,-0.4559525847434997,-0.1400694549083709,0.8845946788787842
1631192860241,0.4804218411445617,-0.4559525847434997,-0.1575521826744079,0.8845946788787842
1631192860486,0.4804218411445617,-0.4559525847434997,-0.1051339134573936,0.8845946788787842
1631192860489,0.4804218411445617,-0.4559525847434997,-0.1210461556911468,0.8845946788787842
1631192860642,0.4804218411445617,-0.4559525847434997,-0.0949623733758926,0.8845946788787842
1631192860706,0.4804218411445617,-0.4559525847434997,-0.0918317213654518,0.8845946788787842
1631192860800,0.4804218411445617,-0.4559525847434997,-0.0993039906024932,0.8845946788787842
1631192860899,0.4804218411445617,-0.4559525847434997,-0.1226930171251297,0.8845946788787842
1631192861039,0.4804218411445617,-0.4559525847434997,-0.1630876064300537,0.8845946788787842
1631192861133,0.4804218411445617,-0.4559525847434997,-0.2109893709421157,0.8845946788787842
1631192861226,0.4804218411445617,-0.4559525847434997,-0.2492586970329284,0.8845946788787842
1631192861321,0.4804218411445617,-0.4559525847434997,-0.2659837007522583,0.8845946788787842
1631192861413,0.4804218411445617,-0.4559525847434997,-0.2642768025398254,0.8845946788787842
1631192861540,0.4804218411445617,-0.4559525847434997,-0.2570919096469879,0.8845946788787842
1631192861634,0.4804218411445617,-0.4559525847434997,-0.2545335590839386,0.8845946788787842
1631192861758,0.4804218411445617,-0.4559525847434997,-0.2610538601875305,0.8845946788787842
1631192861819,0.4804218411445617,-0.4559525847434997,-0.2745973169803619,0.8845946788787842
1631192861928,0.4804218411445617,-0.4559525847434997,-0.2886806726455688,0.8845946788787842
1631192862117,0.4804218411445617,-0.4559525847434997,-0.2957215309143066,0.8845946788787842
1631192862179,0.505348265171051,-0.3727036118507385,-0.2938576340675354,0.8845946788787842
1631192862240,0.510248601436615,-0.3497636020183563,-0.2892510890960693,0.8845946788787842
1631192862318,0.5011547207832336,-0.345676451921463,-0.2911323010921478,0.8845946788787842
1631192862445,0.4865060448646545,-0.3584390878677368,-0.3027094602584839,0.8845946788787842
1631192862585,0.4755629599094391,-0.3792196214199066,-0.3199444115161896,0.8845946788787842
1631192862630,0.4740765690803528,-0.3971517980098724,-0.3364088237285614,0.8845946788787842
1631192862709,0.4806167483329773,-0.4073419272899627,-0.3500348925590515,0.8845946788787842
1631192862834,0.4842157363891601,-0.4109385907649994,-0.3623653650283813,0.8845946788787842
1631192863006,0.4800100922584533,-0.4115583896636963,-0.3739285469055176,0.8845946788787842
1631192863052,0.4668838381767273,-0.4103667438030243,-0.3818553984165191,0.8845946788787842
1631192863254,0.4486341774463653,-0.4061600267887115,-0.3845579922199249,0.8845946788787842
1631192863315,0.431246668100357,-0.3989559710025787,-0.3861816525459289,0.8845946788787842
1631192863364,0.4149746000766754,-0.3851646780967712,-0.3910408914089203,0.8845946788787842
1631192863457,0.4073319137096405,-0.3714010417461395,-0.401325911283493,0.8845946788787842
1631192863581,0.4042732417583465,-0.3607942759990692,-0.4168373346328735,0.8845946788787842
1631192863676,0.4022949635982513,-0.3557196855545044,-0.4355900287628174,0.8845946788787842
1631192863747,0.3992241024971008,-0.3564009070396423,-0.4546304047107696,0.8845946788787842
1631192863810,0.3946015238761902,-0.3594942986965179,-0.4699498414993286,0.8845946788787842
1631192863907,0.3898319602012634,-0.3585228025913238,-0.4821526110172272,0.8845946788787842
1631192864161,0.3829905688762665,-0.3503679931163788,-0.4962398409843445,0.8845946788787842
1631192864193,0.3767566680908203,-0.3379851579666137,-0.5123341083526611,0.8845946788787842
1631192864240,0.3617675006389618,-0.3271070718765259,-0.5188727974891663,0.8845946788787842
1631192864349,0.3457275331020355,-0.3183612823486328,-0.5036094784736633,0.8845946788787842
1631192864474,0.3370943069458008,-0.3103108406066894,-0.4731349945068359,0.8845946788787842
1631192864536,0.3434823155403137,-0.3025776147842407,-0.4439855515956878,0.8845946788787842
1631192864771,0.3640650808811188,-0.2971361577510834,-0.4257189333438873,0.8845946788787842
1631192864771,0.3904070556163788,-0.2956830859184265,-0.4161263108253479,0.8845946788787842
1631192864880,0.4153483510017395,-0.2988763749599457,-0.4097207486629486,0.8845946788787842
1631192865008,0.4248916208744049,-0.3095114827156067,-0.4038280248641968,0.8845946788787842
1631192865040,0.4112652540206909,-0.3315779566764831,-0.3972519338130951,0.8845946788787842
1631192865164,0.3738951086997986,-0.364713966846466,-0.3884543180465698,0.8845946788787842
1631192865336,0.3738951086997986,-0.364713966846466,-0.3783886432647705,0.8845946788787842
1631192865369,0.3738951086997986,-0.364713966846466,-0.3683271706104278,0.8845946788787842
1631192865488,0.3738951086997986,-0.364713966846466,-0.3584816753864288,0.8845946788787842
1631192865566,0.3738951086997986,-0.364713966846466,-0.3479461967945099,0.8845946788787842
1631192865721,0.3738951086997986,-0.364713966846466,-0.3386115133762359,0.8845946788787842
1631192865815,0.3738951086997986,-0.364713966846466,-0.3374663591384887,0.8845946788787842
1631192865893,0.3738951086997986,-0.364713966846466,-0.3510171473026275,0.8845946788787842
1631192866018,0.3738951086997986,-0.364713966846466,-0.375986635684967,0.8845946788787842
1631192866096,0.3738951086997986,-0.364713966846466,-0.4016582071781158,0.8845946788787842
1631192866252,0.3738951086997986,-0.364713966846466,-0.4149159491062164,0.8845946788787842
1631192866346,0.3738951086997986,-0.364713966846466,-0.4117352068424225,0.8845946788787842
1631192866408,0.3738951086997986,-0.364713966846466,-0.3996512293815613,0.8845946788787842
1631192866502,0.3738951086997986,-0.364713966846466,-0.3851927816867828,0.8845946788787842
1631192866596,0.3738951086997986,-0.364713966846466,-0.3722421824932098,0.8845946788787842
1631192866705,0.3738951086997986,-0.364713966846466,-0.3627979755401611,0.8845946788787842
1631192866767,0.3738951086997986,-0.631953239440918,-0.3575204908847809,0.8845946788787842
1631192866908,0.3738951086997986,-0.631953239440918,-0.3564967513084411,0.8845946788787842
1631192867051,0.3738951086997986,-0.631953239440918,-0.3577995598316192,0.8845946788787842
1631192867161,0.3738951086997986,-0.631953239440918,-0.3595050275325775,0.8845946788787842
1631192867270,0.3738951086997986,-0.631953239440918,-0.3606354892253876,0.8845946788787842
1631192867302,0.3738951086997986,-0.631953239440918,-0.3599464297294616,0.8845946788787842
1631192867426,0.3738951086997986,-0.631953239440918,-0.3567259311676025,0.8845946788787842
1631192867551,0.3738951086997986,-0.631953239440918,-0.3533309996128082,0.8845946788787842
1631192867707,0.3738951086997986,-0.631953239440918,-0.3527233600616455,0.8845946788787842
1631192867770,0.3738951086997986,-0.631953239440918,-0.3556460738182068,0.8845946788787842
1631192867864,0.3738951086997986,-0.631953239440918,-0.3599734306335449,0.8845946788787842
1631192867911,0.3738951086997986,-0.631953239440918,-0.3624885678291321,0.8845946788787842
1631192867992,0.3738951086997986,-0.631953239440918,-0.3655892014503479,0.8845946788787842
1631192868117,0.3738951086997986,-0.631953239440918,-0.3737500011920929,0.8845946788787842
1631192868180,0.3738951086997986,-0.631953239440918,-0.3888351917266845,0.8845946788787842
1631192868352,0.3738951086997986,-0.631953239440918,-0.4075957238674164,0.8845946788787842
1631192868414,0.39590984582901,-0.3490645587444305,-0.4253257513046264,0.8845946788787842
1631192868571,0.4182139933109283,-0.3565091490745544,-0.4407053887844085,0.8845946788787842
1631192868602,0.4372500479221344,-0.3542549014091491,-0.4553807973861694,0.8845946788787842
1631192868743,0.447526603937149,-0.3540475070476532,-0.4687260091304779,0.8845946788787842
1631192868821,0.447526603937149,-0.3635859191417694,-0.4756777286529541,0.8845946788787842
1631192868963,0.447526603937149,-0.3635859191417694,-0.4689721763134002,0.8845946788787842
1631192869041,0.447526603937149,-0.3635859191417694,-0.4462216198444366,0.8845946788787842
1631192869119,0.447526603937149,-0.3635859191417694,-0.4153749644756317,0.8845946788787842
1631192869276,0.447526603937149,-0.3635859191417694,-0.3894904255867004,0.8845946788787842
1631192869400,0.447526603937149,-0.3635859191417694,-0.3767299950122833,0.8845946788787842
1631192869541,0.447526603937149,-0.3635859191417694,-0.3776091039180755,0.8845946788787842
1631192869619,0.447526603937149,-0.3635859191417694,-0.3853313028812408,0.8845946788787842
1631192869698,0.4637767672538757,-0.3790970742702484,-0.3910231292247772,0.8845946788787842
1631192869744,0.48018679022789,-0.388525903224945,-0.3897841572761535,0.8845946788787842
1631192869838,0.4951251745223999,-0.387687623500824,-0.3824414312839508,0.8845946788787842
1631192869949,0.4951251745223999,-0.3228014707565307,-0.3742915689945221,0.8845946788787842
1631192870106,0.4951251745223999,-0.2814567983150482,-0.3676387965679168,0.8845946788787842
1631192870309,0.4951251745223999,-0.2769010365009308,-0.3609478771686554,0.8845946788787842
1631192870372,0.4951251745223999,-0.3013794720172882,-0.3539309203624725,0.8845946788787842
1631192870606,0.4951251745223999,-0.3299194276332855,-0.3503136336803436,0.8845946788787842
1631192870653,0.0979629978537559,-0.3666205704212188,-0.3555752635002136,0.8845946788787842
1631192870684,0.1556374132633209,-0.3749531209468841,-0.3723308145999908,0.8845946788787842
1631192870762,0.2031649947166443,-0.3604728281497955,-0.3989007174968719,0.8845946788787842
1631192870887,0.237056702375412,-0.3378739953041076,-0.4309443533420563,0.8845946788787842
1631192870950,0.2670688331127167,-0.3134877681732178,-0.4852560460567474,0.8845946788787842
1631192870950,0.2577458322048187,-0.3208122551441192,-0.4624092578887939,0.8845946788787842
1631192871137,0.2712150812149048,-0.3128910660743713,-0.4950074553489685,0.8845946788787842
1631192871199,0.2746619582176208,-0.3144210577011108,-0.4943240582942962,0.8845946788787842
1631192871262,0.2785203158855438,-0.317107230424881,-0.4893490970134735,0.8845946788787842
1631192871403,0.2813117206096649,-0.3221992254257202,-0.4849007725715637,0.8845946788787842
1631192871512,0.2828588783740997,-0.3448013663291931,-0.4814097285270691,0.8845946788787842
1631192871731,0.2826987504959106,-0.3659597933292389,-0.4806282520294189,0.8845946788787842
1631192871762,0.2975369095802307,-0.3758599758148193,-0.4849000871181488,0.8845946788787842
1631192871809,0.3068967163562774,-0.3733361959457397,-0.4914614558219909,0.8845946788787842
1631192871871,0.3073672652244568,-0.3660966753959656,-0.4930159151554107,0.8845946788787842
1631192872093,0.3101129829883575,-0.3625309765338897,-0.4864013493061065,0.8845946788787842
1631192872093,0.3084649741649627,-0.3581742644309997,-0.4748344421386719,0.8845946788787842
1631192872202,0.3014820218086242,-0.3656906485557556,-0.4607404172420501,0.8845946788787842
1631192872311,0.2914791107177734,-0.384121835231781,-0.4417732059955597,0.8845946788787842
1631192872374,0.2815256714820862,-0.406733751296997,-0.4173252284526825,0.8845946788787842
1631192872628,0.2751283049583435,-0.426584392786026,-0.3924044370651245,0.8845946788787842
1631192872831,0.2709949314594269,-0.442250907421112,-0.3724407255649566,0.8845946788787842
1631192872878,0.2654879093170166,-0.458027184009552,-0.3595078587532043,0.8845946788787842
1631192872924,0.2559214532375335,-0.4752224385738373,-0.3537788689136505,0.8845946788787842
1631192872955,0.2434343099594116,-0.4890142381191253,-0.3545787036418915,0.8845946788787842
1631192873039,0.2273255139589309,-0.4939599931240082,-0.360156774520874,0.8845946788787842
1631192873133,0.2273255139589309,-0.4953145980834961,-0.3668111562728882,0.8845946788787842
1631192873258,0.2273255139589309,-0.5110568404197693,-0.3723704814910888,0.8845946788787842
1631192873351,0.2273255139589309,-0.5224002599716187,-0.3794361352920532,0.8845946788787842
1631192873399,0.2273255139589309,-0.5188091993331909,-0.3909780979156494,0.8845946788787842
1631192873523,0.2273255139589309,-0.5003353357315063,-0.4057391285896301,0.8845946788787842
1631192873617,0.1094716861844062,-0.480572372674942,-0.4204953610897064,0.8845946788787842
1631192873726,0.0977563187479972,-0.4567392766475677,-0.4356929659843445,0.8845946788787842
1631192873852,0.1007801666855812,-0.436843991279602,-0.4564108252525329,0.8845946788787842
1631192873930,0.1212353780865669,-0.427390843629837,-0.4833191335201263,0.8845946788787842
1631192874023,0.1501585394144058,-0.4270950853824615,-0.5115675330162048,0.8845946788787842
1631192874211,0.1808145642280578,-0.4272176623344421,-0.5363305807113647,0.8845946788787842
1631192874336,0.2128148823976516,-0.4202651679515838,-0.556709349155426,0.8845946788787842
1631192874523,0.2394812107086181,-0.4075579643249511,-0.5696974992752075,0.8845946788787842
1631192874617,0.2611376345157623,-0.395029067993164,-0.5685145854949951,0.8845946788787842
1631192874835,0.2748176455497741,-0.3855493664741516,-0.5509656071662903,0.8845946788787842
1631192874867,0.2788040339946747,-0.377846896648407,-0.5248692631721497,0.8845946788787842
1631192874882,0.2790561318397522,-0.3611825406551361,-0.5000485777854919,0.8845946788787842
1631192874914,0.2838742136955261,-0.3469158411026001,-0.4820884168148041,0.8845946788787842
1631192874929,0.2917822897434234,-0.3373824059963226,-0.4741522669792175,0.8845946788787842
1631192875085,0.301281064748764,-0.3331762254238128,-0.4774001836776733,0.8845946788787842
1631192875117,0.3067478239536285,-0.3347990810871124,-0.4898128509521484,0.8845946788787842
1631192875289,0.3070913255214691,-0.342694878578186,-0.5043497085571289,0.8845946788787842
1631192875508,0.3028478324413299,-0.3538263142108917,-0.514139711856842,0.8845946788787842
1631192875585,0.291726291179657,-0.3529404997825622,-0.5183603167533875,0.8845946788787842
1631192875617,0.2902543246746063,-0.3478797078132629,-0.5202268362045288,0.8845946788787842
1631192875679,0.2834859192371368,-0.341803103685379,-0.5227735042572021,0.8845946788787842
1631192875914,0.2690200209617615,-0.3405130803585052,-0.5267084240913391,0.8845946788787842
1631192875994,0.2492039948701858,-0.3461416065692901,-0.533584475517273,0.8845946788787842
1631192876088,0.2233545929193496,-0.3558248579502105,-0.5448063015937805,0.8845946788787842
1631192876182,0.1962401270866394,-0.3665956258773803,-0.5601105690002441,0.8845946788787842
1631192876213,0.1766392737627029,-0.3800952434539795,-0.5795153379440308,0.8845946788787842
1631192876353,0.1591536998748779,-0.4013272523880005,-0.6026390790939331,0.8845946788787842
1631192876509,0.1373337060213089,-0.4296176433563232,-0.627023458480835,0.8845946788787842
1631192876634,0.1838701963424682,-0.460270494222641,-0.6453390121459961,0.8845946788787842
1631192876806,0.1680478900671005,-0.460270494222641,-0.6532057523727417,0.8845946788787842
1631192876806,0.1708903163671493,-0.460270494222641,-0.6514272093772888,0.8845946788787842
1631192877059,0.1708903163671493,-0.460270494222641,-0.6447029113769531,0.8845946788787842
1631192877153,0.1708903163671493,-0.460270494222641,-0.6347586512565613,0.8845946788787842
1631192877231,0.1708903163671493,-0.460270494222641,-0.6212725639343262,0.8845946788787842
1631192877293,0.1708903163671493,-0.460270494222641,-0.6045688390731812,0.8845946788787842
1631192877371,0.1708903163671493,-0.460270494222641,-0.5846959948539734,0.8845946788787842
1631192877387,0.1708903163671493,-0.460270494222641,-0.5632798075675964,0.8845946788787842
1631192877465,0.1708903163671493,-0.460270494222641,-0.5433961749076843,0.8845946788787842
1631192877605,0.1708903163671493,-0.460270494222641,-0.5298561453819275,0.8845946788787842
1631192877715,0.1708903163671493,-0.460270494222641,-0.5257613658905029,0.8845946788787842
1631192877808,0.1708903163671493,-0.460270494222641,-0.5300614833831787,0.8845946788787842
1631192877902,0.1708903163671493,-0.460270494222641,-0.5386717915534973,0.8845946788787842
1631192877933,0.1708903163671493,-0.460270494222641,-0.5470507740974426,0.8845946788787842
1631192877965,0.1708903163671493,-0.460270494222641,-0.554763674736023,0.8845946788787842
1631192878171,0.5092308521270752,-0.3968392610549927,-0.5597841739654541,0.8845946788787842
1631192878265,0.4372859299182892,-0.4151752591133117,-0.5487375855445862,0.8845946788787842
1631192878265,0.4690523743629455,-0.4081529974937439,-0.5586774945259094,0.8845946788787842
1631192878358,0.4263041019439697,-0.4218644201755523,-0.5314263105392456,0.8845946788787842
1631192878468,0.4363345205783844,-0.4287420809268951,-0.5108230710029602,0.8845946788787842
1631192878718,0.4555745720863342,-0.4305967092514038,-0.4916558861732483,0.8845946788787842
1631192878811,0.4714082181453705,-0.4250492751598358,-0.4777991473674774,0.8845946788787842
1631192878874,0.4789134263992309,-0.416886955499649,-0.4704676866531372,0.8845946788787842
1631192878999,0.4794668853282928,-0.4121274352073669,-0.4680504500865936,0.8845946788787842
1631192879064,0.4741959273815155,-0.4121724665164947,-0.466940701007843,0.8845946788787842
1631192879173,0.4741959273815155,-0.4145126044750213,-0.465009480714798,0.8845946788787842
1631192879189,0.4741959273815155,-0.4169808626174927,-0.4596215486526489,0.8845946788787842
1631192879283,0.4593542218208313,-0.4248263537883758,-0.4490590095520019,0.8845946788787842
1631192879392,0.4497654438018799,-0.4296475350856781,-0.4342900514602661,0.8845946788787842
1631192879502,0.4484823346138,-0.4300972819328308,-0.4174098074436188,0.8845946788787842
1631192879642,0.4576690196990967,-0.428132951259613,-0.4022787809371948,0.8845946788787842
1631192879736,0.4773799479007721,-0.4258422255516052,-0.3936452567577362,0.8845946788787842
1631192879829,0.5035136938095093,-0.4407761693000793,-0.3947946727275848,0.8845946788787842
1631192879939,0.5241168141365051,-0.4573782682418823,-0.4057431221008301,0.8845946788787842
1631192880035,0.5286478400230408,-0.4677288234233856,-0.421350359916687,0.8845946788787842
1631192880113,0.5133857727050781,-0.4664306640625,-0.43429696559906,0.8845946788787842
1631192880238,0.5133857727050781,-0.4518399536609649,-0.4404481649398803,0.8845946788787842
1631192880301,0.5133857727050781,-0.4247888922691345,-0.4413318037986755,0.8845946788787842
1631192880457,0.5133857727050781,-0.3913607001304626,-0.4417610168457031,0.8845946788787842
1631192880582,0.5133857727050781,-0.3614951074123382,-0.4455646574497223,0.8845946788787842
1631192880675,0.5133857727050781,-0.3430966734886169,-0.4518706500530243,0.8845946788787842
1631192880910,0.5133857727050781,-0.3366035521030426,-0.4578821957111358,0.8845946788787842
1631192880925,0.5133857727050781,-0.3362828493118286,-0.4598776400089264,0.8845946788787842
1631192881100,0.5133857727050781,-0.3370603024959564,-0.4360577464103699,0.8845946788787842
1631192881100,0.5133857727050781,-0.3370603024959564,-0.4527701437473297,0.8845946788787842
1631192881131,0.5133857727050781,-0.3370603024959564,-0.4168733358383178,0.8845946788787842
1631192881256,0.5133857727050781,-0.3370603024959564,-0.4025740325450897,0.8845946788787842
1631192881428,0.5133857727050781,-0.3153698146343231,-0.3953241109848022,0.8845946788787842
1631192881490,0.5133857727050781,-0.288937360048294,-0.3926785290241241,0.8845946788787842
1631192881600,0.5133857727050781,-0.2632684111595154,-0.3954091072082519,0.8845946788787842
1631192881662,0.5133857727050781,-0.2462037056684494,-0.4064885377883911,0.8845946788787842
1631192881756,0.5133857727050781,-0.245277002453804,-0.4252583980560303,0.8845946788787842
1631192881881,0.5133857727050781,-0.2659033238887787,-0.4443731606006622,0.8845946788787842
1631192881990,0.5133857727050781,-0.2951233685016632,-0.4553227722644806,0.8845946788787842
1631192882037,0.5133857727050781,-0.3145705461502075,-0.4552702605724334,0.8845946788787842
1631192882224,0.5133857727050781,-0.321729451417923,-0.4490230679512024,0.8845946788787842
1631192882302,0.5133857727050781,-0.3204200863838196,-0.4445144832134247,0.8845946788787842
1631192882396,0.5133857727050781,-0.3182645440101623,-0.4476669132709503,0.8845946788787842
1631192882599,0.5601670742034912,-0.3237058520317077,-0.4619478285312652,0.8845946788787842
1631192882833,0.5173789262771606,-0.352119892835617,-0.4874281585216522,0.8845946788787842
1631192882849,0.4887852072715759,-0.3754635453224182,-0.5184083580970764,0.8845946788787842
1631192882943,0.4725455045700073,-0.39005047082901,-0.546049952507019,0.8845946788787842
1631192882974,0.4654375314712524,-0.3980669975280761,-0.5620883107185364,0.8845946788787842
1631192883227,0.4622975289821625,-0.4050511121749878,-0.5613994598388672,0.8845946788787842
1631192883258,0.4575852751731872,-0.4108847677707672,-0.543868362903595,0.8845946788787842
1631192883383,0.447875052690506,-0.4080205857753753,-0.5178009271621704,0.8845946788787842
1631192883477,0.4357780516147613,-0.3928389549255371,-0.4955090582370758,0.8845946788787842
1631192883555,0.4357780516147613,-0.3704961836338043,-0.4829780757427215,0.8845946788787842
1631192883742,0.4357780516147613,-0.3606958091259002,-0.4757991731166839,0.8845946788787842
1631192883805,0.4357780516147613,-0.37256920337677,-0.4668022692203522,0.8845946788787842
1631192883867,0.3648979365825653,-0.381505399942398,-0.4524625539779663,0.8845946788787842
1631192883914,0.339750200510025,-0.3839111924171448,-0.434177428483963,0.8845946788787842
1631192883961,0.3469114601612091,-0.3798553347587585,-0.415077269077301,0.8845946788787842
1631192884008,0.3570360839366913,-0.3692858517169952,-0.3999602198600769,0.8845946788787842
1631192884074,0.3663980960845947,-0.3512459397315979,-0.3920092582702636,0.8845946788787842
1631192884231,0.3753898441791534,-0.3290330171585083,-0.3902987837791443,0.8845946788787842
1631192884309,0.3784377574920654,-0.3067507147789001,-0.3904296457767486,0.8845946788787842
1631192884387,0.3695896565914154,-0.2838067412376404,-0.3888651728630066,0.8845946788787842
1631192884481,0.3695896565914154,-0.253108412027359,-0.3860578238964081,0.8845946788787842
1631192884590,0.3695896565914154,-0.2109210640192031,-0.3844291865825653,0.8845946788787842
1631192884762,0.3695896565914154,-0.1793743520975113,-0.3828832507133484,0.8845946788787842
1631192885012,0.3695896565914154,-0.1988809555768966,-0.3768471777439117,0.8845946788787842
1631192885076,0.3695896565914154,-0.2633049190044403,-0.3659206330776214,0.8845946788787842
1631192885139,0.2004244029521942,-0.3432756960391998,-0.3565166890621185,0.8845946788787842
1631192885311,0.1760534942150116,-0.3552815020084381,-0.355511724948883,0.8845946788787842
1631192885373,0.1535259336233139,-0.3541784584522247,-0.3632872104644775,0.8845946788787842
1631192885483,0.1324964314699173,-0.3436546623706817,-0.3728014528751373,0.8845946788787842
1631192885561,0.1136893257498741,-0.3287211656570434,-0.3766108751296997,0.8845946788787842
1631192885608,0.1014864221215248,-0.3151400685310364,-0.3714958727359772,0.8845946788787842
1631192885639,0.0927684530615806,-0.307212233543396,-0.360754132270813,0.8845946788787842
1631192885701,0.0885233879089355,-0.3063996136188507,-0.3503264486789703,0.8845946788787842
1631192885811,0.0848385468125343,-0.3113541901111603,-0.3442097008228302,0.8845946788787842
1631192886048,0.0830002948641777,-0.3194734454154968,-0.343519389629364,0.8845946788787842
1631192886173,0.0854870378971099,-0.3280433416366577,-0.3489958643913269,0.8845946788787842
1631192886204,0.0913606062531471,-0.3362383246421814,-0.3611537218093872,0.8845946788787842
1631192886251,0.0799177587032318,-0.3541193604469299,-0.3802780508995056,0.8845946788787842
1631192886407,0.0693971291184425,-0.3634163439273834,-0.4050460457801819,0.8845946788787842
1631192886642,0.0614712014794349,-0.3655121326446533,-0.4318287074565887,0.8845946788787842
1631192886704,0.0528917498886585,-0.3653276264667511,-0.4544919729232788,0.8845946788787842
1631192886816,0.0481911823153495,-0.3662874102592468,-0.4666182696819305,0.8845946788787842
1631192887035,0.0491041615605354,-0.3707656264305115,-0.4687039256095886,0.8845946788787842
1631192887035,0.0508410781621933,-0.3797809183597564,-0.4691068232059479,0.8845946788787842
1631192887098,0.0519729144871234,-0.3916723430156708,-0.4757652878761291,0.8845946788787842
1631192887160,0.0484235472977161,-0.4031172692775726,-0.4898616671562195,0.8845946788787842
1631192887238,0.0428030677139759,-0.4104736447334289,-0.5045210123062134,0.8845946788787842
1631192887285,0.0350622721016407,-0.4126018583774566,-0.5109041333198547,0.8845946788787842
1631192887379,0.0263043083250522,-0.4111769199371338,-0.507673978805542,0.8845946788787842
1631192887457,0.0201015397906303,-0.4082665741443634,-0.5026440620422363,0.8845946788787842
1631192887660,0.015556645579636,-0.4068972468376159,-0.5023813247680664,0.8845946788787842
1631192887910,0.0133613934740424,-0.4083184599876404,-0.5040213465690613,0.8845946788787842
1631192887941,0.0108020966872572,-0.4116535186767578,-0.4997255206108093,0.8845946788787842
1631192888177,0.0095820147544145,-0.4169603884220123,-0.4879280626773834,0.8845946788787842
1631192888380,0.0194820575416088,-0.4236120283603668,-0.4738580882549286,0.8845946788787842
1631192888427,0.0690352693200111,-0.4301703870296478,-0.462469607591629,0.8845946788787842
1631192888568,0.1611517369747162,-0.4359597563743591,-0.4546197950839996,0.8845946788787842
1631192888708,0.258403331041336,-0.4411243796348572,-0.4481963813304901,0.8845946788787842
1631192888867,0.3367084860801697,-0.4466820061206817,-0.4422233998775482,0.8845946788787842
1631192888867,0.3857102394104004,-0.4549252092838287,-0.4375551640987396,0.8845946788787842
1631192888929,0.4226273596286773,-0.4673293828964233,-0.4350105226039886,0.8845946788787842
1631192889023,0.4773969650268554,-0.4832107424736023,-0.3391189277172088,0.8845946788787842
1631192889101,0.4994450509548187,-0.498049646615982,-0.3426217138767242,0.8845946788787842
1631192889272,0.5239285230636597,-0.5107377171516418,-0.3479995727539062,0.8845946788787842
1631192889460,0.5493631958961487,-0.5218502283096313,-0.351254940032959,0.8845946788787842
1631192889554,0.5753018260002136,-0.529856264591217,-0.3482033312320709,0.8845946788787842
1631192889663,0.6018755435943604,-0.533035397529602,-0.3388899266719818,0.8845946788787842
1631192889772,0.6321950554847717,-0.5315904021263123,-0.3270184397697449,0.8845946788787842
1631192889850,0.6693086624145508,-0.5257242918014526,-0.2385362982749939,0.8845946788787842
1631192889913,0.7103385925292969,-0.5184592604637146,-0.2281980663537979,0.8845946788787842
1631192889960,0.7415555715560913,-0.5137433409690857,-0.2193564474582672,0.8845946788787842
1631192889991,0.7476412057876587,-0.5131254196166992,-0.092200681567192,0.8845946788787842
1631192890022,0.728928804397583,-0.5159701108932495,-0.0920615345239639,0.8845946788787842
1631192890053,0.728928804397583,-0.5207183361053467,-0.0934450626373291,0.8845946788787842
1631192890069,0.728928804397583,-0.4994998574256897,-0.094256117939949,0.8845946788787842
1631192890132,0.728928804397583,-0.4717306196689605,-0.0942833051085472,0.8845946788787842
1631192890225,0.728928804397583,-0.4452734291553497,-0.1452656388282776,0.8845946788787842
1631192890303,0.728928804397583,-0.4237076640129089,-0.1416005641222,0.8845946788787842
1631192890382,0.728928804397583,0.02759924903512,-0.0108888922259211,0.8845946788787842
1631192890491,0.728928804397583,0.2155490219593048,-0.0035686849150806,0.8845946788787842
1631192890553,0.728928804397583,0.169537216424942,0.0048504662699997,0.8845946788787842
1631192890663,0.728928804397583,0.1316029876470565,0.0126976398751139,0.8845946788787842
1631192890788,0.728928804397583,0.0979577600955963,0.017818359658122,0.8845946788787842
1631192890916,0.728928804397583,0.0664157643914222,-0.0217651296406984,0.8845946788787842
1631192891025,0.2706422507762909,0.0371296405792236,-0.0246556214988231,0.8845946788787842
1631192891088,0.2713814675807953,0.0104162758216261,-0.0287371482700109,0.8845946788787842
1631192891181,0.2713814675807953,0.0104162758216261,-0.1359912008047104,0.8845946788787842
1631192891275,0.2713814675807953,0.0104162758216261,-0.1375533640384674,0.8845946788787842
1631192891463,0.2713814675807953,0.0104162758216261,-0.1373495161533355,0.8845946788787842
1631192891697,0.2713814675807953,0.0349056981503963,-0.1354907751083374,0.8845946788787842
1631192891728,0.2713814675807953,0.0622152276337146,-0.1320686191320419,0.8845946788787842
1631192891916,0.2713814675807953,0.0936350673437118,-0.1164318025112152,0.8845946788787842
1631192891994,0.2713814675807953,0.1296682208776474,-0.1006286740303039,0.8845946788787842
1631192892025,0.2713814675807953,-0.0022873124107718,-0.2860626876354217,0.8845946788787842
1631192892072,0.2713814675807953,-0.3915985524654388,-0.2893871963024139,0.8845946788787842
1631192892243,0.2713814675807953,-0.4092562198638916,-0.3005249500274658,0.8845946788787842
1631192892275,0.2378971874713897,-0.4378015995025635,-0.3198737204074859,0.8845946788787842
1631192892353,0.2378971874713897,-0.4378015995025635,-0.3429574966430664,0.8845946788787842
1631192892431,0.2378971874713897,-0.4378015995025635,-0.3613137602806091,0.8845946788787842
1631192892649,0.2378971874713897,-0.4378015995025635,-0.3622556626796722,0.8845946788787842
1631192892698,0.2378971874713897,-0.4378015995025635,-0.3461883962154388,0.8845946788787842
1631192892916,0.2378971874713897,-0.4378015995025635,-0.3295743465423584,0.8845946788787842
1631192892949,0.2378971874713897,-0.4378015995025635,-0.3220186531543731,0.8845946788787842
1631192893091,0.2378971874713897,-0.4378015995025635,-0.328035295009613,0.8845946788787842
1631192893228,0.2378971874713897,-0.4378015995025635,-0.3462057709693908,0.8845946788787842
1631192893382,0.2378971874713897,-0.4378015995025635,-0.3799201846122741,0.8845946788787842
1631192893399,0.2378971874713897,-0.4378015995025635,-0.368690550327301,0.8845946788787842
1631192893508,0.2378971874713897,-0.4378015995025635,-0.3817999064922333,0.8845946788787842
1631192893585,0.2378971874713897,-0.4378015995025635,-0.3812331855297088,0.8845946788787842
1631192893675,0.2378971874713897,-0.4378015995025635,-0.3853731751441955,0.8845946788787842
1631192893738,0.2378971874713897,-0.4378015995025635,-0.3958459496498108,0.8845946788787842
1631192893784,0.0967451483011245,-0.3172275722026825,-0.4097314774990082,0.8845946788787842
1631192893878,0.0905201956629753,-0.3178708851337433,-0.4240379929542541,0.8845946788787842
1631192893946,0.0736471936106681,-0.3151957094669342,-0.4385553896427154,0.8845946788787842
1631192894039,0.059332001954317,-0.3124291002750397,-0.4646787345409393,0.8845946788787842
1631192894174,0.0533267632126808,-0.3108947277069092,-0.5013614892959595,0.8845946788787842
1631192894315,0.0502749495208263,-0.3122440576553345,-0.5409107804298401,0.8845946788787842
1631192894424,0.0461376942694187,-0.3181101083755493,-0.5715593099594116,0.8845946788787842
1631192894457,0.0413549467921257,-0.3281093239784241,-0.5843663811683655,0.8845946788787842
1631192894697,0.0358023792505264,-0.3397936522960663,-0.5813369154930115,0.8845946788787842
1631192894783,0.0308959912508726,-0.3515507280826568,-0.5738323330879211,0.8845946788787842
1631192894993,0.0231067612767219,-0.3647133708000183,-0.5736784338951111,0.8845946788787842
1631192895070,0.0141842607408761,-0.3783871829509735,-0.5836751461029053,0.8845946788787842
1631192895133,0.0067887622863054,-0.3998772501945495,-0.5963839292526245,0.8845946788787842
1631192895148,-0.0033595389686524,-0.4176485240459442,-0.6005144119262695,0.8845946788787842
1631192895211,-0.0116944862529635,-0.4329260587692261,-0.5921972990036011,0.8845946788787842
1631192895258,-0.017661103978753,-0.4499677419662475,-0.5783181190490723,0.8845946788787842
1631192895336,-0.0151115180924534,-0.4721413850784302,-0.5675479769706726,0.8845946788787842
1631192895509,-0.0018077961867675,-0.4996584057807922,-0.5618939399719238,0.8845946788787842
1631192895556,0.0153103657066822,-0.5308740139007568,-0.5582372546195984,0.8845946788787842
1631192895697,0.0337580777704715,-0.5632882714271545,-0.5524019002914429,0.8845946788787842
1631192895869,0.0509170554578304,-0.5918608903884888,-0.5454410910606384,0.8845946788787842
1631192895916,0.0697663128376007,-0.6104817390441895,-0.5430700778961182,0.8845946788787842
1631192895997,0.0977382063865661,-0.6143190264701843,-0.5508251190185547,0.8845946788787842
1631192896106,0.1428121626377105,-0.6041384935379028,-0.5690380930900574,0.8845946788787842
1631192896184,0.2233034819364547,-0.584754467010498,-0.59077388048172,0.8845946788787842
1631192896247,0.3334878385066986,-0.5598729252815247,-0.6054720878601074,0.8845946788787842
1631192896418,0.3534912765026092,-0.5371690988540649,-0.6092032790184021,0.8845946788787842
1631192896512,0.3750566244125366,-0.5215455889701843,-0.6055582165718079,0.8845946788787842
1631192896606,0.3973107933998108,-0.5159798264503479,-0.5982679128646851,0.8845946788787842
1631192896731,0.4187515676021576,-0.5108451843261719,-0.5864146947860718,0.8845946788787842
1631192896809,0.4423655867576599,-0.5031506419181824,-0.5594680309295654,0.8845946788787842
1631192896968,0.4681389331817627,-0.4906622171401977,-0.5093689560890198,0.8845946788787842
1631192897077,0.4956577122211456,-0.4729107916355133,-0.4422637820243835,0.8845946788787842
1631192897093,0.5265259146690369,-0.4505283236503601,-0.3741914927959442,0.8845946788787842
1631192897191,0.5610102415084839,-0.4250527918338775,-0.3154267966747284,0.8845946788787842
1631192897300,0.6047151684761047,-0.3991388082504272,-0.2673912048339844,0.8845946788787842
1631192897394,0.6617709994316101,-0.3747689723968506,-0.2276157140731811,0.8845946788787842
1631192897487,0.6617709994316101,-0.3558530807495117,-0.1953675299882888,0.8845946788787842
1631192897628,0.6617709994316101,-0.3475311398506164,-0.1718899458646774,0.8845946788787842
1631192897800,0.6617709994316101,-0.3475311398506164,-0.15726038813591,0.8845946788787842
1631192897862,0.6617709994316101,-0.3475311398506164,-0.1502951979637146,0.8845946788787842
1631192897972,0.6617709994316101,-0.3475311398506164,-0.1491104066371917,0.8845946788787842
1631192898034,0.6617709994316101,-0.3475311398506164,-0.151689812541008,0.8845946788787842
1631192898097,0.6617709994316101,-0.3475311398506164,-0.1563096642494201,0.8845946788787842
1631192898206,0.6617709994316101,-0.3475311398506164,-0.1614398211240768,0.8845946788787842
1631192898337,0.6617709994316101,-0.3475311398506164,-0.170160487294197,0.8845946788787842
1631192898391,0.6617709994316101,-0.3475311398506164,-0.1882387101650238,0.8845946788787842
1631192898500,0.6617709994316101,-0.3475311398506164,-0.2188364863395691,0.8845946788787842
1631192898578,0.6617709994316101,-0.3475311398506164,-0.2582090198993683,0.8845946788787842
1631192898739,0.6617709994316101,-0.3475311398506164,-0.2984263896942138,0.8845946788787842
1631192898895,0.6617709994316101,-0.5547094345092773,-0.3338037431240082,0.8845946788787842
1631192898942,0.6617709994316101,-0.5640153884887695,-0.3642083406448364,0.8845946788787842
1631192899039,0.1118625178933143,-0.5638889670372009,-0.3899364471435547,0.8845946788787842
1631192899101,0.1118625178933143,-0.5539901852607727,-0.4091023504734039,0.8845946788787842
1631192899225,0.1118625178933143,-0.5374807715415955,-0.4212432205677032,0.8845946788787842
1631192899351,0.1118625178933143,-0.5218634009361267,-0.4254285991191864,0.8845946788787842
1631192899522,0.1118625178933143,-0.5129479169845581,-0.4180702567100525,0.8845946788787842
1631192899569,0.1118625178933143,-0.5108140110969543,-0.3977147340774536,0.8845946788787842
1631192899647,0.1118625178933143,-0.5103773474693298,-0.3713551759719848,0.8845946788787842
1631192899741,0.1118625178933143,-0.5029135346412659,-0.3519063889980316,0.8845946788787842
1631192899928,0.1118625178933143,-0.4855173528194427,-0.3466022312641144,0.8845946788787842
1631192900056,0.1118625178933143,-0.4621427059173584,-0.3514519929885864,0.8845946788787842
1631192900197,0.1118625178933143,-0.4360347986221313,-0.3565386831760406,0.8845946788787842
1631192900228,0.1118625178933143,-0.412533700466156,-0.3569580018520355,0.8845946788787842
1631192900259,0.1118625178933143,-0.3976488709449768,-0.3573485910892486,0.8845946788787842
1631192900541,0.1118625178933143,-0.3926984071731567,-0.3643838763236999,0.8845946788787842
1631192900572,0.1118625178933143,-0.3954285383224487,-0.3784834146499634,0.8845946788787842
1631192900619,0.1118625178933143,-0.4013436436653137,-0.3934378027915954,0.8845946788787842
1631192900728,0.1118625178933143,-0.4077559113502502,-0.4015088081359863,0.8845946788787842
1631192900806,0.1118625178933143,-0.4139259457588196,-0.3992548286914825,0.8845946788787842
1631192900868,0.1118625178933143,-0.4189101457595825,-0.3904350399971008,0.8845946788787842
1631192900958,0.1118625178933143,-0.420541375875473,-0.3824538290500641,0.8845946788787842
1631192901083,0.1118625178933143,-0.419597864151001,-0.3821125030517578,0.8845946788787842
1631192901177,0.1118625178933143,-0.420041561126709,-0.3896316289901733,0.8845946788787842
1631192901324,0.1118625178933143,-0.4279593527317047,-0.3985938727855682,0.8845946788787842
1631192901355,0.1118625178933143,-0.4458127617835998,-0.4021160304546356,0.8845946788787842
1631192901527,0.0978261679410934,-0.4723464250564575,-0.4004818797111511,0.8845946788787842
1631192901559,0.104375422000885,-0.504568874835968,-0.3995465040206909,0.8845946788787842
1631192901652,0.0993797853589057,-0.5382848978042603,-0.4027564823627472,0.8845946788787842
1631192901808,0.0926738455891609,-0.5674520134925842,-0.4075108170509338,0.8845946788787842
1631192901906,0.0883128494024276,-0.5865077376365662,-0.409176230430603,0.8845946788787842
1631192902070,0.0877358168363571,-0.593625009059906,-0.4077269732952118,0.8845946788787842
1631192902133,0.0823531970381736,-0.5938499569892883,-0.4081059694290161,0.8845946788787842
1631192902226,0.0765147656202316,-0.5933912992477417,-0.4157255589962005,0.8845946788787842
1631192902257,0.0753050744533538,-0.5975208878517151,-0.4324546456336975,0.8845946788787842
1631192902367,0.0826351791620254,-0.6060810685157776,-0.4574196934700012,0.8845946788787842
1631192902555,0.0980250090360641,-0.6154789924621582,-0.4902972877025604,0.8845946788787842
1631192902617,0.1138360351324081,-0.6195442080497742,-0.5294415950775146,0.8845946788787842
1631192902648,0.136727437376976,-0.6173097491264343,-0.5707110166549683,0.8845946788787842
1631192902837,0.1475671380758285,-0.6144506335258484,-0.6085158586502075,0.8845946788787842
1631192902993,0.1498800218105316,-0.6178359389305115,-0.6392613649368286,0.8845946788787842
1631192903228,0.1495367735624313,-0.6287700533866882,-0.6640846729278564,0.8845946788787842
1631192903368,0.1530230045318603,-0.640918493270874,-0.6874192953109741,0.8845946788787842
1631192903572,0.1588770598173141,-0.6446920037269592,-0.7108278870582581,0.8845946788787842
1631192903775,0.1656080931425094,-0.6349600553512573,-0.7315787672996521,0.8845946788787842
1631192903822,0.1740743517875671,-0.6139546036720276,-0.746401309967041,0.8845946788787842
1631192903884,0.1823699325323104,-0.5867632627487183,-0.7545487284660339,0.8845946788787842
1631192904071,0.1936385780572891,-0.5551782846450806,-0.7562850117683411,0.8845946788787842
1631192904181,0.2574093639850616,-0.3315077722072601,-0.4237587749958038,0.8845946788787842
1631192904212,0.269341766834259,-0.3059447705745697,-0.4204038083553314,0.8845946788787842
1631192904368,0.2909250855445862,-0.2839133739471435,-0.4176771342754364,0.8845946788787842
1631192904415,0.3389359712600708,-0.2709846198558807,-0.4159461259841919,0.8845946788787842
1631192904431,0.4146604835987091,-0.2687117159366607,-0.4142698049545288,0.8845946788787842
1631192904478,0.4979807734489441,-0.2726482450962066,-0.4120857417583465,0.8845946788787842
1631192904743,0.5640378594398499,-0.2758210599422455,-0.4087460339069366,0.8845946788787842
1631192904852,0.6009678244590759,-0.2736669778823852,-0.4013445079326629,0.8845946788787842
1631192904884,0.6150319576263428,-0.2669021189212799,-0.3860866129398346,0.8845946788787842
1631192904915,0.6166545152664185,-0.2592237293720245,-0.3646004498004913,0.8845946788787842
1631192905059,0.6448704600334167,-0.0815824791789054,-0.1387076377868652,0.8845946788787842
1631192905169,0.644700825214386,-0.0792720317840576,-0.1297359764575958,0.8845946788787842
1631192905340,0.6464260220527649,-0.0786185562610626,-0.1250839978456497,0.8845946788787842
1631192905419,0.6521414518356323,-0.0804545506834983,-0.122860662639141,0.8845946788787842
1631192905559,0.6857516765594482,-0.0389013327658176,-0.2545492053031921,0.8845946788787842
1631192905559,0.6687820553779602,0.0391514636576175,-0.1216563433408737,0.8845946788787842
1631192905668,0.7367849946022034,-0.0489886701107025,-0.2541617155075073,0.8845946788787842
1631192905762,0.7815355658531189,-0.0593752674758434,-0.2519318759441376,0.8845946788787842
1631192905793,0.8010083436965942,0.0181091297417879,-0.2459599673748016,0.8845946788787842
1631192905856,0.7900042533874512,0.0140124894678592,-0.2363076359033584,0.8845946788787842
1631192905998,0.7548169493675232,0.0133878076449036,-0.2265526056289672,0.8845946788787842
1631192906016,0.7137993574142456,0.0154911018908023,-0.2212394922971725,0.8845946788787842
1631192906063,0.6833978891372681,0.018027439713478,-0.2231382727622985,0.8845946788787842
1631192906172,0.6681671738624573,0.0193859934806823,-0.2310637831687927,0.8845946788787842
1631192906266,0.6323440074920654,-0.1147833988070488,-0.5294462442398071,0.8845946788787842
1631192906266,0.6632646322250366,0.0188150033354759,-0.2398158758878708,0.8845946788787842
1631192906359,0.6290216445922852,-0.1195663213729858,-0.5324927568435669,0.8845946788787842
1631192906532,0.6232542395591736,-0.0768139511346817,-0.5368307828903198,0.8845946788787842
1631192906625,0.6132978796958923,-0.0352888889610767,-0.5477625131607056,0.8845946788787842
1631192906625,0.5891508460044861,-0.1909229159355163,-0.5626310110092163,0.8845946788787842
1631192906828,0.5358406901359558,-0.1958452016115188,-0.5736053586006165,0.8845946788787842
1631192906922,0.4392527341842651,-0.20310640335083,-0.575534462928772,0.8845946788787842
1631192906984,0.3054863512516022,-0.2096717208623886,-0.57051682472229,0.8845946788787842
1631192907143,0.1706017404794693,-0.3719984292984009,-0.5664143562316895,0.8845946788787842
1631192907252,0.0854268670082092,-0.3749155402183532,-0.5704349279403687,0.8845946788787842
1631192907331,0.0670944303274154,-0.3803644776344299,-0.5821521282196045,0.8845946788787842
1631192907440,0.0502423197031021,-0.389222502708435,-0.5953057408332825,0.8845946788787842
1631192907456,0.0476194135844707,-0.3863804042339325,-0.6024621725082397,0.8845946788787842
1631192907627,0.0515349917113781,-0.3826023638248443,-0.5991090536117554,0.8845946788787842
1631192907737,0.0571243874728679,-0.3730750679969787,-0.5806326866149902,0.8845946788787842
1631192907768,0.0664936155080795,-0.3558858036994934,-0.5435015559196472,0.8845946788787842
1631192907830,0.0755693316459655,-0.3328268826007843,-0.4898601472377777,0.8845946788787842
1631192908002,0.0844883769750595,-0.4581620991230011,-0.4273344576358795,0.8845946788787842
1631192908080,0.0905521437525749,-0.7150453925132751,-0.3621407449245453,0.8845946788787842
1631192908175,0.1054911166429519,-0.7404295206069946,-0.2976585626602173,0.8845946788787842
1631192908268,0.1369153708219528,-0.763776957988739,-0.2396679371595382,0.8845946788787842
1631192908424,0.1864822208881378,-0.77665776014328,-0.1934046000242233,0.8845946788787842
1631192908487,0.1864822208881378,-0.7810389399528503,-0.160637691617012,0.8845946788787842
1631192908580,0.1864822208881378,-0.7810389399528503,-0.1378374546766281,0.8845946788787842
1631192908768,0.1864822208881378,-0.7810389399528503,-0.1203982681035995,0.8845946788787842
1631192908846,0.1864822208881378,-0.7810389399528503,-0.105615809559822,0.8845946788787842
1631192908877,0.1864822208881378,-0.7810389399528503,-0.0930513367056846,0.8845946788787842
1631192908955,0.4650790691375732,-0.2321925461292266,-0.0826867446303367,0.8845946788787842
1631192909084,0.5049161911010742,-0.2383745610713958,-0.075626403093338,0.8845946788787842
1631192909193,0.5049161911010742,-0.2389248758554458,-0.0745616927742958,0.8845946788787842
1631192909271,0.5049161911010742,-0.2389248758554458,-0.0805250257253646,0.8845946788787842
1631192909427,0.5049161911010742,-0.2389248758554458,-0.0913464128971099,0.8845946788787842
1631192909459,0.5049161911010742,-0.2389248758554458,-0.1012587994337081,0.8845946788787842
1631192909552,0.5049161911010742,-0.2389248758554458,-0.1064211726188659,0.8845946788787842
1631192909662,0.5049161911010742,-0.2389248758554458,-0.1093849390745163,0.8845946788787842
1631192909771,0.5049161911010742,-0.2389248758554458,-0.1147088557481765,0.8845946788787842
1631192909992,0.5049161911010742,-0.2389248758554458,-0.1235019266605377,0.8845946788787842
1631192910026,0.5049161911010742,-0.2389248758554458,-0.1328444331884384,0.8845946788787842
1631192910089,0.5049161911010742,-0.2389248758554458,-0.1393733620643615,0.8845946788787842
1631192910198,0.5196811556816101,-0.2432094365358352,-0.1415201723575592,0.8845946788787842
1631192910370,0.5196811556816101,-0.252843290567398,-0.1392054855823516,0.8845946788787842
1631192910448,0.5196811556816101,-0.252843290567398,-0.132456436753273,0.8845946788787842
1631192910542,0.5196811556816101,-0.252843290567398,-0.1229352876543998,0.8845946788787842
1631192910667,0.5196811556816101,-0.252843290567398,-0.1134721636772155,0.8845946788787842
1631192910698,0.5196811556816101,-0.252843290567398,-0.1058258190751075,0.8845946788787842
1631192910823,0.1603477299213409,-0.3150331974029541,-0.1005763709545135,0.8845946788787842
1631192910964,0.1697025299072265,-0.3112007081508636,-0.098876729607582,0.8845946788787842
1631192911123,0.1731446236371994,-0.3077450394630432,-0.1042961925268173,0.8845946788787842
1631192911154,0.171951875090599,-0.3138254880905151,-0.1207607090473175,0.8845946788787842
1631192911185,0.1645682603120803,-0.3301325142383575,-0.1475625485181808,0.8845946788787842
1631192911466,0.1536985784769058,-0.3526951372623443,-0.1777683198451995,0.8845946788787842
1631192911482,0.1491972059011459,-0.3739055395126343,-0.2032236903905868,0.8845946788787842
1631192911591,0.1498100310564041,-0.3905714452266693,-0.2201932966709137,0.8845946788787842
1631192911747,0.1571663618087768,-0.4047929346561432,-0.2313336282968521,0.8845946788787842
1631192911779,0.1660581082105636,-0.4175011813640594,-0.2406950443983078,0.8845946788787842
1631192911810,0.1684800088405609,-0.4272248744964599,-0.2509524226188659,0.8845946788787842
1631192911998,0.1664838045835495,-0.4309069216251373,-0.2636809945106506,0.8845946788787842
1631192912142,0.1575125306844711,-0.4416415095329284,-0.2787613272666931,0.8845946788787842
1631192912220,0.1453050374984741,-0.4495488405227661,-0.2941866517066955,0.8845946788787842
1631192912252,0.1354646682739257,-0.4591838419437408,-0.3081152737140655,0.8845946788787842
1631192912345,0.1325112283229828,-0.4740563035011291,-0.3215150535106659,0.8845946788787842
1631192912439,0.1384712904691696,-0.4932717978954315,-0.3344376385211944,0.8845946788787842
1631192912595,0.1512510031461715,-0.5104315876960754,-0.3425140976905823,0.8845946788787842
1631192912830,0.1661269068717956,-0.5124585032463074,-0.3401966989040375,0.8845946788787842
1631192912923,0.1807741373777389,-0.4925750195980072,-0.3294610679149627,0.8845946788787842
1631192912955,0.1950628608465194,-0.4572312533855438,-0.3181192278861999,0.8845946788787842
1631192913051,0.2047007530927658,-0.4224876761436462,-0.3123161494731903,0.8845946788787842
1631192913098,0.2128578573465347,-0.3986753821372986,-0.313783586025238,0.8845946788787842
1631192913129,0.2170399278402328,-0.3850803077220917,-0.3199309706687927,0.8845946788787842
1631192913286,0.2194276005029678,-0.3765575885772705,-0.3259359002113342,0.8845946788787842
1631192913348,0.2261518090963363,-0.3706847727298736,-0.3267970085144043,0.8845946788787842
1631192913457,0.2333479225635528,-0.3679781854152679,-0.3212386965751648,0.8845946788787842
1631192913582,0.2464169412851333,-0.3669785261154175,-0.313869833946228,0.8845946788787842
1631192913661,0.2635407447814941,-0.3647769093513489,-0.3098248541355133,0.8845946788787842
1631192913786,0.2793454825878143,-0.361424833536148,-0.3116333782672882,0.8845946788787842
1631192913879,0.2872148752212524,-0.3600871562957763,-0.318599671125412,0.8845946788787842
1631192913926,0.2880477905273437,-0.3496391177177429,-0.3296744227409363,0.8845946788787842
1631192914085,0.2841799259185791,-0.3406274914741516,-0.3441163599491119,0.8845946788787842
1631192914257,0.2789219617843628,-0.3379732370376587,-0.3590713441371918,0.8845946788787842
1631192914320,0.2760262489318847,-0.346574604511261,-0.3675245940685272,0.8845946788787842
1631192914429,0.2758327722549438,-0.3676663935184479,-0.3640342354774475,0.8845946788787842
1631192914460,0.2779267430305481,-0.3954735696315765,-0.3485232293605804,0.8845946788787842
1631192914538,0.2781817317008972,-0.4183294475078583,-0.3269576728343963,0.8845946788787842
1631192914648,0.2768456041812897,-0.427924782037735,-0.3087735176086426,0.8845946788787842
1631192914773,0.2742807567119598,-0.427013635635376,-0.3019019365310669,0.8845946788787842
1631192914898,0.2702023684978485,-0.4213772118091583,-0.3085018396377563,0.8845946788787842
1631192915042,0.2741793394088745,-0.4178162813186645,-0.3242609202861786,0.8845946788787842
1631192915073,0.2741793394088745,-0.4178162813186645,-0.3406890332698822,0.8845946788787842
1631192915182,0.2741793394088745,-0.4178162813186645,-0.3526256382465362,0.8845946788787842
1631192915417,0.2741793394088745,-0.4178162813186645,-0.3597376346588135,0.8845946788787842
1631192915510,0.2741793394088745,-0.4178162813186645,-0.363456517457962,0.8845946788787842
1631192915541,0.2741793394088745,-0.3458657562732696,-0.3644076585769653,0.8845946788787842
1631192915667,0.2741793394088745,-0.378133624792099,-0.3640346527099609,0.8845946788787842
1631192915760,0.2741793394088745,-0.4164053499698639,-0.3660166263580322,0.8845946788787842
1631192915791,0.2741793394088745,-0.4522673189640045,-0.3747284114360809,0.8845946788787842
1631192915916,0.2741793394088745,-0.4790851473808288,-0.3917256295681,0.8845946788787842
1631192915995,0.2741793394088745,-0.4929207861423492,-0.4181093573570251,0.8845946788787842
1631192916092,0.2741793394088745,-0.4943239986896515,-0.4518384337425232,0.8845946788787842
1631192916217,0.2741793394088745,-0.4874987602233886,-0.4862546920776367,0.8845946788787842
1631192916404,0.2741793394088745,-0.4787513017654419,-0.512856125831604,0.8845946788787842
1631192916514,0.2844454944133758,-0.4727003574371338,-0.5289543867111206,0.8845946788787842
1631192916623,0.2604778707027435,-0.4695550501346588,-0.5397247076034546,0.8845946788787842
1631192916654,0.2409627884626388,-0.465874582529068,-0.5502002239227295,0.8845946788787842
1631192916685,0.2363732308149337,-0.4685049653053283,-0.5582507848739624,0.8845946788787842
1631192916888,0.2208444476127624,-0.4611680507659912,-0.5583848357200623,0.8845946788787842
1631192916888,0.2214361876249313,-0.4372491836547851,-0.5496003031730652,0.8845946788787842
1631192916998,0.2473557144403457,-0.3967355191707611,-0.5375794768333435,0.8845946788787842
1631192917110,0.2606584131717682,-0.3491815626621246,-0.5298445224761963,0.8845946788787842
1631192917219,0.2619132399559021,-0.3071967959403991,-0.530494749546051,0.8845946788787842
1631192917297,0.2569830417633056,-0.2776038944721222,-0.5390394330024719,0.8845946788787842
1631192917437,0.2506624460220337,-0.2583670914173126,-0.552383303642273,0.8845946788787842
1631192917515,0.2476604580879211,-0.2444677203893661,-0.5633352398872375,0.8845946788787842
1631192917656,0.2497990131378173,-0.2323938012123108,-0.5638680458068848,0.8845946788787842
1631192917765,0.262783944606781,-0.2204152643680572,-0.5505375266075134,0.8845946788787842
1631192917843,0.2669683396816253,-0.2083602398633957,-0.529273509979248,0.8845946788787842
1631192917968,0.2735339105129242,-0.1977386325597763,-0.5094216465950012,0.8845946788787842
1631192918049,0.2783294916152954,-0.1915943026542663,-0.4953208267688751,0.8845946788787842
1631192918096,0.2833702862262726,-0.1920316219329834,-0.4864314496517181,0.8845946788787842
1631192918299,0.2875264286994934,-0.1986900568008422,-0.4799787998199463,0.8845946788787842
1631192918377,0.2890680134296417,-0.2099079936742782,-0.474506139755249,0.8845946788787842
1631192918565,0.2893681526184082,-0.2253258973360061,-0.4651253223419189,0.8845946788787842
1631192918612,0.2897009253501892,-0.2435586899518966,-0.4410617649555206,0.8845946788787842
1631192918674,0.292229950428009,-0.2576466202735901,-0.3907604515552521,0.8845946788787842
1631192918784,0.2977080643177032,-0.257984459400177,-0.3167541623115539,0.8845946788787842
1631192918846,0.3036050796508789,-0.2400760799646377,-0.2393732815980911,0.8845946788787842
1631192919037,0.3088726103305816,-0.2110416442155838,-0.1761395335197448,0.8845946788787842
1631192919209,0.3104437291622162,-0.1819669008255005,-0.1331834495067596,0.8845946788787842
1631192919272,0.3101670742034912,-0.1602105349302292,-0.1062621623277664,0.8845946788787842
1631192919350,0.3105771243572235,-0.1478231549263,-0.0874082893133163,0.8845946788787842
1631192919381,0.3134150803089142,-0.1423251181840896,-0.0703349784016609,0.8845946788787842
1631192919428,0.3191707730293274,-0.1383463442325592,-0.050208743661642,0.8845946788787842
1631192919584,0.3244226276874542,-0.1315740197896957,-0.0250706393271684,0.8845946788787842
1631192919693,0.3271551430225372,-0.1211922690272331,0.0028921461198478,0.8845946788787842
1631192919818,0.323617547750473,-0.1095792800188064,0.0271035991609096,0.8845946788787842
1631192919896,0.3139028251171112,-0.1002346202731132,0.0422320626676082,0.8845946788787842
1631192919990,0.2986326515674591,-0.0947458520531654,0.0462044924497604,0.8845946788787842
1631192920057,0.2829848527908325,-0.0936965867877006,0.039622388780117,0.8845946788787842
1631192920228,0.27083420753479,-0.0991214886307716,0.0233499426394701,0.8845946788787842
1631192920385,0.2627635300159454,-0.1123509854078292,-0.0012538929004222,0.8845946788787842
1631192920416,0.2585949897766113,-0.1320927739143371,-0.0276187658309936,0.8845946788787842
1631192920447,0.2555849254131317,-0.1549219638109207,-0.0456887520849704,0.8845946788787842
1631192920557,0.2530413568019867,-0.1777481436729431,-0.0481856614351272,0.8845946788787842
1631192920728,0.2445764243602752,-0.1994232684373855,-0.03946553170681,0.8845946788787842
1631192920791,0.2294389307498932,-0.2189884185791015,-0.0315344147384166,0.8845946788787842
1631192920853,0.2111727595329284,-0.2332038879394531,-0.0322210192680358,0.8845946788787842
1631192920994,0.194229245185852,-0.2394016832113266,-0.0437262319028377,0.8845946788787842
1631192921091,0.1859612464904785,-0.2376444488763809,-0.063433937728405,0.8845946788787842
1631192921185,0.1869274824857711,-0.2330189198255539,-0.0855239182710647,0.8845946788787842
1631192921294,0.1955254226922989,-0.2312133312225341,-0.1008459478616714,0.8845946788787842
1631192921449,0.202502503991127,-0.2333182543516159,-0.1018877550959587,0.8845946788787842
1631192921622,0.2025989741086959,-0.2370200604200363,-0.0902621448040008,0.8845946788787842
1631192921684,0.1927346587181091,-0.2379398047924041,-0.074864350259304,0.8845946788787842
1631192921714,0.1729064285755157,-0.232247769832611,-0.0642828494310379,0.8845946788787842
1631192921776,0.1499347984790802,-0.2217438668012619,-0.0620019733905792,0.8845946788787842
1631192921886,0.1301540583372116,-0.2117370963096618,-0.0676423609256744,0.8845946788787842
1631192922106,0.1133616343140602,-0.2062533050775528,-0.0799175649881362,0.8845946788787842
1631192922216,0.0945260450243949,-0.2069843262434005,-0.1215114891529083,0.8845946788787842
1631192922226,0.1007422432303428,-0.2061321139335632,-0.0986893326044082,0.8845946788787842
1631192922246,0.0940588861703872,-0.2012082636356353,-0.1427029371261596,0.8845946788787842
1631192922386,0.0938231945037841,-0.1945751160383224,-0.1566497683525085,0.8845946788787842
1631192922478,0.0897437781095504,-0.1922512203454971,-0.1621567606925964,0.8845946788787842
1631192922697,0.0757270753383636,-0.1966204494237899,-0.1644150614738464,0.8845946788787842
1631192922806,0.0480730459094047,-0.2033562809228897,-0.1683758795261383,0.8845946788787842
1631192922867,0.0037118564359843,-0.2045594602823257,-0.1766244173049926,0.8845946788787842
1631192923106,-0.0741671919822692,-0.1846705824136734,-0.2077412903308868,0.8845946788787842
1631192923124,-0.0430620536208152,-0.1970913708209991,-0.1902433335781097,0.8845946788787842
1631192923295,-0.0802846178412437,-0.175297662615776,-0.2262472361326217,0.8845946788787842
1631192923337,-0.0563322715461254,-0.176460787653923,-0.2429792582988739,0.8845946788787842
1631192923349,-0.021208006888628,-0.1884423196315765,-0.2579632401466369,0.8845946788787842
1631192923436,-0.021208006888628,-0.1884423196315765,-0.2743176519870758,0.8845946788787842
1631192923563,-0.021208006888628,-0.1884423196315765,-0.2954631447792053,0.8845946788787842
1631192923593,-0.021208006888628,-0.1884423196315765,-0.321277767419815,0.8845946788787842
1631192923702,-0.021208006888628,-0.1884423196315765,-0.3492575585842132,0.8845946788787842
1631192923858,-0.021208006888628,-0.6153531670570374,-0.3745073080062866,0.8845946788787842
1631192923905,-0.021208006888628,-0.6005239486694336,-0.3908964395523071,0.8845946788787842
1631192924095,0.364538162946701,-0.5755667686462402,-0.3867660760879516,0.8845946788787842
1631192924095,0.4162077009677887,-0.5869797468185425,-0.3938186168670654,0.8845946788787842
1631192924204,0.3249938189983368,-0.561847984790802,-0.3817256987094879,0.8845946788787842
1631192924408,0.3121354579925537,-0.5412412285804749,-0.3870926797389984,0.8845946788787842
1631192924439,0.3547578752040863,-0.5153241157531738,-0.4012629687786102,0.8845946788787842
1631192924641,0.3547578752040863,-0.4889434278011322,-0.4159827828407287,0.8845946788787842
1631192924735,0.3547578752040863,-0.4673817157745361,-0.4246194064617157,0.8845946788787842
1631192924767,0.3547578752040863,-0.4516575634479522,-0.4238387048244476,0.8845946788787842
1631192924845,0.5911564230918884,-0.4378751814365387,-0.4110105633735657,0.8845946788787842
1631192925001,0.6521509289741516,-0.4231006801128387,-0.3876881003379822,0.8845946788787842
1631192925113,0.6521509289741516,-0.3981543183326721,-0.3604311645030975,0.8845946788787842
1631192925129,0.6521509289741516,-0.3752436935901642,-0.3392633497714996,0.8845946788787842
1631192925285,0.6612576246261597,-0.3602133393287658,-0.3283905386924743,0.8845946788787842
1631192925332,0.6781249642372131,-0.3519148826599121,-0.3254101872444153,0.8845946788787842
1631192925519,0.7103570699691772,-0.3408853411674499,-0.3250089585781097,0.8845946788787842
1631192925660,0.7591707706451416,-0.3294950127601623,-0.3271353244781494,0.8845946788787842
1631192925816,0.8236760497093201,-0.3172118663787842,-0.3365918397903442,0.8845946788787842
1631192925894,0.9059224128723145,-0.3052668571472168,-0.3457456529140472,0.8845946788787842
1631192925957,0.9059224128723145,-0.2965013384819031,-0.3470537066459656,0.8845946788787842
1631192925957,0.9059224128723145,-0.2926200926303863,-0.3398600220680237,0.8845946788787842
1631192926084,0.9059224128723145,-0.2932362556457519,-0.3286270797252655,0.8845946788787842
1631192926225,0.9059224128723145,-0.2948802411556244,-0.3161829710006714,0.8845946788787842
1631192926256,0.9059224128723145,-0.294474333524704,-0.2778935134410858,0.8845946788787842
1631192926396,0.9059224128723145,-0.2954019606113434,-0.2512144148349762,0.8845946788787842
1631192926490,0.9059224128723145,-0.3057543337345123,-0.2400881350040435,0.8845946788787842
1631192926615,0.9059224128723145,-0.3057543337345123,-0.2364239394664764,0.8845946788787842
1631192926662,0.9059224128723145,-0.3057543337345123,-0.2309060245752334,0.8845946788787842
1631192926725,0.9059224128723145,-0.3057543337345123,-0.2235434353351593,0.8845946788787842
1631192926865,0.9059224128723145,-0.3057543337345123,-0.2189100533723831,0.8845946788787842
1631192926959,0.9059224128723145,-0.3057543337345123,-0.2241378277540207,0.8845946788787842
1631192927086,0.9059224128723145,-0.3057543337345123,-0.2490505576133728,0.8845946788787842
1631192927180,0.9059224128723145,-0.3057543337345123,-0.27100270986557,0.8845946788787842
1631192927258,0.9059224128723145,-0.3057543337345123,-0.294179767370224,0.8845946788787842
1631192927336,0.9059224128723145,-0.3057543337345123,-0.3172388076782226,0.8845946788787842
1631192927508,0.9059224128723145,-0.3057543337345123,-0.3371514976024627,0.8845946788787842
1631192927602,0.9059224128723145,-0.3057543337345123,-0.3499056398868561,0.8845946788787842
1631192927680,0.9059224128723145,-0.3057543337345123,-0.354168951511383,0.8845946788787842
1631192927774,0.9059224128723145,-0.3057543337345123,-0.3743009269237518,0.8845946788787842
1631192927914,0.9059224128723145,-0.3057543337345123,-0.3943250179290771,0.8845946788787842
1631192927993,0.9059224128723145,-0.3057543337345123,-0.4085689485073089,0.8845946788787842
1631192928104,0.9059224128723145,-0.3057543337345123,-0.4101996719837188,0.8845946788787842
1631192928228,0.9059224128723145,-0.3057543337345123,-0.3921982645988464,0.8845946788787842
1631192928354,0.9059224128723145,-0.3057543337345123,-0.3585507869720459,0.8845946788787842
1631192928447,0.9059224128723145,-0.3057543337345123,-0.3240174353122711,0.8845946788787842
1631192928650,0.9059224128723145,-0.3057543337345123,-0.2913049161434173,0.8845946788787842
1631192928650,0.9059224128723145,-0.3057543337345123,-0.3006798326969147,0.8845946788787842
1631192928775,0.9059224128723145,-0.3057543337345123,-0.2912401258945465,0.8845946788787842
1631192928916,0.9059224128723145,-0.3057543337345123,-0.293150931596756,0.8845946788787842
1631192929013,0.9059224128723145,-0.3057543337345123,-0.2936755120754242,0.8845946788787842
1631192929107,0.9059224128723145,-0.3057543337345123,-0.2929455935955047,0.8845946788787842
1631192929201,0.9059224128723145,-0.3057543337345123,-0.2939862012863159,0.8845946788787842
1631192929310,0.9059224128723145,-0.3057543337345123,-0.2987093329429626,0.8845946788787842
1631192929419,0.2653123438358307,-0.411192923784256,-0.3070899546146393,0.8845946788787842
1631192929560,0.2703221440315246,-0.3580422699451446,-0.3170912861824035,0.8845946788787842
1631192929623,0.2998226284980774,-0.3080366551876068,-0.3288685381412506,0.8845946788787842
1631192929654,0.3292052745819092,-0.2695067226886749,-0.3458327054977417,0.8845946788787842
1631192929763,0.3422619700431824,-0.2463793158531189,-0.3732545673847198,0.8845946788787842
1631192929857,0.3391811847686767,-0.2387558370828628,-0.4106496572494507,0.8845946788787842
1631192929997,0.3257714509963989,-0.2430302053689956,-0.4496388435363769,0.8845946788787842
1631192930013,0.3135475218296051,-0.2534646689891815,-0.4792937636375427,0.8845946788787842
1631192930185,0.3087212145328522,-0.2654353678226471,-0.492659717798233,0.8845946788787842
1631192930263,0.3077999055385589,-0.2766613066196441,-0.4897522032260895,0.8845946788787842
1631192930294,0.3084691762924194,-0.2858631610870361,-0.4743449091911316,0.8845946788787842
1631192930388,0.305865615606308,-0.2929902076721191,-0.4546420872211456,0.8845946788787842
1631192930560,0.2915877401828766,-0.2899349331855774,-0.4368031024932861,0.8845946788787842
1631192930638,0.2873965203762054,-0.2882790267467499,-0.4233162999153137,0.8845946788787842
1631192930732,0.2906321883201599,-0.2939344644546509,-0.4139194190502167,0.8845946788787842
1631192930794,0.2932088673114776,-0.3100959360599518,-0.4063669741153717,0.8845946788787842
1631192930919,0.2859212160110473,-0.3371455073356628,-0.4001204967498779,0.8845946788787842
1631192931061,0.2689979076385498,-0.3737998008728027,-0.3969185054302215,0.8845946788787842
1631192931255,0.2560404241085052,-0.4155539572238922,-0.3971222937107086,0.8845946788787842
1631192931364,0.2621748149394989,-0.4560238718986511,-0.3970592617988586,0.8845946788787842
1631192931396,0.2872086465358734,-0.490159809589386,-0.3921505510807037,0.8845946788787842
1631192931630,0.3215775489807129,-0.5186049342155457,-0.3819995820522308,0.8845946788787842
1631192931693,0.3533384799957275,-0.5447495579719543,-0.3712274730205536,0.8845946788787842
1631192931724,0.3754239380359649,-0.5692275762557983,-0.3651020228862762,0.8845946788787842
1631192931802,0.3891931176185608,-0.5868110060691833,-0.3633126020431518,0.8845946788787842
1631192931852,0.3946099281311035,-0.5933398008346558,-0.3619194626808166,0.8845946788787842
1631192932040,0.3942888081073761,-0.588575541973114,-0.3570242524147033,0.8845946788787842
1631192932259,0.3907926678657532,-0.5783402323722839,-0.3494616150856018,0.8845946788787842
1631192932352,0.3822692036628723,-0.5688767433166504,-0.34259694814682,0.8845946788787842
1631192932524,0.373433768749237,-0.5626323819160461,-0.3398558795452118,0.8845946788787842
1631192932665,0.3682932257652282,-0.5590741038322449,-0.3413728773593902,0.8845946788787842
1631192932696,0.3701135814189911,-0.554999053478241,-0.34437096118927,0.8845946788787842
1631192932711,0.3728054165840149,-0.5469473004341125,-0.3466128706932068,0.8845946788787842
1631192932902,0.3666276633739471,-0.5359590649604797,-0.3484744727611542,0.8845946788787842
1631192932902,0.3477137088775635,-0.5234798192977905,-0.3524714708328247,0.8845946788787842
1631192932933,0.3183956444263458,-0.5073382258415222,-0.3600693345069885,0.8845946788787842
1631192932980,0.2847650647163391,-0.4818930625915527,-0.3699479103088379,0.8845946788787842
1631192933230,0.2505672872066498,-0.4480652213096618,-0.3784886300563812,0.8845946788787842
1631192933324,0.2173297703266143,-0.4146603345870971,-0.3820239007472992,0.8845946788787842
1631192933433,0.1843916475772857,-0.3916298747062683,-0.3817393481731415,0.8845946788787842
1631192933464,0.1537049263715744,-0.3819482028484344,-0.3833757936954498,0.8845946788787842
1631192933527,0.1300716698169708,-0.3823206424713135,-0.3916027247905731,0.8845946788787842
1631192933574,0.1113037168979644,-0.3856685757637024,-0.4048674702644348,0.8845946788787842
1631192933714,0.0979226008057594,-0.3863065242767334,-0.4160729348659515,0.8845946788787842
1631192933808,0.0833038985729217,-0.3825278878211975,-0.4189759194850921,0.8845946788787842
1631192933896,0.0624430105090141,-0.3737984299659729,-0.4159772992134094,0.8845946788787842
1631192933943,0.0334424376487731,-0.3611615002155304,-0.4143089354038238,0.8845946788787842
1631192934099,0.0031275858636945,-0.3485477268695831,-0.4183576703071594,0.8845946788787842
1631192934193,-0.0172202941030263,-0.3410524427890777,-0.4286837577819824,0.8845946788787842
1631192934396,-0.0622980184853076,-0.3497084379196167,-0.4668869376182556,0.8845946788787842
1631192934396,-0.038293782621622,-0.3416028618812561,-0.4450038969516754,0.8845946788787842
1631192934459,-0.0964093059301376,-0.3633166253566742,-0.4920076131820678,0.8845946788787842
1631192934552,-0.1294632703065872,-0.379753053188324,-0.5148543119430542,0.8845946788787842
1631192934724,-0.1525212824344635,-0.3952295780181885,-0.531262993812561,0.8845946788787842
1631192934833,-0.1523949056863784,-0.4058862924575805,-0.5428037643432617,0.8845946788787842
1631192934931,-0.1246997565031051,-0.41036456823349,-0.5536701679229736,0.8845946788787842
1631192935025,-0.1213801503181457,-0.4101887941360473,-0.5658618211746216,0.8845946788787842
1631192935056,-0.1025282591581344,-0.4140675067901611,-0.5797663331031799,0.8845946788787842
1631192935228,-0.0731465741991996,-0.418031632900238,-0.5969951748847961,0.8845946788787842
1631192935290,-0.0345498174428939,-0.4195257127285003,-0.6181259751319885,0.8845946788787842
1631192935415,0.0102656092494726,-0.4200969636440277,-0.6385204195976257,0.8845946788787842
1631192935524,0.0535779669880867,-0.425061970949173,-0.6523655652999878,0.8845946788787842
1631192935587,0.0958749502897262,-0.4375457465648651,-0.656550943851471,0.8845946788787842
1631192935696,0.0958749502897262,-0.4513003230094909,-0.6490102410316467,0.8845946788787842
1631192935852,0.0958749502897262,-0.455731600522995,-0.6282920241355896,0.8845946788787842
1631192935950,0.0958749502897262,-0.4463955163955688,-0.5986422896385193,0.8845946788787842
1631192936012,0.0958749502897262,-0.4296731054782867,-0.567961573600769,0.8845946788787842
1631192936106,0.0958749502897262,-0.4136673510074615,-0.5401379466056824,0.8845946788787842
1631192936184,0.0958749502897262,-0.4169396460056305,-0.5103081464767456,0.8845946788787842
1631192936341,0.0958749502897262,-0.4115739166736603,-0.4705118834972381,0.8845946788787842
1631192936450,0.0958749502897262,-0.4006659090518951,-0.4213069081306457,0.8845946788787842
1631192936512,0.0082575241103768,-0.3931651711463928,-0.3710727095603943,0.8845946788787842
1631192936637,0.0103640779852867,-0.379835307598114,-0.3291190266609192,0.8845946788787842
1631192936700,0.0197449252009391,-0.3726615905761719,-0.3006670475006103,0.8845946788787842
1631192936809,0.0345046296715736,-0.3748511672019958,-0.2852507829666137,0.8845946788787842
1631192936918,0.0579360462725162,-0.3839471042156219,-0.2796141803264618,0.8845946788787842
1631192937043,0.0816762298345565,-0.3953117430210113,-0.2796889543533325,0.8845946788787842
1631192937140,0.0985958129167556,-0.405502587556839,-0.2814136743545532,0.8845946788787842
1631192937218,0.1101081669330596,-0.4128717482089996,-0.2834548950195312,0.8845946788787842
1631192937343,0.1146204099059104,-0.4171395897865295,-0.2867616713047027,0.8845946788787842
1631192937514,0.1137265861034393,-0.4181146621704101,-0.2922837734222412,0.8845946788787842
1631192937577,0.1083985641598701,-0.4175795912742615,-0.3003943860530853,0.8845946788787842
1631192937608,0.1003780290484428,-0.417936235666275,-0.3119484484195709,0.8845946788787842
1631192937733,0.0961077734827995,-0.4181925058364868,-0.3291063606739044,0.8845946788787842
1631192937874,0.0893221795558929,-0.4259504675865173,-0.355030357837677,0.8845946788787842
1631192938050,0.0830299854278564,-0.4387584328651428,-0.3903249204158783,0.8845946788787842
1631192938175,0.0881519988179206,-0.45234414935112,-0.4323674440383911,0.8845946788787842
1631192938284,0.2637816071510315,-0.465719074010849,-0.5149402618408203,0.8845946788787842
1631192938284,0.1454017609357834,-0.4621634185314178,-0.4760974943637848,0.8845946788787842
1631192938315,0.4018746614456177,-0.4614141583442688,-0.5436455011367798,0.8845946788787842
1631192938472,0.509329617023468,-0.4519887566566467,-0.5584798455238342,0.8845946788787842
1631192938612,0.5709678530693054,-0.4422876536846161,-0.5585765838623047,0.8845946788787842
1631192938675,0.5964095592498779,-0.435228556394577,-0.5487669110298157,0.8845946788787842
1631192938847,0.6013984084129333,-0.4331687986850738,-0.536257803440094,0.8845946788787842
1631192938878,0.6014845371246338,-0.4372101128101349,-0.5271226763725281,0.8845946788787842
1631192938972,0.5999782681465149,-0.4458457827568054,-0.5226334929466248,0.8845946788787842
1631192939065,0.5977301597595215,-0.4530980885028839,-0.5190017819404602,0.8845946788787842
1631192939175,0.5952929854393005,-0.45329749584198,-0.5122095942497253,0.8845946788787842
1631192939268,0.5936506986618042,-0.4461227059364319,-0.5031043887138367,0.8845946788787842
1631192939409,0.5934629440307617,-0.4367408752441406,-0.4967162609100342,0.8845946788787842
1631192939487,0.6175787448883057,-0.4285617172718048,-0.4957648515701294,0.8845946788787842
1631192939534,0.6401883959770203,-0.4212130308151245,-0.4974006414413452,0.8845946788787842
1631192939721,0.6462277770042419,-0.4183565378189087,-0.4933002889156341,0.8845946788787842
1631192939753,0.6157667636871338,-0.4219793975353241,-0.4774428009986877,0.8845946788787842
1631192939927,0.5289682149887085,-0.4314598739147186,-0.4675276577472687,0.8845946788787842
1631192939958,0.3805786073207855,-0.444066435098648,-0.4567627012729645,0.8845946788787842
1631192940098,0.1940734386444091,-0.4558536112308502,-0.4499759376049042,0.8845946788787842
1631192940286,0.0271222256124019,-0.4644109606742859,-0.4498099386692047,0.8845946788787842
1631192940364,-0.0670874789357185,-0.465104728937149,-0.4551072418689728,0.8845946788787842
1631192940395,-0.1332104802131652,-0.4519237279891968,-0.4599061012268066,0.8845946788787842
1631192940489,-0.1838445365428924,-0.4252175092697143,-0.4572843313217163,0.8845946788787842
1631192940598,-0.1838445365428924,-0.4252175092697143,-0.3737674355506897,0.8845946788787842
1631192940817,-0.1838445365428924,-0.4252175092697143,-0.3182922899723053,0.8845946788787842
1631192940913,-0.1838445365428924,-0.4252175092697143,-0.2898342609405517,0.8845946788787842
1631192941080,-0.1838445365428924,-0.4252175092697143,-0.2432261556386947,0.8845946788787842
1631192941096,-0.1838445365428924,-0.4252175092697143,-0.2761441469192505,0.8845946788787842
1631192941112,-0.1838445365428924,-0.4252175092697143,-0.1636736094951629,0.8845946788787842
1631192941253,-0.1838445365428924,-0.4252175092697143,-0.0593517832458019,0.8845946788787842
1631192941410,-0.1838445365428924,-0.4252175092697143,0.0280422233045101,0.8845946788787842
1631192941508,-0.1838445365428924,-0.4252175092697143,0.0503038689494133,0.8845946788787842
1631192941553,-0.1838445365428924,-0.4252175092697143,0.0460498034954071,0.8845946788787842
1631192941600,-0.1838445365428924,-0.4252175092697143,0.0334133356809616,0.8845946788787842
1631192941793,-0.1838445365428924,-0.4252175092697143,0.0132205625995993,0.8845946788787842
1631192941793,-0.1838445365428924,-0.4252175092697143,0.0232396628707647,0.8845946788787842
1631192941871,-0.1838445365428924,-0.4252175092697143,-0.0014696847647428,0.8845946788787842
1631192942174,-0.1838445365428924,-0.4252175092697143,-0.0212917868047952,0.8845946788787842
1631192942409,-0.1838445365428924,-0.4252175092697143,-0.0415223240852355,0.8845946788787842
1631192942596,-0.1838445365428924,-0.4252175092697143,-0.0572968050837516,0.8845946788787842
1631192942613,-0.1838445365428924,-0.4252175092697143,-0.0659643039107322,0.8845946788787842
1631192942719,-0.1838445365428924,-0.4252175092697143,-0.070475235581398,0.8845946788787842
1631192942752,-0.1838445365428924,-0.4252175092697143,-0.0828131213784217,0.8845946788787842
1631192942814,-0.1838445365428924,-0.4252175092697143,-0.1173302009701728,0.8845946788787842
1631192943003,-0.1838445365428924,-0.4252175092697143,-0.1772059649229049,0.8845946788787842
1631192943068,-0.1838445365428924,-0.3488970100879669,-0.245972454547882,0.8845946788787842
1631192943104,-0.1838445365428924,-0.3608628809452057,-0.2950383722782135,0.8845946788787842
1631192943161,-0.1838445365428924,-0.3534055352210998,-0.3161464631557464,0.8845946788787842
1631192943242,-0.1838445365428924,-0.3534055352210998,-0.3301246166229248,0.8845946788787842
1631192943305,-0.1838445365428924,-0.3534055352210998,-0.3547274172306061,0.8845946788787842
1631192943367,-0.1838445365428924,-0.3534055352210998,-0.3829637765884399,0.8845946788787842
1631192943507,-0.1838445365428924,-0.3534055352210998,-0.3999919295310974,0.8845946788787842
1631192943600,-0.1838445365428924,-0.3534055352210998,-0.4006180465221405,0.8845946788787842
1631192943737,-0.1838445365428924,-0.3534055352210998,-0.3867976367473602,0.8845946788787842
1631192943784,-0.1838445365428924,-0.3534055352210998,-0.3553763031959533,0.8845946788787842
1631192943831,-0.1838445365428924,-0.3534055352210998,-0.2988178431987762,0.8845946788787842
1631192943989,-0.1838445365428924,-0.3534055352210998,-0.2234945595264434,0.8845946788787842
1631192944068,-0.1838445365428924,-0.3793356418609619,-0.1485837399959564,0.8845946788787842
1631192944175,-0.1838445365428924,-0.4015169143676758,-0.089554376900196,0.8845946788787842
1631192944253,-0.1838445365428924,-0.4015169143676758,-0.0503983981907367,0.8845946788787842
1631192944377,-0.1838445365428924,-0.4015169143676758,-0.0268056616187095,0.8845946788787842
1631192944440,-0.1838445365428924,-0.4015169143676758,-0.0113885765895247,0.8845946788787842
1631192944549,-0.1838445365428924,-0.4015169143676758,0.0018430344061926,0.8845946788787842
1631192944815,-0.1838445365428924,0.0312334541231393,0.0162721499800682,0.8845946788787842
1631192944846,-0.1838445365428924,0.0140360798686742,0.0309574455022811,0.8845946788787842
1631192944987,-0.1838445365428924,-0.0147786093875765,0.0431581921875476,0.8845946788787842
1631192944987,-0.1838445365428924,-0.0547221824526786,0.0511279106140136,0.8845946788787842
1631192945080,-0.1838445365428924,-0.0977340042591095,0.0553202703595161,0.8845946788787842
1631192945283,-0.1838445365428924,-0.134234681725502,0.0550734512507915,0.8845946788787842
1631192945377,-0.1838445365428924,-0.1570533365011215,0.0469273664057254,0.8845946788787842
1631192945502,-0.1838445365428924,-0.1570533365011215,0.0261948779225349,0.8845946788787842
1631192945580,-0.1838445365428924,-0.1570533365011215,-0.0080812415108084,0.8845946788787842
1631192945752,-0.1838445365428924,-0.1570533365011215,-0.0504313819110393,0.8845946788787842
1631192945846,-0.1838445365428924,-0.1570533365011215,-0.0909463912248611,0.8845946788787842
1631192946021,-0.1838445365428924,-0.1570533365011215,-0.1220748275518417,0.8845946788787842
1631192946068,-0.1838445365428924,-0.2048892974853515,-0.1418866068124771,0.8845946788787842
1631192946114,-0.1838445365428924,-0.2443878948688507,-0.15203857421875,0.8845946788787842
1631192946146,-0.1838445365428924,-0.2872974574565887,-0.1565140634775161,0.8845946788787842
1631192946208,-0.1838445365428924,-0.3521050810813904,-0.1612785458564758,0.8845946788787842
1631192946240,-0.1838445365428924,-0.4434144198894501,-0.1677508205175399,0.8845946788787842
1631192946474,-0.1838445365428924,-0.5353059768676758,-0.1720424592494964,0.8845946788787842
1631192946505,-0.1838445365428924,-0.5353059768676758,-0.1692267805337906,0.8845946788787842
1631192946630,-0.1838445365428924,-0.5353059768676758,-0.1610073745250702,0.8845946788787842
1631192946775,-0.1838445365428924,-0.5353059768676758,-0.1447710841894149,0.8845946788787842
1631192946775,-0.1838445365428924,-0.5353059768676758,-0.1521842181682586,0.8845946788787842
1631192946838,0.4233768284320831,-0.2919881343841553,-0.1392337530851364,0.8845946788787842
1631192947043,0.3967609107494354,-0.3292564153671264,-0.1380119025707245,0.8845946788787842
1631192947184,0.3645245134830475,-0.3491107225418091,-0.1432859748601913,0.8845946788787842
1631192947231,0.3322315216064453,-0.3583962321281433,-0.1551941037178039,0.8845946788787842
1631192947309,0.302868902683258,-0.3635112047195434,-0.1727159470319748,0.8845946788787842
1631192947418,0.2791755497455597,-0.3678314685821533,-0.197227194905281,0.8845946788787842
1631192947449,0.264413833618164,-0.3723646402359009,-0.2313816845417022,0.8845946788787842
1631192947637,0.2576110064983368,-0.3770780861377716,-0.2729158997535705,0.8845946788787842
1631192947730,0.2559021115303039,-0.3814401626586914,-0.3124433755874634,0.8845946788787842
1631192947793,0.2525911927223205,-0.3864844143390655,-0.3415899276733398,0.8845946788787842
1631192947871,0.2453894615173339,-0.3948187828063965,-0.3618540465831756,0.8845946788787842
1631192948255,0.2368630468845367,-0.4065918624401092,-0.3806240856647491,0.8845946788787842
1631192948302,0.2158123552799224,-0.4425565600395202,-0.4002278447151184,0.8845946788787842
1631192948427,0.187223419547081,-0.4694325923919678,-0.4178972542285919,0.8845946788787842
1631192948505,0.157904252409935,-0.4769502878189087,-0.4340154826641083,0.8845946788787842
1631192948708,0.1221059113740921,-0.4549091160297394,-0.4717493653297424,0.8845946788787842
1631192948724,0.1345775127410888,-0.4685013592243194,-0.4520549774169922,0.8845946788787842
1631192948771,0.1178046092391014,-0.442913144826889,-0.4875602126121521,0.8845946788787842
1631192948818,0.117795817553997,-0.435137540102005,-0.4949674308300018,0.8845946788787842
1631192948864,0.1206633299589157,-0.4336852729320526,-0.4948711991310119,0.8845946788787842
1631192949164,0.1211614906787872,-0.4389292895793915,-0.4905073344707489,0.8845946788787842
1631192949367,0.1180638149380683,-0.4476179182529449,-0.4832969605922699,0.8845946788787842
1631192949429,0.1179041117429733,-0.4547111392021179,-0.4716165363788605,0.8845946788787842
1631192949461,0.1283068060874939,-0.4575861692428589,-0.4547701478004455,0.8845946788787842
1631192949554,0.1521472930908203,-0.4549760818481445,-0.4355862140655517,0.8845946788787842
1631192949726,0.1784911006689071,-0.4458790421485901,-0.4179040491580963,0.8845946788787842
1631192949726,0.1939152032136917,-0.4331742227077484,-0.4022158682346344,0.8845946788787842
1631192949882,0.1970715522766113,-0.4236319661140442,-0.3879795968532562,0.8845946788787842
1631192949961,0.1921755075454712,-0.422628790140152,-0.3775040805339813,0.8845946788787842
1631192949996,0.1854484975337982,-0.4285352826118469,-0.374411404132843,0.8845946788787842
1631192950058,0.1859166771173477,-0.4348424673080444,-0.3777843415737152,0.8845946788787842
1631192950152,0.2095399349927902,-0.4320605099201202,-0.3847352862358093,0.8845946788787842
1631192950152,0.1952807605266571,-0.4357567429542541,-0.3827613592147827,0.8845946788787842
1631192950215,0.2237109243869781,-0.4266693890094757,-0.3819428384304046,0.8845946788787842
1631192950340,0.2333692461252212,-0.4203400015830993,-0.3749493360519409,0.8845946788787842
1631192950449,0.2399732619524002,-0.4137336015701294,-0.3659030795097351,0.8845946788787842
1631192950543,0.2411753982305526,-0.4089186489582062,-0.3590116202831268,0.8845946788787842
1631192950810,0.2320516407489776,-0.4075874090194702,-0.3587076961994171,0.8845946788787842
1631192950841,0.2074296921491623,-0.4084875881671905,-0.3660977482795715,0.8845946788787842
1631192950841,0.1696158945560455,-0.4092030823230743,-0.376113623380661,0.8845946788787842
1631192950982,0.1312248706817627,-0.4089462757110595,-0.3820040822029114,0.8845946788787842
1631192951078,0.1092260554432869,-0.4088811576366424,-0.3843805193901062,0.8845946788787842
1631192951109,0.1078839600086212,-0.4081480801105499,-0.3891921043395996,0.8845946788787842
1631192951234,0.1171339824795723,-0.4052293598651886,-0.3989048898220062,0.8845946788787842
1631192951343,0.1224798336625099,-0.402220755815506,-0.4065617322921753,0.8845946788787842
1631192951484,0.112394168972969,-0.4046333432197571,-0.405688464641571,0.8845946788787842
1631192951515,0.0857319831848144,-0.4173138737678528,-0.39793661236763,0.8845946788787842
1631192951609,0.0488457083702087,-0.4380125403404236,-0.3903558552265167,0.8845946788787842
1631192951781,0.0112930834293365,-0.4587723910808563,-0.3883775174617767,0.8845946788787842
1631192951921,-0.0206765718758106,-0.4741727411746979,-0.3922663629055023,0.8845946788787842
1631192952112,-0.0436534099280834,-0.4832936525344848,-0.3989896178245544,0.8845946788787842
1631192952112,-0.056935716420412,-0.4889714419841766,-0.4042197465896606,0.8845946788787842
1631192952175,-0.0619697943329811,-0.493609756231308,-0.405970811843872,0.8845946788787842
1631192952237,-0.0589139610528945,-0.4993091225624084,-0.4076526463031769,0.8845946788787842
1631192952362,-0.0542560964822769,-0.5072598457336426,-0.41690194606781,0.8845946788787842
1631192952503,-0.0509898401796817,-0.5147072076797485,-0.439659982919693,0.8845946788787842
1631192952565,-0.0548421330749988,-0.5181436538696289,-0.4720441699028015,0.8845946788787842
1631192952659,-0.067674420773983,-0.5190032124519348,-0.4993701875209808,0.8845946788787842
1631192952784,-0.0852808505296707,-0.5217972993850708,-0.5043700337409973,0.8845946788787842
1631192952862,-0.1006009802222251,-0.5293532609939575,-0.4879782795906067,0.8845946788787842
1631192952971,-0.107053130865097,-0.5391678810119629,-0.4670379757881164,0.8845946788787842
1631192953096,-0.1057169139385223,-0.5471455454826355,-0.4568422436714172,0.8845946788787842
1631192953190,-0.1025946885347366,-0.5532128214836121,-0.4603003263473511,0.8845946788787842
1631192953330,-0.1034458801150322,-0.5609310865402222,-0.4698052704334259,0.8845946788787842
1631192953362,-0.1065955534577369,-0.5703263282775879,-0.4775411784648895,0.8845946788787842
1631192953487,-0.1108037158846855,-0.5774807333946228,-0.4793958663940429,0.8845946788787842
1631192953596,-0.1078593805432319,-0.5774980187416077,-0.4733446538448334,0.8845946788787842
1631192953815,-0.0892896279692649,-0.5679007768630981,-0.4593194127082824,0.8845946788787842
1631192953908,-0.0579331293702125,-0.5457865595817566,-0.4406695365905761,0.8845946788787842
1631192953987,0.0122951567173004,-0.475017637014389,-0.4044115543365478,0.8845946788787842
1631192953987,-0.0211589355021715,-0.5116713643074036,-0.4216529726982116,0.8845946788787842
1631192954114,0.0376042202115058,-0.4463594257831573,-0.38896444439888,0.8845946788787842
1631192954177,0.0576755404472351,-0.426874428987503,-0.374626874923706,0.8845946788787842
1631192954317,0.0785974413156509,-0.4086341559886932,-0.364740639925003,0.8845946788787842
1631192954411,0.1037948802113533,-0.3849392533302307,-0.3647430837154388,0.8845946788787842
1631192954583,0.1278301626443863,-0.3591869175434112,-0.3759709298610687,0.8845946788787842
1631192954645,0.1442640870809555,-0.3393146097660064,-0.3910019099712372,0.8845946788787842
1631192954677,0.1496305614709854,-0.3287687003612518,-0.3982481956481933,0.8845946788787842
1631192954880,0.1480516791343689,-0.3243220448493957,-0.3944156765937805,0.8845946788787842
1631192954911,0.1452960520982742,-0.3208506107330322,-0.3870041966438293,0.8845946788787842
1631192955052,0.1456895619630813,-0.3165891468524933,-0.3845255374908447,0.8845946788787842
1631192955083,0.1508463025093078,-0.313851535320282,-0.3895298838615417,0.8845946788787842
1631192955208,0.157231330871582,-0.3166199624538421,-0.3995172679424286,0.8845946788787842
1631192955270,0.1566143482923507,-0.3298432528972626,-0.40992271900177,0.8845946788787842
1631192955442,0.1459206491708755,-0.3551803231239319,-0.417879581451416,0.8845946788787842
1631192955520,0.1249598860740661,-0.388716846704483,-0.4226719737052917,0.8845946788787842
1631192955645,0.1003916263580322,-0.421473354101181,-0.4267929196357727,0.8845946788787842
1631192955708,0.0768233686685562,-0.4467040300369262,-0.4358535706996918,0.8845946788787842
1631192955817,0.052537452429533,-0.4661884605884552,-0.4527709186077118,0.8845946788787842
1631192955974,0.0249990224838256,-0.4840304851531982,-0.4712383151054382,0.8845946788787842
1631192956083,-0.000957794021815,-0.4991532564163208,-0.4802089929580688,0.8845946788787842
1631192956208,-0.0179815907031297,-0.505852997303009,-0.4771812260150909,0.8845946788787842
1631192956379,-0.0072780302725732,-0.4913898408412933,-0.4675876200199127,0.8845946788787842
1631192956379,-0.0199268497526645,-0.5020545721054077,-0.4711540639400482,0.8845946788787842
1631192956442,0.0109496209770441,-0.4792681038379669,-0.4626181125640869,0.8845946788787842
1631192956551,0.0266992822289466,-0.4688646495342254,-0.4506785571575165,0.8845946788787842
1631192956598,0.0313763134181499,-0.4601046442985534,-0.4346645772457123,0.8845946788787842
1631192956739,0.0145337292924523,-0.4511134028434753,-0.4229519367218017,0.8845946788787842
1631192956848,-0.0097970822826027,-0.4364258944988251,-0.4178932309150696,0.8845946788787842
1631192956942,-0.0304796174168586,-0.4258643686771393,-0.4156228005886078,0.8845946788787842
1631192957082,-0.0371345989406108,-0.4149978160858154,-0.4160939455032348,0.8845946788787842
1631192957098,-0.0301970820873975,-0.4037007093429565,-0.4135629534721374,0.8845946788787842
1631192957208,-0.0182623472064733,-0.3915270566940307,-0.4068918824195862,0.8845946788787842
1631192957348,-0.0079036792740225,-0.3801515102386474,-0.3953153491020202,0.8845946788787842
1631192957473,-6.54665700494661e-06,-0.3734498620033264,-0.3806484937667846,0.8845946788787842
1631192957583,0.0069546131417155,-0.3725524842739105,-0.345473974943161,0.8845946788787842
1631192957708,0.0196100119501352,-0.3743950426578522,-0.3130213022232055,0.8845946788787842
1631192957739,0.043975293636322,-0.3741917610168457,-0.2888240814208984,0.8845946788787842
1631192957848,0.043975293636322,-0.3713904619216919,-0.2743891179561615,0.8845946788787842
1631192958020,0.043975293636322,-0.3464957177639007,-0.2665174305438995,0.8845946788787842
1631192958035,0.043975293636322,-0.3574413359165191,-0.2597832977771759,0.8845946788787842
1631192958147,0.043975293636322,-0.3876851499080658,-0.2535417079925537,0.8845946788787842
1631192958319,0.043975293636322,-0.4226451814174652,-0.2487765699625015,0.8845946788787842
1631192958350,0.1524097323417663,-0.4688253104686737,-0.2484980076551437,0.8845946788787842
1631192958538,0.1325274854898452,-0.4887675046920776,-0.2524519264698028,0.8845946788787842
1631192958647,0.1325274854898452,-0.5039758086204529,-0.2663421034812927,0.8845946788787842
1631192958678,0.1325274854898452,-0.5128800868988037,-0.2781243622303009,0.8845946788787842
1631192958741,0.1325274854898452,-0.5191612243652344,-0.2781243622303009,0.8845946788787842
1631192958866,0.1325274854898452,-0.522540271282196,-0.2781243622303009,0.8845946788787842
1631192958991,0.1325274854898452,-0.5245856046676636,-0.2781243622303009,0.8845946788787842
1631192959056,0.1325274854898452,-0.5281899571418762,-0.2869189083576202,0.8845946788787842
1631192959212,0.1325274854898452,-0.5281899571418762,-0.3009125292301178,0.8845946788787842
1631192959306,0.1325274854898452,-0.5281899571418762,-0.3138402700424194,0.8845946788787842
1631192959415,0.1325274854898452,-0.5281899571418762,-0.3219247162342071,0.8845946788787842
1631192959478,0.1325274854898452,-0.5630038976669312,-0.3288406729698181,0.8845946788787842
1631192959681,0.119019329547882,-0.5802732110023499,-0.3448844254016876,0.8845946788787842
1631192959712,0.119019329547882,-0.5831122994422913,-0.3910336792469024,0.8845946788787842
1631192959821,0.119019329547882,-0.5800268054008484,-0.4361637234687805,0.8845946788787842
1631192959915,0.119019329547882,-0.5761849880218506,-0.4628689289093017,0.8845946788787842
1631192960149,0.119019329547882,-0.5715513825416565,-0.470493882894516,0.8845946788787842
1631192960149,0.119019329547882,-0.5645315051078796,-0.4767361581325531,0.8845946788787842
1631192960274,0.119019329547882,-0.5605304837226868,-0.4964714646339416,0.8845946788787842
1631192960368,0.119019329547882,-0.5605304837226868,-0.5167886018753052,0.8845946788787842
1631192960462,0.119019329547882,-0.5605304837226868,-0.5340715050697327,0.8845946788787842
1631192960478,0.119019329547882,-0.5605304837226868,-0.5370566248893738,0.8845946788787842
1631192960571,0.119019329547882,-0.5605304837226868,-0.5206007957458496,0.8845946788787842
1631192960728,0.119019329547882,-0.5605304837226868,-0.4943516552448272,0.8845946788787842
1631192960759,0.119019329547882,-0.5605304837226868,-0.4722667932510376,0.8845946788787842
1631192960884,0.119019329547882,-0.5605304837226868,-0.4605975747108459,0.8845946788787842
1631192961024,0.119019329547882,-0.5605304837226868,-0.4575419425964355,0.8845946788787842
1631192961118,0.119019329547882,-0.5605304837226868,-0.4586792886257171,0.8845946788787842
1631192961196,0.119019329547882,-0.5605304837226868,-0.4608490169048309,0.8845946788787842
1631192961305,0.119019329547882,-0.5605304837226868,-0.4662840962409973,0.8845946788787842
1631192961430,0.119019329547882,-0.5605304837226868,-0.4757978916168213,0.8845946788787842
1631192961493,0.119019329547882,-0.5605304837226868,-0.4851204454898834,0.8845946788787842
1631192961634,0.119019329547882,-0.5605304837226868,-0.4881968200206756,0.8845946788787842
1631192961696,0.119019329547882,-0.5605304837226868,-0.4837605655193329,0.8845946788787842
1631192961930,0.119019329547882,-0.5605304837226868,-0.4764231741428375,0.8845946788787842
1631192961962,0.119019329547882,-0.5605304837226868,-0.4729803502559662,0.8845946788787842
1631192961993,0.119019329547882,-0.5605304837226868,-0.4781933426856994,0.8845946788787842
1631192962090,0.119019329547882,-0.5605304837226868,-0.4962159991264343,0.8845946788787842
1631192962231,0.119019329547882,-0.3223899006843567,-0.5248435735702515,0.8845946788787842
1631192962324,0.119019329547882,-0.3175545334815979,-0.5538051724433899,0.8845946788787842
1631192962434,0.0743284299969673,-0.3118717670440674,-0.5710057616233826,0.8845946788787842
1631192962543,0.125631645321846,-0.3121644258499145,-0.5724899172782898,0.8845946788787842
1631192962637,0.1534114629030227,-0.3203137218952179,-0.5652092695236206,0.8845946788787842
1631192962699,0.1584224253892898,-0.3329309523105621,-0.5554746389389038,0.8845946788787842
1631192962842,0.151964321732521,-0.3476875126361847,-0.5465596318244934,0.8845946788787842
1631192962983,0.1401862949132919,-0.3633350431919098,-0.5408159494400024,0.8845946788787842
1631192963124,0.1285265982151031,-0.3796014487743377,-0.5419123768806458,0.8845946788787842
1631192963139,0.1157177835702896,-0.3968978822231293,-0.5496709942817688,0.8845946788787842
1631192963217,0.1039811298251152,-0.4154935777187347,-0.5576003193855286,0.8845946788787842
1631192963311,0.0921836867928505,-0.4351416230201721,-0.5554726719856262,0.8845946788787842
1631192963405,0.0789913609623909,-0.4676501750946045,-0.5382513403892517,0.8845946788787842
1631192963577,0.0789913609623909,-0.4797375500202179,-0.510766863822937,0.8845946788787842
1631192963670,0.085978053510189,-0.490897536277771,-0.4807262718677521,0.8845946788787842
1631192963749,0.0939593613147735,-0.5067769885063171,-0.4518652260303497,0.8845946788787842
1631192963876,0.0942246690392494,-0.5317429900169373,-0.4238699972629547,0.8845946788787842
1631192963923,0.0808426067233085,-0.5663970708847046,-0.3989598453044891,0.8845946788787842
1631192964032,0.0507381744682788,-0.6062135696411133,-0.3816993236541748,0.8845946788787842
1631192964142,0.0133952535688877,-0.6445207595825195,-0.3744926750659942,0.8845946788787842
1631192964251,-0.0182936508208513,-0.6811352372169495,-0.3741823434829712,0.8845946788787842
1631192964345,-0.0424622669816017,-0.7177149653434753,-0.3731561005115509,0.8845946788787842
1631192964486,-0.0590984597802162,-0.7569375038146973,-0.3657605051994324,0.8845946788787842
1631192964517,-0.0771817788481712,-0.800679624080658,-0.350528210401535,0.8845946788787842
1631192964720,-0.0771817788481712,-0.800679624080658,-0.3315315842628479,0.8845946788787842
1631192964767,-0.0771817788481712,-0.800679624080658,-0.3152869641780853,0.8845946788787842
1631192964911,-0.0771817788481712,-0.800679624080658,-0.3050054311752319,0.8845946788787842
1631192965021,-0.0771817788481712,-0.800679624080658,-0.2951265275478363,0.8845946788787842
1631192965224,-0.0028576510958373,-0.2898547351360321,-0.2508148849010467,0.8845946788787842
1631192965286,-0.0213188491761684,-0.3079149127006531,-0.2267672568559646,0.8845946788787842
1631192965349,-0.0324971415102481,-0.3184014558792114,-0.2122368216514587,0.8845946788787842
1631192965443,-0.0199091844260692,-0.3246542513370514,-0.2047956585884094,0.8845946788787842
1631192965568,0.0219298060983419,-0.3273824453353882,-0.1990731358528137,0.8845946788787842
1631192965646,0.0777538269758224,-0.3263130784034729,-0.1939242035150528,0.8845946788787842
1631192965818,0.1240108683705329,-0.3202596008777618,-0.1908838748931884,0.8845946788787842
1631192965911,0.1510237753391266,-0.3088206946849823,-0.1887222379446029,0.8845946788787842
1631192965989,0.1592840701341629,-0.2965876758098602,-0.1844475418329239,0.8845946788787842
1631192966036,0.1566519290208816,-0.2886722385883331,-0.1773693561553955,0.8845946788787842
1631192966211,0.1544050425291061,-0.2869510054588318,-0.1687856018543243,0.8845946788787842
1631192966242,0.1564161777496338,-0.2945716679096222,-0.1581709533929824,0.8845946788787842
1631192966367,0.1695851534605026,-0.3017476499080658,-0.1463430970907211,0.8845946788787842
1631192966524,0.1805897951126098,-0.3001668751239776,-0.1404891610145568,0.8845946788787842
1631192966601,0.186127483844757,-0.2899543642997741,-0.1478883028030395,0.8845946788787842
1631192966679,0.189195305109024,-0.2774785757064819,-0.1683396697044372,0.8845946788787842
1631192966869,0.1912740617990493,-0.2681897282600403,-0.1930633634328842,0.8845946788787842
1631192966916,0.191345989704132,-0.2633480131626129,-0.2147844284772873,0.8845946788787842
1631192967010,0.1999399960041046,-0.2565825581550598,-0.2336704283952713,0.8845946788787842
1631192967103,0.1969081461429596,-0.2501738667488098,-0.2517461478710174,0.8845946788787842
1631192967275,0.1786706149578094,-0.2450564950704574,-0.26656374335289,0.8845946788787842
1631192967385,0.1508096754550933,-0.2433783411979675,-0.2763466835021972,0.8845946788787842
1631192967478,0.1237602233886718,-0.2480093091726303,-0.2855186760425567,0.8845946788787842
1631192967541,0.1085303574800491,-0.2573842108249664,-0.2986913323402405,0.8845946788787842
1631192967572,0.1065891683101654,-0.2655470967292785,-0.3168579339981079,0.8845946788787842
1631192967775,0.1040311157703399,-0.2658340632915497,-0.338404506444931,0.8845946788787842
1631192967931,0.0892201885581016,-0.2572076320648193,-0.3646445870399475,0.8845946788787842
1631192967962,0.0568116791546344,-0.2478930801153183,-0.3982161283493042,0.8845946788787842
1631192968136,0.0069683231413364,-0.246539294719696,-0.4367493689060211,0.8845946788787842
1631192968199,0.0069683231413364,-0.246539294719696,-0.4749384820461273,0.8845946788787842
1631192968261,0.0069683231413364,-0.246539294719696,-0.5086669921875,0.8845946788787842
1631192968355,0.0069683231413364,-0.246539294719696,-0.5376225113868713,0.8845946788787842
1631192968449,0.0069683231413364,-0.246539294719696,-0.5634031891822815,0.8845946788787842
1631192968543,0.0069683231413364,-0.3915210664272308,-0.5868819952011108,0.8845946788787842
1631192968636,0.0069683231413364,-0.4048339426517486,-0.6035899519920349,0.8845946788787842
1631192968778,0.1424549669027328,-0.4220631122589111,-0.6062775254249573,0.8845946788787842
1631192968812,0.1257603615522384,-0.4438423216342926,-0.5917551517486572,0.8845946788787842
1631192968952,0.0914497002959251,-0.4688159525394439,-0.5670431852340698,0.8845946788787842
1631192969046,0.0517981499433517,-0.4948517382144928,-0.5457040071487427,0.8845946788787842
1631192969108,0.0185440015047788,-0.5190297961235046,-0.5363097190856934,0.8845946788787842
1631192969233,0.0007709543569944,-0.5390890836715698,-0.5385597944259644,0.8845946788787842
1631192969343,-0.0045654284767806,-0.5525567531585693,-0.5451659560203552,0.8845946788787842
1631192969452,-0.0018774939235299,-0.556360125541687,-0.5443075299263,0.8845946788787842
1631192969546,0.007179838605225,-0.5488384962081909,-0.527240514755249,0.8845946788787842
1631192969609,0.0182995907962322,-0.5307626128196716,-0.4948637187480926,0.8845946788787842
1631192969733,0.0311035569757223,-0.5134090185165405,-0.4573811590671539,0.8845946788787842
1631192969811,0.0437847226858139,-0.4859116077423095,-0.4242666363716125,0.8845946788787842
1631192969968,0.0591553673148155,-0.4505004584789276,-0.3997493386268616,0.8845946788787842
1631192970015,0.0758098512887954,-0.4150295257568359,-0.3845930397510528,0.8845946788787842
1631192970171,0.0905394852161407,-0.3846047520637512,-0.3798881769180298,0.8845946788787842
1631192970311,0.1003483384847641,-0.3594086468219757,-0.385363221168518,0.8845946788787842
1631192970342,0.1057880595326423,-0.3360782563686371,-0.3978792428970337,0.8845946788787842
1631192970452,0.1103183105587959,-0.3134130835533142,-0.412317544221878,0.8845946788787842
1631192970577,0.1184240952134132,-0.2930823862552643,-0.4252609312534332,0.8845946788787842
1631192970649,0.131059393286705,-0.278150737285614,-0.4357920289039612,0.8845946788787842
1631192970820,0.1458822935819625,-0.2691190540790558,-0.4430238306522369,0.8845946788787842
1631192970852,0.1611475199460983,-0.2643453478813171,-0.4462361633777618,0.8845946788787842
1631192971022,0.1768760681152343,-0.2623419463634491,-0.4490928947925567,0.8845946788787842
1631192971069,0.1891165822744369,-0.2634322047233581,-0.4588289856910705,0.8845946788787842
1631192971100,0.1936809569597244,-0.2675352990627289,-0.4808393120765686,0.8845946788787842
1631192971238,0.195307195186615,-0.2734890878200531,-0.5115395188331604,0.8845946788787842
1631192971379,0.1956515312194824,-0.2788776457309723,-0.5431687235832214,0.8845946788787842
1631192971441,0.1918651610612869,-0.2830857336521148,-0.568775475025177,0.8845946788787842
1631192971567,0.179360955953598,-0.2863790988922119,-0.584398090839386,0.8845946788787842
1631192971643,0.160160094499588,-0.289212554693222,-0.5867303609848022,0.8845946788787842
1631192971799,0.1439719647169113,-0.2886153161525726,-0.5727120041847229,0.8845946788787842
1631192971843,0.1450775414705276,-0.2805071175098419,-0.5464692711830139,0.8845946788787842
1631192971968,0.1654252558946609,-0.2626537084579468,-0.5153654217720032,0.8845946788787842
1631192972032,0.195001021027565,-0.2379561513662338,-0.4829969108104706,0.8845946788787842
1631192972207,0.2230606377124786,-0.2109106332063675,-0.4489933550357818,0.8845946788787842
1631192972300,0.2421288788318634,-0.1859758645296096,-0.4159108102321625,0.8845946788787842
1631192972435,0.2421288788318634,-0.1549586206674575,-0.376308411359787,0.8845946788787842
1631192972435,0.2421288788318634,-0.1666426956653595,-0.3904248178005218,0.8845946788787842
1631192972576,0.2421288788318634,-0.150428906083107,-0.3707129657268524,0.8845946788787842
1631192972677,0.2421288788318634,-0.1520364135503769,-0.3685223162174225,0.8845946788787842
1631192972843,0.0800705477595329,-0.1601691246032714,-0.3661485314369201,0.8845946788787842
1631192972934,0.0991191267967224,-0.1754944175481796,-0.3619405329227447,0.8845946788787842
1631192973013,0.12323809415102,-0.1954641938209533,-0.3551286160945892,0.8845946788787842
1631192973050,0.1493231803178787,-0.2141217738389969,-0.347295880317688,0.8845946788787842
1631192973168,0.1755777895450592,-0.2273184210062027,-0.3430912494659424,0.8845946788787842
1631192973310,0.1998471021652221,-0.2384116202592849,-0.3484450876712799,0.8845946788787842
1631192973369,0.2172360718250274,-0.2555783689022064,-0.3642321228981018,0.8845946788787842
1631192973476,0.2270238250494003,-0.2834522724151611,-0.3872387111186981,0.8845946788787842
1631192973567,0.2283292412757873,-0.3182993829250335,-0.4133472740650177,0.8845946788787842
1631192973677,0.223258763551712,-0.3521239459514618,-0.4397822022438049,0.8845946788787842
1631192973802,0.2148197144269943,-0.3807420134544372,-0.4617792069911957,0.8845946788787842
1631192973907,0.2018904238939285,-0.4054907858371734,-0.4712410569190979,0.8845946788787842
1631192974001,0.1936252266168594,-0.4279139339923858,-0.4654261469841003,0.8845946788787842
1631192974063,0.1817900389432907,-0.4467121362686157,-0.4523912966251373,0.8845946788787842
1631192974204,0.1703482121229171,-0.4596728384494781,-0.4421443343162536,0.8845946788787842
1631192974374,0.1580533981323242,-0.4650972783565521,-0.4400385618209839,0.8845946788787842
1631192974436,0.1409530192613601,-0.4618668258190155,-0.446198970079422,0.8845946788787842
1631192974545,0.1181351169943809,-0.4545831680297851,-0.4583348631858825,0.8845946788787842
1631192974671,0.089989461004734,-0.4519652128219604,-0.469782680273056,0.8845946788787842
1631192974764,0.0603786073625087,-0.4578229784965515,-0.4698959589004516,0.8845946788787842
1631192974903,0.0302673727273941,-0.4681931138038635,-0.4500404000282287,0.8845946788787842
1631192974908,0.0010526410769671,-0.4770730137825012,-0.4152409136295318,0.8845946788787842
1631192975095,-0.0275255236774683,-0.4856499433517456,-0.3798397481441498,0.8845946788787842
1631192975124,-0.0541020929813385,-0.499654620885849,-0.3553871214389801,0.8845946788787842
1631192975192,-0.0750648081302642,-0.5198701024055481,-0.3453993797302246,0.8845946788787842
1631192975286,-0.0928678810596466,-0.5379996299743652,-0.3461793959140777,0.8845946788787842
1631192975418,-0.1062382906675338,-0.5441464185714722,-0.3516895174980163,0.8845946788787842
1631192975480,-0.1163146942853927,-0.5368739366531372,-0.3584792613983154,0.8845946788787842
1631192975621,-0.1227987855672836,-0.5224411487579346,-0.3641122281551361,0.8845946788787842
1631192975761,-0.1205560490489006,-0.5065284967422485,-0.3664005696773529,0.8845946788787842
1631192975855,-0.1086250767111778,-0.4926888048648834,-0.3646749258041382,0.8845946788787842
1631192975902,-0.0903100743889808,-0.486452966928482,-0.3599733710289001,0.8845946788787842
1631192976069,-0.071924090385437,-0.4902878105640411,-0.3538960218429565,0.8845946788787842
1631192976162,-0.0598869919776916,-0.4998327493667602,-0.3490279018878937,0.8845946788787842
1631192976413,-0.0612999685108661,-0.5082761645317078,-0.348347932100296,0.8845946788787842
1631192976444,-0.1005639433860778,-0.5177286863327026,-0.3769568502902984,0.8845946788787842
1631192976444,-0.0761768966913223,-0.5134909749031067,-0.3571289777755737,0.8845946788787842
1631192976522,-0.1267041712999344,-0.5199580788612366,-0.4014852643013,0.8845946788787842
1631192976693,-0.1447731405496597,-0.5162115097045898,-0.4188300669193268,0.8845946788787842
1631192976740,-0.1485054343938827,-0.5067673921585083,-0.4214605093002319,0.8845946788787842
1631192976865,-0.1384105086326599,-0.4950512647628784,-0.4135694503784179,0.8845946788787842
1631192976959,-0.1174616292119026,-0.4831995069980621,-0.4038880467414856,0.8845946788787842
1631192977053,-0.0903729200363159,-0.4699019491672516,-0.3952386379241943,0.8845946788787842
1631192977162,-0.0636576116085052,-0.4525253772735595,-0.3847455084323883,0.8845946788787842
1631192977272,-0.0456931069493293,-0.4282942116260528,-0.3710968792438507,0.8845946788787842
1631192977360,-0.041904903948307,-0.3940225839614868,-0.3574621677398681,0.8845946788787842
1631192977531,-0.0502472892403602,-0.3496289849281311,-0.3470273911952972,0.8845946788787842
1631192977531,-0.0647592395544052,-0.3035190999507904,-0.3400985598564148,0.8845946788787842
1631192977625,-0.0801367685198783,-0.2659848928451538,-0.3328560292720794,0.8845946788787842
1631192977822,-0.0922372192144393,-0.2417762577533722,-0.324449360370636,0.8845946788787842
1631192977922,-0.1077966839075088,-0.2199492007493972,-0.3086605072021484,0.8845946788787842
1631192977922,-0.1014774516224861,-0.2284045815467834,-0.3158738315105438,0.8845946788787842
1631192978094,-0.1133584380149841,-0.2133266627788543,-0.3036373853683471,0.8845946788787842
