timestamp,TP9,AF7,AF8,TP10
1629370423025,0.5637001395225525,0.2361906468868255,0.35233935713768,0.3205667436122894
1629370423200,0.5746909379959106,0.2310312539339065,0.3486134111881256,0.5591206550598145
1629370423231,0.5699170231819153,0.2444921731948852,0.350336879491806,0.5591206550598145
1629370423280,0.557134211063385,0.2568484842777252,0.3545666933059692,0.5591206550598145
1629370423401,0.557134211063385,0.2604174315929413,0.355434387922287,0.5591206550598145
1629370423663,0.557134211063385,0.2534253597259521,0.3462498188018799,0.5591206550598145
1629370423733,0.5518072843551636,0.2404670715332031,0.3220799565315246,0.5591206550598145
1629370423804,0.5487794876098633,0.2281829863786697,0.2833548188209533,0.5608538389205933
1629370423854,0.545039713382721,0.2279615253210067,0.2384369969367981,0.5608600974082947
1629370423921,0.5370813608169556,0.2321102917194366,0.1997528970241546,0.5596564412117004
1629370424037,0.522841215133667,0.2344038337469101,0.1755773872137069,0.5571005940437317
1629370424141,0.5038151144981384,0.2307393997907638,0.1634162366390228,0.5519177913665771
1629370424274,0.4832682311534881,0.2217687517404556,0.1551564335823059,0.5432154536247253
1629370424314,0.4623734354972839,0.2111602425575256,0.1462522000074386,0.5229181051254272
1629370424453,0.4505093991756439,0.2024135589599609,0.1352001130580902,0.4994458854198456
1629370424516,0.416598230600357,0.195867508649826,0.1224841326475143,0.4944010972976684
1629370424577,0.3929499983787536,0.1892559379339218,0.1099590435624122,0.4970474541187286
1629370424766,0.3743171393871307,0.1805125027894973,0.0981540754437446,0.4970474541187286
1629370424828,0.362064003944397,0.1712351143360138,0.0859535187482833,0.4970474541187286
1629370424932,0.362064003944397,0.1676981300115585,0.0724717676639556,0.4970474541187286
1629370424999,0.362064003944397,0.176542043685913,0.0605932809412479,0.4970474541187286
1629370425096,0.3389765918254852,0.1966374665498733,0.0539734549820423,0.4970474541187286
1629370425239,0.304759681224823,0.2187817245721817,0.0522288121283054,0.4859430193901062
1629370425419,0.2587147355079651,0.2341687232255935,0.050835482776165,0.4720904231071472
1629370425481,0.2083741724491119,0.2415805757045745,0.0471603721380233,0.4540881812572479
1629370425541,0.1737537384033203,0.2461892366409301,0.0433655343949794,0.4300583600997925
1629370425622,0.1737537384033203,0.2532052099704742,0.043046697974205,0.4300583600997925
1629370425759,0.1737537384033203,0.2635707259178161,0.0483249612152576,0.4300583600997925
1629370425802,0.1737537384033203,0.2750380337238312,0.058051761239767,0.4300583600997925
1629370425974,0.1737537384033203,0.2846849262714386,0.069284975528717,0.4300583600997925
1629370426091,0.1737537384033203,0.2906152307987213,0.0786417499184608,0.4300583600997925
1629370426168,0.2658674120903015,0.2931878566741943,0.0833767130970954,0.4300583600997925
1629370426245,0.3015815317630768,0.2957351207733154,0.0822890028357505,0.4300583600997925
1629370426437,0.3210624456405639,0.3026174902915954,0.0757339894771575,0.4300583600997925
1629370426537,0.3279759585857391,0.3132592737674713,0.0654390379786491,0.3534052670001983
1629370426584,0.3302400112152099,0.3207579553127289,0.0533349253237247,0.3480349779129028
1629370426684,0.3339408040046692,0.3188853561878204,0.0415613315999507,0.3594095408916473
1629370426753,0.341541439294815,0.3088788390159607,0.0329173989593982,0.3792183697223663
1629370426856,0.3512513637542724,0.2977926433086395,0.0306203719228506,0.3949842751026153
1629370427056,0.3583727180957794,0.2901197373867035,0.0351296477019786,0.4001205563545227
1629370427176,0.3604943454265594,0.2840637266635895,0.0417001992464065,0.3973172307014465
1629370427269,0.358980655670166,0.275896817445755,0.0437340214848518,0.3929677903652191
1629370427317,0.3570464849472046,0.2651912271976471,0.0365954972803592,0.3893371224403381
1629370427458,0.3667872250080108,0.2536367177963257,0.0204373374581336,0.3841362297534942
1629370427526,0.3776010572910309,0.2419957518577575,-0.0011364032980054,0.3758817315101623
1629370427634,0.3878357410430908,0.2293529361486435,-0.0230655204504728,0.3664109110832214
1629370427788,0.3973470032215118,0.2149551808834076,-0.0418990664184093,0.3540259599685669
1629370427828,0.4063996970653534,0.1993253976106643,-0.0563921406865119,0.3458974361419678
1629370428020,0.4136582016944885,0.1816834211349487,-0.0663967654109001,0.3411006331443786
1629370428091,0.4169844388961792,0.1616829335689544,-0.0723779574036598,0.3389680981636047
1629370428254,0.4150782525539398,0.1433245986700058,-0.0763353332877159,0.340707778930664
1629370428297,0.4078142046928406,0.1325649619102478,-0.0814220458269119,0.3452231585979461
1629370428422,0.3955720067024231,0.1299526989459991,-0.0903188809752464,0.3477451801300049
1629370428610,0.3805172145366668,0.1277474015951156,-0.1035744845867157,0.3446319997310638
1629370428816,0.3678469955921173,0.118419699370861,-0.1184868738055229,0.3381786346435547
1629370428908,0.3612498939037323,0.102677971124649,-0.1324949711561203,0.3333800137042999
1629370428953,0.3581928610801697,0.0898995324969291,-0.145061582326889,0.3307432532310486
1629370429024,0.3524998426437378,0.0896535590291023,-0.1567757576704025,0.3270603120326996
1629370429189,0.341306984424591,0.1027557700872421,-0.1664658188819885,0.3208026885986328
1629370429238,0.3260377049446106,0.1221639141440391,-0.169156864285469,0.3149565160274505
1629370429285,0.3108507692813873,0.1403287649154663,-0.1611445844173431,0.3139944672584533
1629370429394,0.2991448044776916,0.1539387553930282,-0.1445623338222503,0.3208926916122436
1629370429467,0.2924585938453674,0.1629251539707183,-0.1243407726287841,0.3363435864448547
1629370429526,0.2903183400630951,0.1702643781900406,-0.1050940230488777,0.3569878041744232
1629370429583,0.2901106178760528,0.1804633140563964,-0.0906963795423507,0.374297559261322
1629370429636,0.2895177900791168,0.1961005181074142,-0.0826985761523246,0.379876047372818
1629370429718,0.2886875569820404,0.2154044359922409,-0.0772789716720581,0.3746322989463806
1629370429900,0.2906619310379028,0.2342876493930816,-0.0667062401771545,0.3692028820514679
1629370429954,0.298251062631607,0.2503066062927246,-0.0483307093381881,0.3621977567672729
1629370430030,0.3038044273853302,0.2626541554927826,-0.030287180095911,0.3628183007240295
1629370430223,0.3058262467384338,0.2709511220455169,-0.020872127264738,0.3677183091640472
1629370430310,0.3074277341365814,0.273018330335617,-0.0214790031313896,0.3728483915328979
1629370430403,0.3146883845329284,0.2670899331569671,-0.0268810875713825,0.3802626132965088
1629370430481,0.3306106626987457,0.2556708455085754,-0.0320043787360191,0.3957502543926239
1629370430536,0.3510789275169372,0.2448751479387283,-0.0378935784101486,0.4196088910102844
1629370430801,0.3655447661876678,0.240340769290924,-0.0485111624002456,0.4445894956588745
1629370430895,0.3632067441940307,0.2424681633710861,-0.0655817985534668,0.4610054194927215
1629370430968,0.3376478254795074,0.2459686547517776,-0.0872937142848968,0.4615489840507507
1629370431044,0.2914853096008301,0.2455671429634094,-0.107679396867752,0.4458194971084595
1629370431110,0.2914853096008301,0.2367372214794159,-0.1212816834449768,0.4458194971084595
1629370431160,0.2914853096008301,0.2201450318098068,-0.1252894699573516,0.4458194971084595
1629370431328,0.2914853096008301,0.1989367604255676,-0.1252597719430923,0.4458194971084595
1629370431420,0.2914853096008301,0.1771099269390106,-0.1304502487182617,0.4458194971084595
1629370431620,0.2914853096008301,0.1571826785802841,-0.1462661027908325,0.4458194971084595
1629370431755,0.2914853096008301,0.1407627463340759,-0.1661784052848816,0.4458194971084595
1629370431797,0.2914853096008301,0.1279777288436889,-0.1794399172067642,0.4458194971084595
1629370432115,0.2914853096008301,0.1184558570384979,-0.1819390803575515,0.4458194971084595
1629370432197,0.3743839263916015,0.1112317219376564,-0.1791020482778549,0.4458194971084595
1629370432250,0.3781980574131012,0.1047394424676895,-0.1759231984615326,0.4458194971084595
1629370432335,0.3783031404018402,0.0988165363669395,-0.1713744103908538,0.352873295545578
1629370432518,0.3715009391307831,0.0937018021941185,-0.162588745355606,0.343016117811203
1629370432568,0.361662894487381,0.0883636772632598,-0.1511972993612289,0.343016117811203
1629370432626,0.3567882478237152,0.0831985548138618,-0.1419456601142883,0.343016117811203
1629370432696,0.3610060811042785,0.078980341553688,-0.1392932683229446,0.343016117811203
1629370432750,0.3706532120704651,0.0794397220015525,-0.1417558342218399,0.343016117811203
1629370432860,0.3778020143508911,0.0820648744702339,-0.14719258248806,0.3211727440357208
1629370432924,0.3781643807888031,0.0826982632279396,-0.1520316153764724,0.3010116219520569
1629370433026,0.3735914826393127,0.0810788422822952,-0.1551916897296905,0.2809913456439972
1629370433135,0.3686924576759338,0.0830642506480217,-0.1569906920194625,0.2619428336620331
1629370433210,0.3587743937969208,0.0943549424409866,-0.1587597429752349,0.2163233608007431
1629370433272,0.3598849773406982,0.1130242869257927,-0.1598561555147171,0.1925631165504455
1629370433439,0.3628611862659454,0.132955402135849,-0.1590302884578704,0.1787871122360229
1629370433616,0.3628992438316345,0.1462160050868988,-0.1565412282943725,0.1787871122360229
1629370433688,0.3600438833236694,0.1589329689741134,-0.1564085632562637,0.1787871122360229
1629370433781,0.3581199944019317,0.1690262109041214,-0.153190791606903,0.1533267349004745
1629370433840,0.3613118231296539,0.1746365576982498,-0.1534937918186187,0.1165865510702133
1629370433900,0.3698960840702057,0.1761864870786667,-0.1557523906230926,0.1165865510702133
1629370433961,0.3771161437034607,0.1755132377147674,-0.1556045264005661,0.1165865510702133
1629370434018,0.3736715018749237,0.1742302179336547,-0.1499057412147522,0.1165865510702133
1629370434122,0.3549248278141022,0.1722474098205566,-0.1407255083322525,0.1165865510702133
1629370434297,0.3276611268520355,0.1712881922721862,-0.1549397557973861,0.0956093966960907
1629370434431,0.3276611268520355,0.1769480109214782,-0.1700350940227508,0.0956093966960907
1629370434473,0.3276611268520355,0.1930055022239685,-0.1888910979032516,0.0956093966960907
1629370434544,0.3276611268520355,0.1930055022239685,-0.2103642672300338,0.0956093966960907
1629370434658,0.3276611268520355,0.1930055022239685,-0.2319337427616119,0.0956093966960907
1629370434818,0.3276611268520355,0.1930055022239685,-0.2521887719631195,0.0956093966960907
1629370434866,0.3276611268520355,0.1930055022239685,-0.2660225629806518,0.0956093966960907
1629370435007,0.3276611268520355,0.2089000344276428,-0.2723957300186157,0.0956093966960907
1629370435134,0.3276611268520355,0.208512395620346,-0.271550565958023,0.0956093966960907
1629370435228,0.3276611268520355,0.208512395620346,-0.271550565958023,0.0956093966960907
1629370435333,0.3276611268520355,0.208512395620346,-0.271550565958023,0.0956093966960907
1629370435430,0.3276611268520355,0.208512395620346,-0.271550565958023,0.0956093966960907
1629370435463,0.3276611268520355,0.208512395620346,-0.271550565958023,0.0956093966960907
1629370435543,0.3276611268520355,0.208512395620346,-0.271550565958023,0.0956093966960907
1629370435616,0.3276611268520355,0.208512395620346,-0.271550565958023,0.0956093966960907
1629370435686,0.3276611268520355,0.208512395620346,-0.2575691938400268,0.0956093966960907
1629370435793,0.3276611268520355,0.208512395620346,-0.2486879825592041,0.0956093966960907
1629370435978,0.3276611268520355,0.208512395620346,-0.2412954866886139,0.0956093966960907
1629370436069,0.3276611268520355,0.208512395620346,-0.2325004786252975,0.0956093966960907
1629370436154,0.3276611268520355,0.2265789955854416,-0.2199541330337524,0.0956093966960907
1629370436225,0.3276611268520355,0.1994312554597854,-0.1498497128486633,0.0956093966960907
1629370436312,0.3276611268520355,0.1272807121276855,-0.0963352471590042,0.0956093966960907
1629370436393,0.3276611268520355,0.0247124992311,-0.0520311929285526,0.0956093966960907
1629370436537,0.3276611268520355,-0.08099115639925,-0.0011275829747319,0.0956093966960907
1629370436597,0.3276611268520355,-0.0761604458093643,0.0086798761039972,0.0956093966960907
1629370436713,0.3276611268520355,-0.063637726008892,0.0122242672368884,0.0956093966960907
1629370436754,0.3276611268520355,-0.0542049519717693,0.0032765492796897,0.0956093966960907
1629370436922,0.5242519378662109,-0.0450531989336013,-0.0164914894849061,0.0956093966960907
1629370437047,0.4988082647323608,-0.0251503102481365,-0.0368138253688812,0.0956093966960907
1629370437126,0.4988082647323608,0.0059268963523209,-0.043444238603115,0.0956093966960907
1629370437212,0.4988082647323608,0.0378449149429798,-0.0302152391523122,0.0956093966960907
1629370437274,0.4988082647323608,0.0378449149429798,-0.0002555111714173,0.0956093966960907
1629370437420,0.4988082647323608,0.0378449149429798,0.0383423008024692,0.0956093966960907
1629370437579,0.4988082647323608,0.0378449149429798,0.0804861038923263,0.0956093966960907
1629370437638,0.4988082647323608,0.0465760193765163,0.1218978017568588,0.0956093966960907
1629370437737,0.4988082647323608,0.0549855753779411,0.1679044067859649,0.0956093966960907
1629370437825,0.4988082647323608,0.0822224467992782,0.2079663276672363,0.0956093966960907
1629370437989,0.4988082647323608,0.1225382685661315,0.2431002855300903,0.0956093966960907
1629370438088,0.4988082647323608,0.1694972515106201,0.2755515873432159,0.0956093966960907
1629370438198,0.5421304106712341,0.2173596918582916,0.3092854022979736,0.0956093966960907
1629370438247,0.5852227807044983,0.2614023983478546,0.3486004173755646,0.0956093966960907
1629370438355,0.6330996155738831,0.298937439918518,0.3955302238464355,0.0956093966960907
1629370438421,0.6873873472213745,0.328524649143219,0.4468607008457184,0.0956093966960907
1629370438569,0.7473911643028259,0.3481191396713257,0.4953524768352508,0.0956093966960907
1629370438647,0.757526159286499,0.3596988320350647,0.5344152450561523,0.0956093966960907
1629370438906,0.763829231262207,0.3695043325424194,0.5613073110580444,0.0956093966960907
1629370438952,0.7603738903999329,0.3748060762882232,0.5768107771873474,0.0956093966960907
1629370439123,0.7456927299499512,0.380459725856781,0.5825355052947998,0.0956093966960907
1629370439231,0.7456927299499512,0.3837546110153198,0.579635739326477,0.0956093966960907
1629370439286,0.7456927299499512,0.3964612185955047,0.5691259503364563,0.0956093966960907
1629370439402,0.7456927299499512,0.4040448367595672,0.553824245929718,0.0956093966960907
1629370439442,0.7456927299499512,0.4047087430953979,0.5371836423873901,0.0956093966960907
1629370439497,0.7456927299499512,0.3961191475391388,0.5409191846847534,0.0956093966960907
1629370439591,0.7456927299499512,0.3774039149284363,0.5446262955665588,0.0956093966960907
1629370439703,0.7452577948570251,0.3700924813747406,0.5457414388656616,0.0956093966960907
1629370439798,0.7468060851097107,0.3592084348201751,0.5406109094619751,0.0956093966960907
1629370439820,0.749708354473114,0.3481911718845367,0.5249578356742859,0.0956093966960907
1629370440017,0.7506886720657349,0.3394704759120941,0.495477020740509,0.0956093966960907
1629370440082,0.743560254573822,0.3339329063892364,0.4518055915832519,0.0956093966960907
1629370440254,0.743560254573822,0.3292286992073059,0.3965666592121124,0.0956093966960907
1629370440320,0.743560254573822,0.2992740571498871,0.2909727692604065,0.0956093966960907
1629370440412,0.743560254573822,0.2646817564964294,0.1812541037797927,0.0956093966960907
1629370440459,0.743560254573822,0.2236694395542144,0.076248399913311,0.0956093966960907
1629370440588,0.743560254573822,0.1743024140596389,-0.0086414264515042,0.0956093966960907
1629370440777,0.4424860179424286,0.1151458472013473,-0.0563574470579624,0.4668014049530029
1629370440874,0.4116575717926025,0.0520017482340335,-0.073872335255146,0.4443975389003753
1629370440932,0.386417955160141,-0.0015601142076775,-0.0829122066497802,0.4248828589916229
1629370441021,0.386417955160141,-0.0348833501338958,-0.0798725113272667,0.417146772146225
1629370441160,0.386417955160141,-0.0513369254767894,-0.0808987244963646,0.4249132871627807
1629370441213,0.386417955160141,-0.066309705376625,-0.0801817253232002,0.4441538453102112
1629370441285,0.3897912204265594,-0.0799088701605796,-0.0787672847509384,0.464236706495285
1629370441456,0.3895244300365448,-0.0874687582254409,-0.0808705911040306,0.4760126173496246
1629370441546,0.3910301327705383,-0.0841177180409431,-0.0875816345214843,0.475870817899704
1629370441610,0.3996549248695373,-0.070912592113018,-0.0959128886461258,0.4662503600120544
1629370441691,0.4132643640041351,-0.0550637617707252,-0.103116326034069,0.4528068006038666
1629370441832,0.4268891513347626,-0.0528540052473545,-0.1083490848541259,0.4417090713977813
1629370441879,0.432564914226532,-0.0573397278785705,-0.1137572601437568,0.4330663681030273
1629370442161,0.4437140226364136,-0.0588888376951217,-0.1206769421696662,0.4327316880226135
1629370442256,0.4633700251579284,-0.047891542315483,-0.1289667040109634,0.4392755329608917
1629370442367,0.4890246987342834,-0.0253259185701608,-0.1386312842369079,0.4499265551567077
1629370442687,0.5124562382698059,0.000208822224522,-0.1499953866004943,0.4622369706630707
1629370442746,0.526816725730896,0.0232907868921756,-0.1613394021987915,0.476864755153656
1629370442877,0.5149832367897034,0.0443956926465034,-0.1698502451181411,0.4964106380939483
1629370442954,0.4994981586933136,0.0649555549025535,-0.1757563203573227,0.5188644528388977
1629370443072,0.4838102161884308,0.08448076993227,-0.1814714968204498,0.5370190143585205
1629370443132,0.4736025631427765,0.1019954830408096,-0.1864763349294662,0.5450198650360107
1629370443220,0.4661518931388855,0.115244448184967,-0.1878556162118911,0.5438879728317261
1629370443323,0.4601762592792511,0.1215988025069236,-0.1861396729946136,0.5405985116958618
1629370443418,0.4516736268997192,0.1202068403363227,-0.1863779723644256,0.5417015552520752
1629370443488,0.4391370713710785,0.1153090298175811,-0.1908694356679916,0.5491585731506348
1629370443545,0.4240194261074066,0.1131299585103988,-0.1955730020999908,0.5598500370979309
1629370443605,0.4066185057163238,0.1147636100649833,-0.1965062618255615,0.5673930048942566
1629370443653,0.3837663233280182,0.1150712296366691,-0.1957287788391113,0.5671155452728271
1629370443835,0.3520509302616119,0.1115171313285827,-0.1998657584190368,0.5590162873268127
1629370443965,0.3138952851295471,0.1084943115711212,-0.2123704850673675,0.547738790512085
1629370444017,0.2787578403949737,0.1115178167819976,-0.230505034327507,0.5374536514282227
1629370444088,0.2562557160854339,0.1216520071029663,-0.2493718713521957,0.526504635810852
1629370444139,0.2471679598093032,0.1350101828575134,-0.2666640877723694,0.5084725618362427
1629370444196,0.2447896003723144,0.147209495306015,-0.2832315862178802,0.4794370532035827
1629370444309,0.2438915073871612,0.1551271378993988,-0.3003551065921783,0.4424269199371338
1629370444445,0.2436559200286865,0.1575997471809387,-0.318685233592987,0.4069933295249939
1629370444494,0.2434726357460022,0.1566108912229538,-0.3371068835258484,0.3816317915916443
1629370444559,0.2395785599946975,0.1573461890220642,-0.3528782725334167,0.3661434352397918
1629370444686,0.228282481431961,0.1639662384986877,-0.363482266664505,0.3525964915752411
1629370444833,0.2097518593072891,0.1744059771299362,-0.369844913482666,0.3319411277770996
1629370444895,0.1881142258644104,0.1822033822536468,-0.3763694167137146,0.3012879490852356
1629370444956,0.1694554686546325,0.1827443242073059,-0.3823297321796417,0.2809051871299743
1629370445045,0.15946926176548,0.177044466137886,-0.3785834610462188,0.2613396942615509
1629370445193,0.1596462875604629,0.1683040708303451,-0.3558118939399719,0.2474454492330551
1629370445453,0.1651502251625061,0.1564212143421173,-0.3170759975910187,0.2374668270349502
1629370445512,0.1714780032634735,0.1384309083223343,-0.276209682226181,0.2262238562107086
1629370445626,0.1826424747705459,0.1120977401733398,-0.2442367821931839,0.2096458673477172
1629370445788,0.2055808007717132,0.0784763693809509,-0.2239913493394851,0.1844560205936432
1629370445927,0.2371362149715423,0.0414721183478832,-0.2127249985933303,0.1494366079568863
1629370446128,0.2640138268470764,0.0064198728650808,-0.2059589028358459,0.1089638471603393
1629370446221,0.2769912183284759,-0.0233527980744838,-0.1947413384914398,0.1707113236188888
1629370446335,0.2793508172035217,-0.0475342087447643,-0.1707095205783844,0.2016288042068481
1629370446424,0.2829499244689941,-0.0706503987312316,-0.1356212049722671,0.2162099033594131
1629370446487,0.29361292719841,-0.0979817882180213,-0.1000242233276367,0.2445462942123413
1629370446538,0.3076910376548767,-0.1302517205476761,-0.0743200555443763,0.2445462942123413
1629370446599,0.31932133436203,-0.1586032807826995,-0.0606335625052452,0.2445462942123413
1629370446661,0.3272683918476105,-0.168490394949913,-0.0565457232296466,0.2445462942123413
1629370446711,0.3343052566051483,-0.1518183797597885,-0.060896135866642,0.3692395687103271
1629370446778,0.3421275913715362,-0.1152126342058181,-0.0729081854224205,0.3736609816551208
1629370446823,0.3510179221630096,-0.0701084062457084,-0.0868825316429138,0.3703459501266479
1629370447063,0.3593814969062805,-0.0262099280953407,-0.0944232121109962,0.3594374358654022
1629370447130,0.3663802444934845,0.011050478555262,-0.0916536077857017,0.3500505983829498
1629370447245,0.3736885786056518,0.0405611507594585,-0.083339050412178,0.3499999046325683
1629370447347,0.3848423361778259,0.0635621473193168,-0.0762769728899002,0.3610302805900574
1629370447406,0.4000185430049896,0.0821883529424667,-0.0747417509555816,0.3771729469299316
1629370447502,0.4138987064361572,0.0972743108868599,-0.0831161588430404,0.3836519122123718
1629370447611,0.4201876819133758,0.1089095026254654,-0.1064725145697593,0.4001788794994354
1629370447641,0.4164016842842102,0.1175082549452781,-0.144546240568161,0.4038974046707153
1629370447735,0.4073219299316406,0.1238720268011093,-0.1888325959444046,0.4003550708293915
1629370447812,0.3992321789264679,0.1286948919296264,-0.2254094630479812,0.3917391002178192
1629370447961,0.39555224776268,0.1328248977661132,-0.245777353644371,0.3816694915294647
1629370448016,0.3945536613464355,0.1371581703424453,-0.2524361312389374,0.3791450262069702
1629370448139,0.3922701776027679,0.1399263888597488,-0.2533270418643951,0.3733415603637695
1629370448321,0.3865153789520263,0.1376537978649139,-0.2545738220214844,0.3676223754882812
1629370448415,0.3771770894527435,0.1286467611789703,-0.2620629072189331,0.3663205504417419
1629370448463,0.3662472665309906,0.118380568921566,-0.2784904539585113,0.3728649914264679
1629370448587,0.35231414437294,0.1153250113129615,-0.3022071719169616,0.3841685652732849
1629370448715,0.3289311230182647,0.1222548633813858,-0.3234664797782898,0.3931049108505249
1629370448799,0.2907306551933288,0.1339057981967926,-0.3286726176738739,0.3943930864334106
1629370448844,0.2414220720529556,0.1437276750802993,-0.3104417026042938,0.3884355723857879
1629370448911,0.1948349922895431,0.1500062197446823,-0.2746777534484863,0.3784619271755218
1629370449008,0.1637584716081619,0.1537261009216308,-0.2319956123828888,0.367701768875122
1629370449153,0.1489799469709396,0.1549243032932281,-0.1875180602073669,0.3592658638954162
1629370449242,0.1426807940006256,0.1522856503725052,-0.1403461247682571,0.3568061292171478
1629370449348,0.1393954753875732,0.1458324193954467,-0.0911002233624458,0.3612688779830932
1629370449425,0.1352784186601638,0.1365320682525634,-0.0454062111675739,0.3690404891967773
1629370449502,0.1268804967403412,0.124468021094799,-0.0091911824420094,0.3743981122970581
1629370449564,0.1124326214194297,0.1099611446261406,0.0156169477850198,0.3738248944282532
1629370449843,0.0960500836372375,0.0950911194086074,0.0301443636417388,0.3684009611606598
1629370449919,0.0880946591496467,0.0833598971366882,0.0375828333199024,0.3613797724246979
1629370450013,0.0968697816133499,0.0751449689269065,0.0416973419487476,0.3571565747261047
1629370450086,0.1180494129657745,0.06826713681221,0.0464322380721569,0.3581800162792206
1629370450149,0.1411701440811157,0.0613748170435428,0.0526656173169612,0.3630678951740265
1629370450242,0.1614679098129272,0.0558266602456569,0.05704827606678,0.3664228618144989
1629370450340,0.1820629388093948,0.0536274053156375,0.0565051361918449,0.3634586036205292
1629370450504,0.2055371254682541,0.0549908466637134,0.0512227788567543,0.3537614941596985
1629370450596,0.2290585935115814,0.058894507586956,0.0431506074965,0.3433841168880462
1629370450671,0.2482842206954956,0.0641741380095481,0.032354824244976,0.339444488286972
1629370450727,0.2620941698551178,0.0694521516561508,0.0182620920240879,0.3439423143863678
1629370450823,0.2720769941806793,0.0739181637763977,0.0030097337439656,0.3521822988986969
1629370450987,0.2805493772029876,0.0796891823410987,-0.008972804993391,0.358393520116806
1629370451153,0.2897526323795318,0.09132681787014,-0.0159706678241491,0.3608526587486267
1629370451187,0.3001879751682281,0.1109345480799675,-0.0202830135822296,0.3613939881324768
1629370451263,0.3094345927238464,0.1337317824363708,-0.0241342429071664,0.3622478246688843
1629370451472,0.3124994337558746,0.151034265756607,-0.0282319989055395,0.363119900226593
1629370451534,0.3037371635437011,0.1567637026309967,-0.0331615507602691,0.3610105216503143
1629370451635,0.2824627459049225,0.1497391462326049,-0.0412373207509517,0.3536933958530426
1629370451742,0.2551486492156982,0.1331723630428314,-0.0530492961406707,0.3423601388931274
1629370451815,0.2306385934352874,0.1131378635764122,-0.0667482763528823,0.3316684663295746
1629370451878,0.2117754817008972,0.096520185470581,-0.0806255117058754,0.3263935148715973
1629370451985,0.1944552958011627,0.0871421620249748,-0.0948449224233627,0.3278498351573944
1629370452093,0.1764428913593292,0.0835562720894813,-0.1095728799700737,0.3312122225761413
1629370452255,0.1619745343923568,0.0828227996826171,-0.1232809051871299,0.3293638825416565
1629370452305,0.1555537283420562,0.0867511481046676,-0.1359224766492843,0.3177099525928497
1629370452367,0.1570045500993728,0.0995663478970527,-0.1498211771249771,0.2994061410427093
1629370452474,0.1618765890598297,0.1179438903927803,-0.1652669906616211,0.283780038356781
1629370452553,0.1648430824279785,0.1307025700807571,-0.1756380945444107,0.2785948514938354
1629370452690,0.1626041829586029,0.1282114535570144,-0.1723338812589645,0.2833820879459381
1629370452804,0.154687687754631,0.1118011549115181,-0.1549568027257919,0.2917149066925049
1629370452848,0.1526577174663543,0.0921134278178215,-0.1323342472314834,0.2964184880256653
1629370453095,0.1550730764865875,0.0809560120105743,-0.1119153946638107,0.2966217696666717
1629370453210,0.1630732715129852,0.0853637382388114,-0.090938776731491,0.2900795340538025
1629370453281,0.1749119609594345,0.0931403934955596,-0.0793047919869422,0.2786614596843719
1629370453349,0.1868417114019394,0.1035708859562873,-0.06562340259552,0.2672845125198364
1629370453422,0.197362944483757,0.1137741953134536,-0.0497429519891738,0.2601923942565918
1629370453534,0.210017442703247,0.1219189465045929,-0.0311565455049276,0.2583138942718506
1629370453684,0.2274310141801834,0.1284579932689666,-0.009831378236413,0.2607005834579468
1629370453753,0.2449850887060165,0.1353159844875335,0.0129876341670751,0.2669507265090942
1629370453878,0.2533698976039886,0.1415382921695709,0.0347522161900997,0.2800272107124328
1629370453954,0.2444153875112533,0.140193685889244,0.052363958209753,0.3013153374195099
1629370454068,0.2444153875112533,0.1239079162478447,0.1993026286363601,0.3013153374195099
1629370454162,0.2444153875112533,0.0926861241459846,0.3706433176994324,0.3013153374195099
1629370454237,0.2444153875112533,0.060187179595232,0.5282425284385681,0.3013153374195099
1629370454324,0.2444153875112533,0.060187179595232,0.5714913010597229,0.3013153374195099
1629370454378,0.2444153875112533,0.060187179595232,0.6267691254615784,0.3013153374195099
1629370454464,0.2444153875112533,0.060187179595232,0.7008266448974609,0.3013153374195099
1629370454625,0.2444153875112533,0.060187179595232,0.7008266448974609,0.3013153374195099
1629370454804,0.2444153875112533,0.060187179595232,0.7008266448974609,0.3013153374195099
1629370454831,0.2444153875112533,0.060187179595232,0.7008266448974609,0.3013153374195099
1629370454943,0.2444153875112533,0.060187179595232,0.7008266448974609,0.3013153374195099
1629370455032,0.2444153875112533,0.060187179595232,0.7008266448974609,0.3013153374195099
1629370455118,0.2444153875112533,0.060187179595232,0.7008266448974609,0.3013153374195099
1629370455259,0.2444153875112533,0.060187179595232,0.7008266448974609,0.3013153374195099
1629370455385,0.2444153875112533,0.060187179595232,0.7008266448974609,0.3013153374195099
1629370455402,0.2444153875112533,0.060187179595232,0.7008266448974609,0.3013153374195099
1629370455542,0.2444153875112533,0.060187179595232,0.7008266448974609,0.3013153374195099
1629370455598,0.2444153875112533,0.060187179595232,0.7008266448974609,0.3013153374195099
1629370455675,0.2444153875112533,0.060187179595232,0.7008266448974609,0.3013153374195099
1629370455921,0.2444153875112533,0.060187179595232,0.7008266448974609,0.3013153374195099
1629370456016,0.2444153875112533,0.060187179595232,0.7008266448974609,0.3013153374195099
1629370456147,0.2444153875112533,0.060187179595232,0.7008266448974609,0.3013153374195099
1629370456204,0.2444153875112533,0.060187179595232,0.7008266448974609,0.3013153374195099
1629370456268,0.2444153875112533,0.060187179595232,0.7008266448974609,0.3013153374195099
1629370456414,0.2444153875112533,0.060187179595232,0.7008266448974609,0.3013153374195099
1629370456481,0.2444153875112533,0.060187179595232,0.7008266448974609,0.3013153374195099
1629370456581,0.2444153875112533,0.060187179595232,0.7008266448974609,0.3013153374195099
1629370456637,0.2444153875112533,0.060187179595232,0.7008266448974609,0.3013153374195099
1629370456805,0.2444153875112533,0.060187179595232,0.7008266448974609,0.3013153374195099
1629370456852,0.2444153875112533,0.060187179595232,0.7008266448974609,0.3013153374195099
1629370457061,0.2444153875112533,0.060187179595232,0.7008266448974609,0.3013153374195099
1629370457098,0.2444153875112533,0.060187179595232,0.7008266448974609,0.3013153374195099
1629370457201,0.2444153875112533,0.060187179595232,0.7008266448974609,0.3013153374195099
1629370457278,0.2444153875112533,0.060187179595232,0.7008266448974609,0.3013153374195099
1629370457355,0.2444153875112533,0.060187179595232,0.7008266448974609,0.3013153374195099
1629370457439,0.2444153875112533,0.060187179595232,0.7392426133155823,0.3013153374195099
1629370457537,0.2444153875112533,0.060187179595232,0.7734071016311646,0.3013153374195099
1629370457615,0.2444153875112533,0.060187179595232,0.7953720688819885,0.3013153374195099
1629370457750,0.2444153875112533,0.060187179595232,0.8098111748695374,0.3013153374195099
1629370457828,0.2444153875112533,0.060187179595232,0.8195977807044983,0.3013153374195099
1629370458040,0.2444153875112533,0.060187179595232,0.8243156671524048,0.3013153374195099
1629370458230,0.2444153875112533,0.060187179595232,0.8225467205047607,0.3013153374195099
1629370458355,0.2444153875112533,0.060187179595232,0.8225467205047607,0.3013153374195099
1629370458469,0.2444153875112533,0.060187179595232,0.8225467205047607,0.3013153374195099
1629370458561,0.2444153875112533,0.060187179595232,0.8282532095909119,0.3013153374195099
1629370458610,0.2444153875112533,0.060187179595232,0.8437795639038086,0.3013153374195099
1629370458687,0.2444153875112533,0.060187179595232,0.8681840300559998,0.3013153374195099
1629370458790,0.2444153875112533,0.060187179595232,0.8681840300559998,0.3013153374195099
1629370458844,0.2444153875112533,0.060187179595232,0.8681840300559998,0.3013153374195099
1629370458908,0.2444153875112533,0.060187179595232,0.8681840300559998,0.3013153374195099
1629370458976,0.2444153875112533,0.060187179595232,0.8703510165214539,0.3013153374195099
1629370459062,0.2444153875112533,0.060187179595232,0.8666871190071106,0.3013153374195099
1629370459159,0.2444153875112533,0.060187179595232,0.8603641986846924,0.3013153374195099
1629370459267,0.2444153875112533,0.060187179595232,0.8603641986846924,0.3013153374195099
1629370459406,0.2444153875112533,0.060187179595232,0.8603641986846924,0.3013153374195099
1629370459446,0.2444153875112533,0.060187179595232,0.8603641986846924,0.3013153374195099
1629370459560,0.2444153875112533,0.060187179595232,0.8603641986846924,0.3013153374195099
1629370459652,0.2444153875112533,0.060187179595232,0.8603641986846924,0.3013153374195099
1629370459817,0.2444153875112533,0.060187179595232,0.8603641986846924,0.3013153374195099
1629370459870,0.2444153875112533,0.060187179595232,0.8603641986846924,0.3013153374195099
1629370459977,0.2444153875112533,0.060187179595232,0.8603641986846924,0.3013153374195099
1629370460140,0.2444153875112533,0.060187179595232,0.8603641986846924,0.3013153374195099
1629370460218,0.2444153875112533,0.060187179595232,0.8603641986846924,0.3013153374195099
1629370460402,0.2444153875112533,0.060187179595232,0.8603641986846924,0.3013153374195099
1629370460493,0.2444153875112533,0.060187179595232,0.8603641986846924,0.3013153374195099
1629370460567,0.2444153875112533,0.060187179595232,0.8603641986846924,0.3013153374195099
1629370460616,0.2444153875112533,0.060187179595232,0.8603641986846924,0.3013153374195099
1629370460738,0.2444153875112533,0.060187179595232,0.8603641986846924,0.3013153374195099
1629370460793,0.2444153875112533,0.060187179595232,0.8603641986846924,0.3013153374195099
1629370460846,0.2444153875112533,0.060187179595232,0.8603641986846924,0.3013153374195099
1629370460959,0.2444153875112533,0.060187179595232,0.8603641986846924,0.3013153374195099
1629370461063,0.2444153875112533,0.060187179595232,0.8603641986846924,0.3013153374195099
1629370461185,0.2444153875112533,0.060187179595232,0.8603641986846924,0.3013153374195099
1629370461300,0.2444153875112533,0.060187179595232,0.8603641986846924,0.3013153374195099
1629370461404,0.2444153875112533,0.060187179595232,0.8603641986846924,0.3013153374195099
1629370461484,0.2444153875112533,0.060187179595232,0.8603641986846924,0.3013153374195099
1629370461625,0.4943917691707611,0.340354323387146,0.025529695674777,0.3013153374195099
1629370461654,0.4940851628780365,0.3626982569694519,0.0397138260304927,0.3013153374195099
1629370461751,0.5012829899787903,0.3849163949489593,0.0696096792817115,0.3013153374195099
1629370461909,0.5153631567955017,0.4047030508518219,0.1123469844460487,0.3013153374195099
1629370462003,0.5302037596702576,0.4191626310348511,0.1505900025367736,0.3013153374195099
1629370462070,0.5369836091995239,0.4262342453002929,0.1747316420078277,0.5482906699180603
1629370462226,0.5339029431343079,0.4254162311553955,0.1889029741287231,0.5438872575759888
1629370462287,0.5265441536903381,0.4191456139087677,0.204314574599266,0.5395022034645081
1629370462408,0.5208402276039124,0.4121586680412292,0.2270318120718002,0.5377365350723267
1629370462522,0.5188884735107422,0.4075925946235657,0.2524934709072113,0.5339410305023193
1629370462597,0.5198922753334045,0.4051030576229095,0.2726567685604095,0.5248547196388245
1629370462693,0.5243567228317261,0.4038034081459045,0.2833910584449768,0.5139933228492737
1629370462890,0.5329258441925049,0.4124787151813507,0.3027207553386688,0.5069575905799866
1629370462999,0.5481346249580383,0.422797828912735,0.316567987203598,0.5054399967193604
1629370463094,0.5640021562576294,0.4307998716831207,0.3308374583721161,0.5075406432151794
1629370463202,0.5745909214019775,0.4312500357627868,0.3486452400684356,0.5111673474311829
1629370463366,0.5771487951278687,0.4206386804580688,0.3677152097225189,0.5148988962173462
1629370463448,0.5705114603042603,0.400806576013565,0.3825358748435974,0.5213912725448608
1629370463520,0.5548295378684998,0.3780541121959686,0.3902283012866974,0.5212967395782471
1629370463583,0.5335609912872314,0.3592644929885864,0.3922574520111084,0.5180549621582031
1629370463678,0.5156834721565247,0.3511436581611633,0.3911890089511871,0.5153899788856506
1629370463797,0.5077158808708191,0.3581716418266296,0.3872138261795044,0.5114861726760864
1629370463888,0.5094271898269653,0.3780128061771393,0.3792014122009277,0.5029438138008118
1629370463984,0.5163384675979614,0.3999782502651214,0.3661758601665497,0.4917670786380768
1629370464090,0.5243703722953796,0.4130846858024597,0.3493415713310241,0.4848295450210571
1629370464179,0.5306367874145508,0.4138708114624023,0.3322623670101166,0.4851780831813812
1629370464276,0.5311340093612671,0.4064268469810486,0.3195056319236755,0.4874757528305053
1629370464355,0.5222060084342957,0.396843820810318,0.3123168051242828,0.4848839342594147
1629370464454,0.5028949975967407,0.3901994526386261,0.3063580691814422,0.4846326112747192
1629370464532,0.4761602878570556,0.3895518481731415,0.295632928609848,0.4807668328285217
1629370464658,0.4478895962238312,0.3950642645359039,0.2779938578605652,0.4651103317737579
1629370464759,0.4240420162677765,0.4043121337890625,0.2551581263542175,0.4520924091339111
1629370464852,0.409527450799942,0.4140821993350982,0.2306393086910247,0.4450150430202484
1629370464982,0.4058981835842132,0.4217059910297394,0.2089562863111496,0.4450453817844391
1629370465031,0.4096873998641968,0.4251125752925873,0.1972043216228485,0.4491078555583954
1629370465174,0.4125815629959106,0.4215720295906067,0.2002201527357101,0.4527964293956756
1629370465233,0.4079057872295379,0.4094816148281097,0.2137605994939804,0.4557077288627624
1629370465359,0.3921898603439331,0.389660507440567,0.2247470021247863,0.4593633413314819
1629370465456,0.3666981160640716,0.3670582473278045,0.223885953426361,0.4645006060600281
1629370465557,0.3372815549373626,0.3507473170757293,0.2127648890018463,0.4727638065814972
1629370465676,0.3121417462825775,0.3485634326934814,0.1997238099575042,0.4885669648647308
1629370465753,0.2963245511054992,0.3596450686454773,0.1906264573335647,0.5128930807113647
1629370465849,0.2893598973751068,0.3746588230133056,0.1871339231729507,0.5388175249099731
1629370465941,0.2909170091152191,0.3831763863563537,0.1893799155950546,0.5445834398269653
1629370466037,0.3027046024799347,0.381527304649353,0.196442112326622,0.5409708023071289
1629370466159,0.3221701979637146,0.3743553757667541,0.2055375128984451,0.5436947345733643
1629370466290,0.34161177277565,0.3698302805423736,0.2142923325300216,0.5421769022941589
1629370466469,0.354274183511734,0.3718511760234833,0.2234277725219726,0.535690188407898
1629370466525,0.3595661222934723,0.3775646388530731,0.2341275513172149,0.524367094039917
1629370466593,0.3616006970405578,0.3820261657238006,0.2429659366607666,0.5117102265357971
1629370466661,0.364433079957962,0.3826189935207367,0.2451613992452621,0.5023444294929504
1629370466884,0.3692449331283569,0.3787938058376312,0.2413379400968551,0.4977293908596039
1629370466919,0.3751406967639923,0.3714277744293213,0.2393749356269836,0.495554119348526
1629370467004,0.3812133371829986,0.3625553846359253,0.2481361180543899,0.4917417168617248
1629370467117,0.3856839835643768,0.3528408110141754,0.2664736211299896,0.4819127321243286
1629370467202,0.3874083459377289,0.3401963114738464,0.2841755747795105,0.4636310935020447
1629370467297,0.3869037628173828,0.3214946985244751,0.2923599779605865,0.4389979243278503
1629370467448,0.3858362138271332,0.2957624793052673,0.2892346680164337,0.414185881614685
1629370467503,0.3838920891284942,0.2662515640258789,0.278746485710144,0.3948302865028381
1629370467606,0.3798098266124725,0.2377925515174865,0.2661760449409485,0.3803346455097198
1629370467680,0.377638965845108,0.2129120528697967,0.2542907893657684,0.3661085069179535
1629370467748,0.3862511217594147,0.1908358633518219,0.2425897121429443,0.3507571518421173
1629370467930,0.4072438776493072,0.1715821474790573,0.228305384516716,0.3358855247497558
1629370468070,0.4296881258487701,0.1580187827348709,0.2095693051815033,0.3207745254039764
1629370468166,0.4424791932106018,0.1543212831020355,0.1882447451353073,0.3023499548435211
1629370468260,0.4470070898532867,0.1605677604675293,0.1692508906126022,0.2793172001838684
1629370468339,0.4539442062377929,0.1719636619091034,0.1563815921545028,0.2553593516349792
1629370468403,0.4695707261562347,0.1819709539413452,0.1485957652330398,0.2371244728565216
1629370468475,0.4793921709060669,0.186566948890686,0.1399998813867569,0.2287703454494476
1629370468607,0.4890774488449096,0.1848234236240387,0.1267040967941284,0.2195107787847519
1629370468688,0.4964534938335418,0.1823189705610275,0.1134130731225013,0.2035789042711258
1629370468861,0.5014336109161377,0.1854304671287536,0.1113593801856041,0.1763560026884079
1629370468957,0.50597083568573,0.1967484056949615,0.1264673322439193,0.1392408609390258
1629370469051,0.5133023262023926,0.2132380008697509,0.1522934883832931,0.1015821322798729
1629370469110,0.5250409841537476,0.2322716861963272,0.1786366552114486,0.0757822468876838
1629370469274,0.5369516015052795,0.2530640959739685,0.202979102730751,0.0663157999515533
1629370469323,0.5388151407241821,0.274076372385025,0.2269636541604995,0.0671822950243949
1629370469474,0.5237745046615601,0.2905868291854858,0.2499022781848907,0.0695037841796875
1629370469509,0.5000093579292297,0.2997076511383056,0.2682909965515136,0.0707194060087204
1629370469625,0.5000093579292297,0.3025936484336853,0.2797766923904419,0.0707194060087204
1629370469708,0.5000093579292297,0.3033820390701294,0.2872208654880523,0.0707194060087204
1629370469823,0.5000093579292297,0.3049246668815613,0.2928983867168426,0.0707194060087204
1629370469981,0.5000093579292297,0.3101330697536468,0.2965390682220459,0.0707194060087204
1629370470031,0.5000093579292297,0.3195715546607971,0.297513872385025,0.0707194060087204
1629370470175,0.5036795735359192,0.3314785957336426,0.2979874014854431,0.2517618238925934
1629370470225,0.4875844120979309,0.3401228785514831,0.2996589243412018,0.2577745914459228
1629370470305,0.4650395214557647,0.3414766788482666,0.3002135455608368,0.2630233466625213
1629370470534,0.4457577168941498,0.3356423079967499,0.296259343624115,0.2661750912666321
1629370470662,0.4324527382850647,0.3256550133228302,0.2884807884693146,0.2690748870372772
1629370470743,0.4241186678409576,0.3123628795146942,0.280335009098053,0.272045373916626
1629370470801,0.4190974533557892,0.2948026657104492,0.2724237740039825,0.2721403539180755
1629370470857,0.4148624539375305,0.2721946835517883,0.2629055380821228,0.2675515115261078
1629370470932,0.4089719355106354,0.2470628172159195,0.2525374591350555,0.259395956993103
1629370471073,0.401673823595047,0.2231292575597763,0.2453350871801376,0.2506349682807922
1629370471167,0.3956033289432525,0.2017925232648849,0.2430079579353332,0.2434093952178955
1629370471305,0.3939416408538818,0.1825174987316131,0.2399605512619018,0.2383571416139602
1629370471351,0.3943423926830292,0.1670381426811218,0.2313416451215744,0.2329640239477157
1629370471494,0.3903490006923675,0.1561291664838791,0.2168804854154586,0.235703244805336
1629370471564,0.3831271529197693,0.1519510298967361,0.2000475078821182,0.2513374984264374
1629370471682,0.3783353865146637,0.1566618531942367,0.1832955330610275,0.2783311009407043
1629370471776,0.3792614638805389,0.1685948222875595,0.1673052459955215,0.3083620369434356
1629370471846,0.3828992545604706,0.1816817075014114,0.1526170819997787,0.3323849737644195
1629370471971,0.3842300772666931,0.1923339217901229,0.1405471265316009,0.3473694324493408
1629370472034,0.3836921751499176,0.2038982957601547,0.1316921561956405,0.3571593761444092
1629370472143,0.3848254382610321,0.2215382605791092,0.1270043700933456,0.3669563233852386
1629370472270,0.3898396790027618,0.2434285432100296,0.1275020539760589,0.378747284412384
1629370472381,0.3979346752166748,0.2634451389312744,0.1326356381177902,0.3920126557350158
1629370472455,0.4063029289245605,0.2769709229469299,0.1381688117980957,0.4059209823608398
1629370472607,0.4119279682636261,0.2831839323043823,0.1386032551527023,0.4196907579898834
1629370472715,0.4140461981296539,0.2836237847805023,0.1327895075082779,0.4332420825958252
1629370472767,0.4141363799571991,0.2796242833137512,0.1271681636571884,0.448235422372818
1629370472886,0.4134224355220794,0.2714007496833801,0.1307255327701568,0.4658491313457489
1629370473019,0.4114437699317932,0.2582224011421203,0.1476992815732956,0.483020931482315
1629370473083,0.4052737951278686,0.2381643950939178,0.1756390184164047,0.4923345446586609
1629370473190,0.3933287262916565,0.2112845480442047,0.2117422521114349,0.4895419478416443
1629370473274,0.3769597709178924,0.1825146526098251,0.2521521747112274,0.4779747128486633
1629370473382,0.3602784276008606,0.1613789796829223,0.2895057797431946,0.4660950303077698
1629370473523,0.3487083911895752,0.1540766954421997,0.3155661821365356,0.4603701829910278
1629370473625,0.3445276916027069,0.1554420590400695,0.3263115882873535,0.4611987471580505
1629370473672,0.345081090927124,0.1552003771066665,0.323731929063797,0.4670788645744324
1629370473848,0.3458901643753052,0.1505054086446762,0.3131179809570312,0.4774507582187652
1629370473877,0.3453791439533233,0.1466342210769653,0.300057053565979,0.4893896579742431
1629370473939,0.3463065922260284,0.1486185789108276,0.2889364063739776,0.498678058385849
1629370474161,0.3527272641658783,0.1560642123222351,0.2829412519931793,0.5033042430877686
1629370474224,0.3631415963172912,0.1666032075881958,0.2840768694877624,0.5042280554771423
1629370474286,0.3700250089168548,0.1796242147684097,0.2917266190052032,0.5016746520996094
1629370474392,0.3681429922580719,0.1955413818359375,0.3020453453063965,0.4943895041942596
1629370474520,0.3587442636489868,0.2159497588872909,0.3123775422573089,0.4823037385940552
1629370474578,0.3496151566505432,0.2429914325475692,0.3240469396114349,0.4692024290561676
1629370474693,0.34785857796669,0.2748607397079468,0.3380639255046844,0.4597372114658355
1629370474824,0.3546926379203796,0.3041967153549194,0.3519464433193207,0.4552963972091675
1629370474926,0.3660382032394409,0.3232370316982269,0.3629521429538727,0.4538094997406006
1629370474960,0.3759998977184295,0.3283933401107788,0.3714744746685028,0.4519030451774597
1629370475090,0.3796948790550232,0.3227904140949249,0.3799002468585968,0.446164608001709
1629370475207,0.3769083321094513,0.3145764470100403,0.3881738185882568,0.4328954517841339
1629370475343,0.3703420758247375,0.3108364641666412,0.3939181268215179,0.4115006029605865
1629370475505,0.3616090714931488,0.3135669231414795,0.3963456153869629,0.3890570700168609
1629370475551,0.3500059247016907,0.3198343813419342,0.396750271320343,0.3772150576114654
1629370475660,0.3335446417331695,0.3254202306270599,0.3960235714912414,0.382203072309494
1629370475748,0.3148582577705383,0.3284545838832855,0.3933116197586059,0.3982114791870117
1629370475844,0.3025775849819183,0.3291928768157959,0.3864069879055023,0.4147729277610779
1629370475950,0.3059760630130768,0.3285000920295715,0.3746263384819031,0.4257702529430389
1629370476058,0.3249158263206482,0.3262955844402313,0.3588193953037262,0.4309644103050232
1629370476157,0.3476016521453857,0.321301519870758,0.3392388820648193,0.4318085014820099
1629370476192,0.3613604307174682,0.3140493035316467,0.3147028088569641,0.4283899366855621
1629370476310,0.362316370010376,0.3114200234413147,0.2853979766368866,0.4207684993743896
1629370476429,0.3557391166687011,0.3198373913764953,0.2538987100124359,0.4109463691711426
1629370476553,0.3483598828315735,0.3372879326343536,0.2244634330272674,0.4024330675601959
1629370476635,0.3422543406486511,0.3540697395801544,0.1997537463903427,0.3968028724193573
1629370476746,0.3355386555194855,0.3625793159008026,0.1808136701583862,0.3932109773159027
1629370476830,0.3278756141662597,0.3631111085414886,0.1676585972309112,0.3900044560432434
1629370477016,0.3229864537715912,0.3609063625335693,0.1598843038082122,0.3851157128810882
1629370477082,0.324776142835617,0.3611994385719299,0.1565399169921875,0.3758862316608429
1629370477164,0.3327424824237823,0.3658839464187622,0.1555162221193313,0.3606357872486114
1629370477320,0.3407623171806335,0.373774379491806,0.1546096205711364,0.3418754637241363
1629370477394,0.342422604560852,0.3830645680427551,0.1566068530082702,0.3258591890335083
1629370477481,0.3342235088348388,0.3926359415054321,0.1705906689167022,0.31822270154953
1629370477548,0.3174642324447632,0.4000479578971863,0.2025755494832992,0.3204124271869659
1629370477616,0.2982279062271118,0.4017458260059356,0.2437563091516494,0.3296959996223449
1629370477760,0.2846651971340179,0.3956505358219147,0.2769777774810791,0.3413873612880707
1629370477892,0.2810015082359314,0.3827463090419769,0.2910736203193664,0.3516296446323395
1629370477992,0.2842012643814087,0.3684145212173462,0.2872423827648163,0.3584263026714325
1629370478177,0.2891828119754791,0.3588506579399109,0.2743745744228363,0.3622362017631531
1629370478292,0.2939330637454986,0.3566143810749054,0.2622331082820892,0.3649051189422607
1629370478387,0.2987914383411407,0.3585617244243622,0.2566195726394653,0.3682608902454376
1629370478473,0.3029299974441528,0.3580192327499389,0.2596768140792846,0.3746956288814544
1629370478556,0.3045735955238342,0.3500468730926513,0.2683825194835663,0.3852249979972839
1629370478652,0.3032771944999695,0.3334467709064483,0.2768085896968841,0.3965325355529785
1629370478734,0.3015399873256683,0.310226172208786,0.2816561460494995,0.4020555019378662
1629370478839,0.3044306933879852,0.2836837470531463,0.2837827205657959,0.3965136110782623
1629370478894,0.313875675201416,0.2587814927101135,0.2831292152404785,0.3808378577232361
1629370478971,0.328430712223053,0.2429607659578323,0.2757400274276733,0.3609472513198852
1629370479067,0.3475877642631531,0.2446893900632858,0.2561649084091186,0.3411836326122284
1629370479144,0.3733450174331665,0.2662695348262787,0.2272715866565704,0.3223828375339508
1629370479291,0.4053598940372467,0.3016887009143829,0.2025308161973953,0.306537389755249
1629370479385,0.4376843869686126,0.3375096917152405,0.1952517628669738,0.2973110377788543
1629370479465,0.4622508585453033,0.3608092069625854,0.2061140388250351,0.2953889966011047
1629370479573,0.4749504327774048,0.3666127026081085,0.2243427634239196,0.2971490621566772
1629370479714,0.4778869152069092,0.35994952917099,0.241874948143959,0.3000480532646179
1629370479825,0.4765086770057678,0.3516283929347992,0.2582800686359405,0.3047030866146087
1629370479907,0.476993978023529,0.3497387766838074,0.2751131653785705,0.3090746402740478
1629370480012,0.4813958704471588,0.3540933132171631,0.2926624119281769,0.3080493211746216
1629370480102,0.4887449741363525,0.3611359000205993,0.3099643588066101,0.299824446439743
1629370480226,0.4973286688327789,0.3694895207881927,0.3243595361709595,0.2880111932754516
1629370480329,0.5043027997016907,0.379684567451477,0.3326606452465057,0.2845033407211303
1629370480435,0.508378803730011,0.3901945948600769,0.334666907787323,0.291764348745346
1629370480520,0.5088803768157959,0.3967314958572387,0.3328362107276916,0.3037618398666382
1629370480614,0.5042204856872559,0.3950844705104828,0.3307035267353058,0.3146061897277832
1629370480683,0.49064701795578,0.3834277987480163,0.3278359174728393,0.3243056237697601
1629370480840,0.4644930064678192,0.3614212870597839,0.3210668861865997,0.3349743485450744
1629370480909,0.4264714121818542,0.3342243731021881,0.3103685677051544,0.3469644784927368
1629370481008,0.3864863812923431,0.3078590929508209,0.3033819496631622,0.3595384955406189
1629370481092,0.3622229993343353,0.2833065092563629,0.303972065448761,0.3715194761753082
1629370481172,0.3663804829120636,0.2846408784389496,0.3107282221317291,0.3805389404296875
1629370481256,0.3663804829120636,0.3090457320213318,0.3160327076911926,0.3805389404296875
1629370481409,0.3663804829120636,0.3436863124370575,0.3105432391166687,0.3805389404296875
1629370481518,0.3663804829120636,0.3764440715312958,0.2925519049167633,0.3805389404296875
1629370481612,0.3663804829120636,0.3995063304901123,0.2709804177284241,0.3805389404296875
1629370481701,0.3663804829120636,0.4093429744243622,0.2574726641178131,0.3805389404296875
1629370481876,0.3663804829120636,0.407207190990448,0.2558246850967407,0.3805389404296875
1629370481937,0.3663804829120636,0.3984923958778381,0.2596474289894104,0.6697486639022827
1629370482037,0.5754337310791016,0.3890856504440307,0.2594586312770843,0.6527459025382996
1629370482154,0.5381404161453247,0.3813636302947998,0.2493428587913513,0.6301630735397339
1629370482189,0.5009747743606567,0.3755352199077606,0.2306575179100036,0.610987663269043
1629370482328,0.4729508459568023,0.3707073926925659,0.2108418494462967,0.5982444882392883
1629370482442,0.4537751972675323,0.362377792596817,0.1980484127998352,0.5878364443778992
1629370482495,0.439647912979126,0.3533290326595306,0.1999487727880478,0.5748769044876099
1629370482620,0.4279502630233764,0.3545809686183929,0.2052116394042968,0.5596364736557007
1629370482744,0.4202201664447784,0.3498205542564392,0.2163292914628982,0.5477935671806335
1629370482839,0.4181294441223144,0.3355627357959747,0.2349748611450195,0.5442838072776794
1629370482889,0.4193532168865204,0.3141230642795563,0.2541762590408325,0.5490239858627319
1629370483087,0.4194969236850738,0.295106828212738,0.2748751640319824,0.5569957494735718
1629370483161,0.4172884225845337,0.2898227572441101,0.2916005849838257,0.558012068271637
1629370483311,0.4034900963306427,0.3018569946289062,0.3059244155883789,0.5478478670120239
1629370483413,0.3853348195552826,0.3241288363933563,0.3216006755828857,0.5290817618370056
1629370483506,0.372726708650589,0.3462014198303222,0.3377685844898224,0.5077818036079407
1629370483604,0.3709638118743896,0.360125869512558,0.351834625005722,0.4889163374900818
1629370483667,0.3766805529594421,0.3640924990177154,0.3654341697692871,0.4738125503063202
1629370483734,0.3828661143779754,0.3608463406562805,0.3826501369476318,0.4603217542171478
1629370483843,0.3857476413249969,0.3553707003593445,0.4033885300159454,0.4472351670265198
1629370484003,0.3858537077903747,0.351449191570282,0.4216976165771484,0.4368727207183838
1629370484109,0.3843187093734741,0.3487844467163086,0.4311045706272125,0.4327840507030487
1629370484215,0.381059318780899,0.3464712500572204,0.4293485283851623,0.4351092278957367
1629370484302,0.375861644744873,0.3465280532836914,0.41714608669281,0.4390215575695038
1629370484412,0.3704346120357513,0.3519559800624847,0.3969764411449432,0.439640998840332
1629370484531,0.3679499924182892,0.3614816963672638,0.3742412030696869,0.4344941079616546
1629370484634,0.370097815990448,0.3693843185901642,0.3566793203353882,0.42530557513237
1629370484722,0.3730274140834808,0.3715102672576904,0.3469142913818359,0.4159902334213257
1629370484818,0.3704323172569275,0.3689386248588562,0.3410376906394958,0.4102727770805359
1629370484887,0.3592883646488189,0.3669385612010956,0.3361504673957824,0.4089207351207733
1629370484961,0.3438309729099273,0.3693406581878662,0.3345415294170379,0.4104802310466766
1629370485077,0.3330232203006744,0.3752558827400207,0.3368644118309021,0.4152623414993286
1629370485153,0.3323281705379486,0.3816747963428497,0.3360213935375213,0.4247613549232483
1629370485288,0.3382932841777801,0.3870925009250641,0.3244485557079315,0.4377887547016144
1629370485351,0.3460310995578766,0.3923088014125824,0.3035680055618286,0.449124664068222
1629370485513,0.3549655079841614,0.3992765247821808,0.2835311591625213,0.4537249207496643
1629370485559,0.3662740886211395,0.4095362424850464,0.2749576270580292,0.4500575065612793
1629370485640,0.3785777390003204,0.4217096269130707,0.280168741941452,0.4406901001930237
1629370485835,0.3874778151512146,0.4309213757514953,0.2940252721309662,0.4285106956958771
1629370485871,0.390947163105011,0.4325387179851532,0.309896856546402,0.4131774604320526
1629370486040,0.3933761417865753,0.4267967343330383,0.3223383724689483,0.3934347033500671
1629370486107,0.4029569327831268,0.4192226827144623,0.3270590901374817,0.3711619079113006
1629370486172,0.4233845174312591,0.4143254458904266,0.3236378133296966,0.3543376922607422
1629370486271,0.4482341706752777,0.4110132455825805,0.3145461082458496,0.3522227108478546
1629370486458,0.4683850407600403,0.4037116467952728,0.3039087951183319,0.3667040765285492
1629370486556,0.4777964353561401,0.3886564373970032,0.2968918979167938,0.3900313079357147
1629370486665,0.4765187799930572,0.3692238628864288,0.2995684146881103,0.4101620614528656
1629370486752,0.4677577614784241,0.3526022136211395,0.3149198889732361,0.4184049367904663
1629370486839,0.4559286534786224,0.3438316881656647,0.337093323469162,0.4137435853481293
1629370486970,0.4438574314117431,0.3425260484218597,0.3554790616035461,0.4024021625518799
1629370487016,0.4340645670890808,0.344078004360199,0.3636226058006286,0.3935087025165558
1629370487156,0.4305468201637268,0.3433700501918793,0.3619753718376159,0.3930820226669311
1629370487190,0.436504453420639,0.3380889296531677,0.3543700873851776,0.3999990224838257
1629370487267,0.4505675137042999,0.3307960927486419,0.3439244627952575,0.4094164371490478
1629370487430,0.4668008387088775,0.3271911144256592,0.3323175013065338,0.4185139834880829
1629370487503,0.4779742956161499,0.3310756683349609,0.3210603892803192,0.4274458885192871
1629370487596,0.4806887805461883,0.3383045196533203,0.3128609955310821,0.4361672401428222
1629370487747,0.4768385589122772,0.3420434296131134,0.3101451396942138,0.4408942461013794
1629370487775,0.4732034206390381,0.3411229252815246,0.3136430084705353,0.4367139637470245
1629370487918,0.4646197259426117,0.3413017988204956,0.320699393749237,0.4241768717765808
1629370488009,0.4664267599582672,0.3491861522197723,0.3265879452228546,0.4040946960449219
1629370488113,0.4770191311836242,0.3659804165363312,0.3272449076175689,0.3841898441314697
1629370488241,0.4933871924877167,0.3872119486331939,0.3214739263057709,0.3721569180488586
1629370488304,0.5149607062339783,0.4080747067928314,0.3110247850418091,0.3712280988693237
1629370488449,0.5412208437919617,0.4256967306137085,0.2984322607517242,0.3796203434467315
1629370488510,0.5678843855857849,0.4392983019351959,0.2868495881557464,0.392692506313324
1629370488631,0.5881224274635315,0.44954913854599,0.2786419093608856,0.4054712951183319
1629370488759,0.5985462665557861,0.4561686515808105,0.2747828960418701,0.4139361083507538
1629370488849,0.6017422676086426,0.4630087912082672,0.2748596668243408,0.4168008267879486
1629370488933,0.6032043099403381,0.4693204462528229,0.2804201543331146,0.4156355857849121
1629370489052,0.6032043099403381,0.457141250371933,0.2907409071922302,0.4156355857849121
1629370489116,0.6032043099403381,0.446523368358612,0.2998005151748657,0.4156355857849121
1629370489310,0.6032043099403381,0.4496481418609619,0.3056154549121856,0.4156355857849121
1629370489423,0.6032043099403381,0.4725527465343475,0.304993599653244,0.4156355857849121
1629370489472,0.6032043099403381,0.5073715448379517,0.2956768572330475,0.4156355857849121
1629370489545,0.6032043099403381,0.5408698320388794,0.2767952084541321,0.4156355857849121
1629370489609,0.6032043099403381,0.5464203953742981,0.2484273612499237,0.4156355857849121
1629370489692,0.6032043099403381,0.5483364462852478,0.2112987190485,0.4156355857849121
1629370489805,0.6032043099403381,0.5482228994369507,0.1694425642490387,0.4156355857849121
1629370489920,0.6032043099403381,0.5482202768325806,0.1332283616065979,0.4156355857849121
1629370490050,0.6032043099403381,0.5501676797866821,0.1762668788433075,0.4156355857849121
1629370490145,0.6032043099403381,0.5356841683387756,0.2528025805950165,0.4156355857849121
1629370490234,0.6032043099403381,0.5212520360946655,0.3321057558059692,0.4156355857849121
1629370490347,0.6032043099403381,0.4981957674026489,0.3933135569095611,0.4156355857849121
1629370490434,0.6032043099403381,0.4750150442123413,0.4279137551784515,0.4156355857849121
1629370490558,0.6032043099403381,0.4714524447917938,0.4214321374893188,0.541247546672821
1629370490672,0.5282485485076904,0.4637878239154815,0.419324517250061,0.5756740570068359
1629370490737,0.5219531059265137,0.445016473531723,0.4236244559288025,0.6048634648323059
1629370490822,0.5150711536407471,0.408008724451065,0.430854320526123,0.6233441233634949
1629370490975,0.5057676434516907,0.3497025966644287,0.4339622557163238,0.6289190053939819
1629370491051,0.4974597990512848,0.2703613936901092,0.4285837709903717,0.6222977042198181
1629370491165,0.4948540329933166,0.2678838670253753,0.4168329536914825,0.6063107252120972
1629370491293,0.4983912408351898,0.2626785337924957,0.4045314788818359,0.584863007068634
1629370491387,0.5045115351676941,0.2606862485408783,0.3963549435138702,0.5621418356895447
1629370491499,0.5045115351676941,0.2630984187126159,0.3926088213920593,0.5621418356895447
1629370491579,0.5045115351676941,0.2674765586853027,0.3927855491638183,0.5621418356895447
1629370491697,0.5045115351676941,0.2657414376735687,0.387714147567749,0.5621418356895447
1629370491859,0.5045115351676941,0.2688941359519958,0.3775995373725891,0.5692171454429626
1629370491931,0.498783677816391,0.2702584266662597,0.3663534224033355,0.5759990215301514
1629370492025,0.4937394559383392,0.2765039503574371,0.357642650604248,0.5785790681838989
1629370492064,0.4913635551929474,0.2868379056453705,0.3525319695472717,0.5722237229347229
1629370492195,0.490341305732727,0.2968533337116241,0.3494718670845032,0.5522111058235168
1629370492317,0.4894219040870666,0.3012435138225555,0.3479191958904266,0.5147545337677002
1629370492442,0.4914914071559906,0.2976895868778229,0.3501363694667816,0.4587389826774597
1629370492554,0.5023045539855957,0.289335548877716,0.359641432762146,0.3866437971591949
1629370492618,0.5023045539855957,0.2846643626689911,0.3769860565662384,0.3866437971591949
1629370492700,0.5023045539855957,0.3546811938285827,0.3980320394039154,0.3866437971591949
1629370492815,0.5023045539855957,0.4125323295593261,0.4181103706359863,0.3866437971591949
1629370492910,0.5023045539855957,0.4497250318527221,0.4351217746734619,0.3866437971591949
1629370493036,0.5677266716957092,0.4647193551063537,0.4494428634643554,0.3866437971591949
1629370493119,0.5753572583198547,0.4614020586013794,0.4629822075366974,0.4426584541797638
1629370493208,0.5788770914077759,0.445583313703537,0.4766678214073181,0.4418382048606872
1629370493395,0.5794716477394104,0.4236151874065399,0.4903100132942199,0.4365992844104767
1629370493470,0.5763821601867676,0.3924911916255951,0.5017097592353821,0.4343813955783844
1629370493544,0.5763821601867676,0.3674957752227783,0.5086909532546997,0.4393020868301391
1629370493634,0.5763821601867676,0.3498115539550781,0.511809229850769,0.4393020868301391
1629370493740,0.5763821601867676,0.3443436920642853,0.5141221284866333,0.4393020868301391
1629370493846,0.5763821601867676,0.3546813726425171,0.5166645050048828,0.4393020868301391
1629370493894,0.5763821601867676,0.3769920766353607,0.5173046588897705,0.4393020868301391
1629370494039,0.5763821601867676,0.4012746810913086,0.51416015625,0.4393020868301391
1629370494116,0.5763821601867676,0.4191542565822601,0.5077738165855408,0.4393020868301391
1629370494243,0.5835506319999695,0.4130493402481079,0.4998546540737152,0.4393020868301391
1629370494359,0.5893964767456055,0.3977213501930237,0.4887084066867828,0.4457186460494995
1629370494455,0.5894731283187866,0.3863228261470794,0.4717806875705719,0.4484541714191437
1629370494515,0.5848686099052429,0.3829900622367859,0.449055403470993,0.4438295364379883
1629370494626,0.5848686099052429,0.3904355466365814,0.4233163893222809,0.4359195530414581
1629370494776,0.5848686099052429,0.4079030454158783,0.399074524641037,0.4359195530414581
1629370494836,0.5848686099052429,0.4325679838657379,0.3860106766223907,0.4359195530414581
1629370494940,0.5848686099052429,0.4620724320411682,0.3731045126914978,0.4359195530414581
1629370495003,0.5848686099052429,0.4964650869369507,0.3646669089794159,0.4359195530414581
1629370495141,0.5848686099052429,0.5347821712493896,0.3560979068279266,0.4359195530414581
1629370495205,0.5848686099052429,0.5711489915847778,0.3438620269298553,0.4359195530414581
1629370495313,0.5848686099052429,0.5959768891334534,0.327018529176712,0.4359195530414581
1629370495441,0.5848686099052429,0.5959768891334534,0.3092622458934784,0.4359195530414581
1629370495525,0.5848686099052429,0.5959768891334534,0.2961285412311554,0.4359195530414581
1629370495726,0.5848686099052429,0.5959768891334534,0.2919350564479828,0.4359195530414581
1629370495841,0.5848686099052429,0.5959768891334534,0.2970160841941833,0.4359195530414581
1629370495908,0.5459235310554504,0.4352149069309234,0.3103911578655243,0.3894261419773102
1629370496010,0.5600705146789551,0.4205464422702789,0.3278595209121704,0.3804310262203216
1629370496125,0.5618720650672913,0.3929359316825866,0.3446342945098877,0.3646859228610992
1629370496184,0.5497502684593201,0.3627610206604004,0.3558607697486877,0.3483891487121582
1629370496294,0.5314295291900635,0.3373006880283355,0.3587866127490997,0.3389635980129242
1629370496400,0.5314295291900635,0.3196017444133758,0.3498446345329284,0.3389635980129242
1629370496497,0.5314295291900635,0.3099558651447296,0.341527372598648,0.3389635980129242
1629370496577,0.5314295291900635,0.3071631193161011,0.334615021944046,0.3389635980129242
1629370496693,0.5314295291900635,0.3111878633499145,0.3323574662208557,0.3389635980129242
1629370496759,0.5314295291900635,0.3111878633499145,0.3358310461044311,0.3389635980129242
1629370496845,0.5314295291900635,0.3111878633499145,0.3474343419075012,0.3389635980129242
1629370496971,0.5314295291900635,0.3111878633499145,0.3692714869976043,0.3389635980129242
1629370497108,0.5369378924369812,0.3094651699066162,0.4010315239429474,0.3320160508155823
1629370497127,0.5388124585151672,0.2932381927967071,0.3979630172252655,0.3222401142120361
1629370497275,0.534076988697052,0.2644291222095489,0.3905827105045318,0.3052994310855865
1629370497460,0.5164350867271423,0.2327345609664917,0.3809641003608703,0.2818571627140045
1629370497492,0.5164350867271423,0.2118091732263565,0.3735438585281372,0.2818571627140045
1629370497572,0.5164350867271423,0.2103989124298095,0.3720172047615051,0.2818571627140045
1629370497675,0.5164350867271423,0.2268376052379608,0.3781942129135132,0.2818571627140045
1629370497831,0.5164350867271423,0.3428930342197418,0.3923292756080627,0.2818571627140045
1629370498004,0.5164350867271423,0.4099655151367187,0.4139493703842163,0.2818571627140045
1629370498084,0.5164350867271423,0.4451727867126465,0.4432859718799591,0.2818571627140045
1629370498214,0.5164350867271423,0.4625130295753479,0.4818082749843597,0.2818571627140045
1629370498300,0.5164350867271423,0.464405745267868,0.479288786649704,0.2818571627140045
1629370498391,0.5164350867271423,0.444629818201065,0.4660683870315552,0.2818571627140045
1629370498459,0.5164350867271423,0.4284924268722534,0.4288950860500335,0.2818571627140045
1629370498577,0.5164350867271423,0.4191081821918487,0.3529874980449676,0.2818571627140045
1629370498657,0.5164350867271423,0.4145781695842743,0.2124664336442947,0.2818571627140045
1629370498746,0.5164350867271423,0.4145781695842743,0.2378200739622116,0.2818571627140045
1629370498834,0.5164350867271423,0.4145781695842743,0.2580936253070831,0.2818571627140045
1629370498910,0.5164350867271423,0.4145781695842743,0.2722011208534241,0.2818571627140045
1629370498977,0.5164350867271423,0.4145781695842743,0.2838149964809418,0.2818571627140045
1629370499070,0.5164350867271423,0.4145781695842743,0.2959795594215393,0.2818571627140045
1629370499171,0.5164350867271423,0.4145781695842743,0.3083588182926178,0.2818571627140045
1629370499268,0.5164350867271423,0.3878592252731323,0.319510817527771,0.2818571627140045
1629370499465,0.5164350867271423,0.3673369884490967,0.327847421169281,0.2818571627140045
1629370499538,0.5164350867271423,0.3552350997924804,0.3313259184360504,0.2818571627140045
1629370499631,0.5164350867271423,0.3475231230258941,0.328713446855545,0.2818571627140045
1629370499756,0.5164350867271423,0.3429912328720093,0.3282768130302429,0.2818571627140045
1629370499827,0.5164350867271423,0.3429912328720093,0.3227448463439941,0.2818571627140045
1629370499942,0.5164350867271423,0.3429912328720093,0.3156060576438904,0.2818571627140045
1629370500000,0.5164350867271423,0.3429912328720093,0.3089517652988434,0.2818571627140045
1629370500110,0.5164350867271423,0.3429912328720093,0.3051094114780426,0.2818571627140045
1629370500233,0.5164350867271423,0.3429912328720093,0.307210624217987,0.2818571627140045
1629370500384,0.5164350867271423,0.3429912328720093,0.3156132996082306,0.2818571627140045
1629370500459,0.5164350867271423,0.3429912328720093,0.326703131198883,0.2818571627140045
1629370500563,0.5164350867271423,0.3429912328720093,0.3355669975280761,0.2818571627140045
1629370500655,0.5164350867271423,0.3429912328720093,0.3391883671283722,0.2818571627140045
1629370500828,0.5164350867271423,0.3429912328720093,0.3366729021072387,0.2818571627140045
1629370500963,0.5164350867271423,0.3429912328720093,0.3280968368053436,0.2818571627140045
1629370501056,0.5164350867271423,0.3429912328720093,0.3169603943824768,0.586107611656189
1629370501154,0.6680070161819458,0.6517585515975952,0.3107548058032989,0.6203968524932861
1629370501233,0.6680070161819458,0.6384007930755615,0.3147284984588623,0.6203968524932861
1629370501304,0.6680070161819458,0.6205219626426697,0.3269985616207123,0.6203968524932861
1629370501368,0.6680070161819458,0.6205219626426697,0.3430283963680267,0.6203968524932861
1629370501436,0.6680070161819458,0.6205219626426697,0.3597275912761688,0.6203968524932861
1629370501523,0.6680070161819458,0.6205219626426697,0.375297486782074,0.6345679759979248
1629370501634,0.6680070161819458,0.6205219626426697,0.3853484094142914,0.6345679759979248
1629370501754,0.6680070161819458,0.6205219626426697,0.3863603770732879,0.6345679759979248
1629370501818,0.6680070161819458,0.6205219626426697,0.3779333829879761,0.6345679759979248
1629370501926,0.6680070161819458,0.6205219626426697,0.3634397387504577,0.6345679759979248
1629370502082,0.6680070161819458,0.6205219626426697,0.3472674489021301,0.6345679759979248
1629370502156,0.6680070161819458,0.6205219626426697,0.3326441943645477,0.6345679759979248
1629370502219,0.6680070161819458,0.6281594634056091,0.3236185610294342,0.6345679759979248
1629370502411,0.6680070161819458,0.6194420456886292,0.3266846537590027,0.6345679759979248
1629370502539,0.6680070161819458,0.6194420456886292,0.3426247537136078,0.6345679759979248
1629370502617,0.6680070161819458,0.6194420456886292,0.3426247537136078,0.6345679759979248
1629370502703,0.6680070161819458,0.6194420456886292,0.3426247537136078,0.6345679759979248
1629370502783,0.6680070161819458,0.6194420456886292,0.3426247537136078,0.6345679759979248
1629370502844,0.6680070161819458,0.6194420456886292,0.3426247537136078,0.6345679759979248
1629370503024,0.6680070161819458,0.6194420456886292,0.3426247537136078,0.6345679759979248
1629370503121,0.6680070161819458,0.6194420456886292,0.3426247537136078,0.6345679759979248
1629370503213,0.6680070161819458,0.6194420456886292,0.3426247537136078,0.6345679759979248
1629370503315,0.6680070161819458,0.6194420456886292,0.3426247537136078,0.6345679759979248
1629370503465,0.6680070161819458,0.6194420456886292,0.3426247537136078,0.6345679759979248
1629370503523,0.6680070161819458,0.6194420456886292,0.3426247537136078,0.6345679759979248
1629370503622,0.6680070161819458,0.6194420456886292,0.3426247537136078,0.6345679759979248
1629370503688,0.6680070161819458,0.6194420456886292,0.3426247537136078,0.6345679759979248
1629370503736,0.6680070161819458,0.6194420456886292,0.3426247537136078,0.6345679759979248
1629370503817,0.6680070161819458,0.6194420456886292,0.3426247537136078,0.6345679759979248
1629370503943,0.6680070161819458,0.6194420456886292,0.3426247537136078,0.6345679759979248
1629370504024,0.6680070161819458,0.6194420456886292,0.3426247537136078,0.6345679759979248
1629370504164,0.6680070161819458,0.6194420456886292,0.3426247537136078,0.6345679759979248
1629370504221,0.6680070161819458,0.6194420456886292,0.3426247537136078,0.6345679759979248
1629370504308,0.6680070161819458,0.6194420456886292,0.3426247537136078,0.6345679759979248
1629370504412,0.6680070161819458,0.6194420456886292,0.3426247537136078,0.6345679759979248
1629370504588,0.6680070161819458,0.6194420456886292,0.3426247537136078,0.6345679759979248
1629370504712,0.6680070161819458,0.6194420456886292,0.3426247537136078,0.6345679759979248
1629370504762,0.6680070161819458,0.6194420456886292,0.3652578294277191,0.6345679759979248
1629370504872,0.6680070161819458,0.7780987620353699,0.4106831550598144,0.6345679759979248
1629370504971,0.6680070161819458,0.7628929018974304,0.4497461318969726,0.6345679759979248
1629370505045,0.6680070161819458,0.7418481111526489,0.4704188108444214,0.6345679759979248
1629370505241,0.6680070161819458,0.7194653153419495,0.4704188108444214,0.6345679759979248
1629370505335,0.6680070161819458,0.6983461380004883,0.459941953420639,0.6345679759979248
1629370505431,0.6680070161819458,0.680086076259613,0.459941953420639,0.6345679759979248
1629370505503,0.6680070161819458,0.6647109389305115,0.462496280670166,0.6345679759979248
1629370505693,0.6680070161819458,0.6500300168991089,0.4761779010295868,0.6345679759979248
1629370505779,0.6680070161819458,0.6338807344436646,0.4958165884017944,0.8426710367202759
1629370505884,0.6680070161819458,0.6162808537483215,0.5158246755599976,0.8766967058181763
1629370505946,0.6680070161819458,0.5996391773223877,0.5317791104316711,0.8939003348350525
1629370506016,0.6680070161819458,0.5860205292701721,0.556286096572876,0.8982808589935303
1629370506088,0.6680070161819458,0.560947597026825,0.5708000659942627,0.8899608254432678
1629370506209,0.6680070161819458,0.5297114849090576,0.5786352753639221,0.8732348680496216
1629370506292,0.6680070161819458,0.4948965013027191,0.5868091583251953,0.8802649974822998
1629370506379,0.6680070161819458,0.4603306651115417,0.6025919914245605,0.8955409526824951
1629370506499,0.6680070161819458,0.4319446086883545,0.6023813486099243,0.9176272749900818
1629370506634,0.6680070161819458,0.4150122106075287,0.6045947074890137,0.9176272749900818
1629370506706,0.6680070161819458,0.4031846523284912,0.6045947074890137,0.9176272749900818
1629370506859,0.6680070161819458,0.39356130361557,0.6218695044517517,0.9176272749900818
1629370506875,0.6680070161819458,0.3836853504180908,0.6218695044517517,0.9176272749900818
1629370507027,0.6680070161819458,0.372061550617218,0.6349253058433533,0.9176272749900818
1629370507078,0.6680070161819458,0.3613114655017853,0.6409909725189209,0.9176272749900818
1629370507233,0.6680070161819458,0.3568231761455536,0.6389790177345276,0.8962259292602539
1629370507327,0.6680070161819458,0.3613887131214142,0.6297561526298523,0.8688684105873108
1629370507426,0.6680070161819458,0.3685539364814758,0.6171132922172546,0.8688684105873108
1629370507474,0.6680070161819458,0.3669431805610657,0.5953402519226074,0.8688684105873108
1629370507685,0.6680070161819458,0.3628631830215454,0.5740991234779358,0.8688684105873108
1629370507745,0.6680070161819458,0.3654913902282715,0.5492998957633972,0.8688684105873108
1629370507852,0.6680070161819458,0.3762707412242889,0.5049614310264587,0.8688684105873108
1629370507917,0.6680070161819458,0.3909487426280975,0.4105472862720489,0.9915016889572144
1629370508045,0.6680070161819458,0.3996717631816864,0.4112676084041595,0.9609065055847168
1629370508100,0.6680070161819458,0.392641007900238,0.4180956184864044,0.9380725026130676
1629370508235,0.6680070161819458,0.3817721009254455,0.4283482730388641,0.9225199818611144
1629370508353,0.6680070161819458,0.3678027391433716,0.4377451539039612,0.912244439125061
1629370508482,0.8190841674804688,0.352762758731842,0.4420855045318603,0.9048003554344176
1629370508539,0.7996704578399658,0.3376126289367676,0.4402376413345337,0.8978347182273865
1629370508628,0.7695938348770142,0.3225471079349518,0.4353809356689453,0.88899827003479
1629370508717,0.7363483905792236,0.3088622093200683,0.4327704906463623,0.8765655755996704
1629370508947,0.7077792882919312,0.29784095287323,0.43524369597435,0.8611149191856384
1629370508989,0.6887938976287842,0.2852257490158081,0.4421440958976745,0.8441176414489746
1629370509168,0.6785163879394531,0.2769301831722259,0.4469794631004333,0.8272868990898132
1629370509218,0.674932599067688,0.268013060092926,0.4638627767562866,0.7892037630081177
1629370509286,0.6749330759048462,0.2554027438163757,0.4889476597309112,0.752248227596283
1629370509380,0.6741253137588501,0.2414080202579498,0.5118824243545532,0.7229794263839722
1629370509526,0.6697390675544739,0.2298390865325927,0.5247989892959595,0.7048758864402771
1629370509567,0.6637975573539734,0.2216902524232864,0.5271565914154053,0.6940770149230957
1629370509671,0.6488775014877319,0.214769572019577,0.5228978991508484,0.6818642616271973
1629370509772,0.6371116638183594,0.2072029262781143,0.5155268907546997,0.6630041003227234
1629370509876,0.6299485564231873,0.1991040110588073,0.5069330930709839,0.636917233467102
1629370509977,0.6291744709014893,0.192907229065895,0.4992320537567138,0.6077396869659424
1629370510140,0.6388681530952454,0.1926854401826858,0.4942924082279205,0.5828900933265686
1629370510292,0.6617580652236938,0.2026205062866211,0.4910648465156555,0.5743488669395447
1629370510338,0.6937255263328552,0.2219227999448776,0.4863010942935943,0.5912289023399353
1629370510471,0.7247177958488464,0.2451156675815582,0.4780488908290863,0.6262056827545166
1629370510528,0.7453538179397583,0.2660613358020782,0.4667487740516662,0.6625281572341919
1629370510597,0.7525907158851624,0.2824068665504455,0.4524470865726471,0.6887999176979065
1629370510690,0.7480857968330383,0.2955512404441833,0.4328953325748443,0.7045181393623352
1629370510738,0.7528678774833679,0.3081690073013305,0.4077146649360657,0.7150869965553284
1629370510874,0.7589868307113647,0.3084838688373565,0.3813494741916656,0.7239841222763062
1629370510987,0.7694708704948425,0.3059708476066589,0.3601110577583313,0.7305137515068054
1629370511035,0.7837308049201965,0.3036201000213623,0.3453444242477417,0.736152172088623
1629370511102,0.7976527810096741,0.3061918020248413,0.3336431682109833,0.7454034686088562
1629370511274,0.8075610995292664,0.3173851668834686,0.3318877816200256,0.7631819248199463
1629370511410,0.8130102157592773,0.3373017907142639,0.3303503096103668,0.7905864119529724
1629370511490,0.8155901432037354,0.3627865314483642,0.3298702538013458,0.824199378490448
1629370511547,0.8150007128715515,0.3886776268482208,0.3305089473724365,0.8585862517356873
1629370511656,0.8045463562011719,0.4087598621845245,0.3325151205062866,0.8841181993484497
1629370511879,0.7740287184715271,0.4183836579322815,0.3357458710670471,0.888424277305603
1629370511970,0.7740287184715271,0.4174673855304718,0.3383985757827759,0.888424277305603
1629370512050,0.7740287184715271,0.4174673855304718,0.3215966522693634,0.888424277305603
1629370512118,0.7740287184715271,0.4174673855304718,0.2981179058551788,0.888424277305603
1629370512172,0.7740287184715271,0.4174673855304718,0.280137836933136,0.888424277305603
1629370512274,0.7740287184715271,0.4174673855304718,0.2765575647354126,0.888424277305603
1629370512374,0.7740287184715271,0.4174673855304718,0.2866612672805786,0.888424277305603
1629370512507,0.7740287184715271,0.4174673855304718,0.3054142296314239,0.888424277305603
1629370512553,0.7740287184715271,0.4174673855304718,0.332218736410141,0.888424277305603
1629370512663,0.7740287184715271,0.4174673855304718,0.3696064054965973,0.888424277305603
1629370512853,0.7740287184715271,0.4174673855304718,0.397250771522522,0.888424277305603
1629370512975,0.7740287184715271,0.4174673855304718,0.431410402059555,0.888424277305603
1629370513093,0.7740287184715271,0.4174673855304718,0.4630787372589111,0.888424277305603
1629370513171,0.7740287184715271,0.4174673855304718,0.4842115044593811,0.888424277305603
1629370513235,0.7740287184715271,0.4174673855304718,0.4842115044593811,0.888424277305603
1629370513300,0.7740287184715271,0.4174673855304718,0.4842115044593811,0.888424277305603
1629370513426,0.7740287184715271,0.4174673855304718,0.4842115044593811,0.888424277305603
1629370513535,0.7740287184715271,0.4174673855304718,0.5030953288078308,0.888424277305603
1629370513640,0.7740287184715271,0.4174673855304718,0.5246583819389343,0.888424277305603
1629370513776,0.7740287184715271,0.4174673855304718,0.5446858406066895,0.888424277305603
1629370513909,0.7740287184715271,0.4174673855304718,0.5612311959266663,0.888424277305603
1629370513982,0.7740287184715271,0.4174673855304718,0.576574444770813,0.888424277305603
1629370514140,0.7740287184715271,0.4174673855304718,0.5955288410186768,0.888424277305603
1629370514217,0.7740287184715271,0.4174673855304718,0.6209520101547241,0.888424277305603
1629370514244,0.7740287184715271,0.4174673855304718,0.6497172713279724,0.888424277305603
1629370514374,0.7740287184715271,0.4174673855304718,0.5935298204421997,0.888424277305603
1629370514438,0.7740287184715271,0.4174673855304718,0.5214946269989014,0.888424277305603
1629370514516,0.7740287184715271,0.4174673855304718,0.4381961524486542,0.888424277305603
1629370514594,0.7740287184715271,0.4174673855304718,0.3586561977863312,0.888424277305603
1629370514794,0.7740287184715271,0.4174673855304718,0.372851550579071,0.888424277305603
1629370514822,0.7740287184715271,0.4174673855304718,0.372495025396347,0.888424277305603
1629370514941,0.7740287184715271,0.4174673855304718,0.3644818067550659,0.888424277305603
1629370515056,0.7740287184715271,0.4174673855304718,0.353959172964096,0.888424277305603
1629370515149,0.7740287184715271,0.4174673855304718,0.3434390723705292,0.888424277305603
1629370515292,0.7740287184715271,0.4174673855304718,0.3339532613754272,0.888424277305603
1629370515340,0.7740287184715271,0.4174673855304718,0.3257009387016296,0.888424277305603
1629370515417,0.7740287184715271,0.4174673855304718,0.3179667592048645,0.888424277305603
1629370515558,0.7740287184715271,0.4174673855304718,0.3083932399749756,0.888424277305603
1629370515656,0.7740287184715271,0.4174673855304718,0.2949075996875763,0.888424277305603
1629370515706,0.7740287184715271,0.4174673855304718,0.2776249647140503,0.888424277305603
1629370515842,0.7740287184715271,0.4174673855304718,0.2637834250926971,0.888424277305603
1629370515924,0.7740287184715271,0.4174673855304718,0.2411606162786483,0.888424277305603
1629370516061,0.7740287184715271,0.4174673855304718,0.2112577110528946,0.888424277305603
1629370516233,0.7740287184715271,0.4174673855304718,0.1786959022283554,0.888424277305603
1629370516295,0.7740287184715271,0.4174673855304718,0.14947010576725,0.888424277305603
1629370516367,0.7740287184715271,0.4174673855304718,0.1285811215639114,0.888424277305603
1629370516432,0.7740287184715271,0.4092589914798736,0.1179915890097618,0.888424277305603
1629370516524,0.7740287184715271,0.4232496619224548,0.1173220872879028,0.888424277305603
1629370516624,0.7740287184715271,0.4339564740657806,0.124083861708641,0.888424277305603
1629370516804,0.7740287184715271,0.4400446116924286,0.1333871334791183,0.888424277305603
1629370516891,0.7740287184715271,0.4411610662937164,0.1252967864274978,0.888424277305603
1629370516944,0.7740287184715271,0.4371878802776336,0.1288057118654251,0.888424277305603
1629370517057,0.7740287184715271,0.4281670749187469,0.1312325000762939,0.888424277305603
1629370517138,0.7740287184715271,0.4148942828178406,0.1377346813678741,0.888424277305603
1629370517225,0.7740287184715271,0.3987509608268738,0.151696115732193,0.888424277305603
1629370517359,0.7740287184715271,0.38198122382164,0.1729198992252349,0.888424277305603
1629370517445,0.7740287184715271,0.3678407669067383,0.1979196220636367,0.888424277305603
1629370517557,0.7740287184715271,0.3592070341110229,0.2220384627580642,0.888424277305603
1629370517694,0.7740287184715271,0.3557988405227661,0.2395229339599609,0.888424277305603
1629370517756,0.7740287184715271,0.3553617000579834,0.2487790733575821,0.888424277305603
1629370517849,0.5042406916618347,0.355138748884201,0.2531857490539551,0.2607495784759521
1629370518071,0.502057671546936,0.3538475334644317,0.2580267190933227,0.2505219578742981
1629370518211,0.491407036781311,0.3497539162635803,0.2643073797225952,0.2559808492660522
1629370518301,0.4812266528606415,0.3416192531585693,0.2681332230567932,0.2705675959587097
1629370518385,0.477791428565979,0.3298150897026062,0.265682965517044,0.2852402329444885
1629370518464,0.4782591760158539,0.3172226548194885,0.2624484300613403,0.2949393987655639
1629370518532,0.475763201713562,0.3082196116447449,0.2580978274345398,0.2988080978393554
1629370518598,0.4668944776058197,0.3067358732223511,0.2603417038917541,0.298021525144577
1629370518679,0.4533507525920868,0.3142314553260803,0.2668156921863556,0.2954194247722626
1629370518811,0.4389316737651825,0.3290305733680725,0.2713342607021332,0.2941796779632568
1629370518833,0.4272218644618988,0.3478094041347503,0.2708734571933746,0.2952045500278473
1629370519023,0.4212182164192199,0.3680777251720428,0.2693227231502533,0.2960519790649414
1629370519069,0.4200030863285064,0.388089507818222,0.2727437019348144,0.2921737134456634
1629370519206,0.4132559895515442,0.4053173065185547,0.2827061116695404,0.2931562662124634
1629370519293,0.401108980178833,0.4166810214519501,0.2938328981399536,0.2989592552185058
1629370519360,0.3866062462329864,0.4209881126880646,0.2987368404865265,0.3082095384597778
1629370519457,0.3743517398834228,0.4198268055915832,0.300885945558548,0.3171437382698059
1629370519590,0.3672089278697967,0.4193310439586639,0.2973437011241913,0.3208490908145904
1629370519676,0.3609101772308349,0.4221075177192688,0.2913615107536316,0.3171864748001098
1629370519800,0.3460113704204559,0.4301249980926513,0.2901704907417297,0.3080873787403106
1629370519892,0.318550556898117,0.4427977204322815,0.2970651984214782,0.2977155148983001
1629370519988,0.2859401404857635,0.4577796757221222,0.3075383901596069,0.2904866933822632
1629370520173,0.2632129788398742,0.4726472198963165,0.3153233826160431,0.2905891537666321
1629370520218,0.2632129788398742,0.4859656095504761,0.3215075731277466,0.2905891537666321
1629370520295,0.2632129788398742,0.4982822835445404,0.3337790668010711,0.2905891537666321
1629370520462,0.2632129788398742,0.510906457901001,0.3568261861801147,0.2905891537666321
1629370520603,0.2632129788398742,0.4870109558105469,0.3575976490974426,0.2905891537666321
1629370520687,0.2632129788398742,0.4468973875045776,0.3375555276870727,0.2905891537666321
1629370520753,0.2632129788398742,0.3959397375583648,0.3173877596855163,0.2905891537666321
1629370520813,0.2632129788398742,0.3617971241474151,0.3010573387145996,0.2905891537666321
1629370520889,0.2632129788398742,0.3771048784255981,0.3041727244853973,0.2905891537666321
1629370521043,0.2632129788398742,0.3771048784255981,0.3041727244853973,0.2905891537666321
1629370521105,0.2632129788398742,0.3771048784255981,0.3041727244853973,0.2905891537666321
1629370521291,0.2632129788398742,0.433208703994751,0.3041727244853973,0.2905891537666321
1629370521324,0.2632129788398742,0.4613831341266632,0.3041727244853973,0.2905891537666321
1629370521436,0.2632129788398742,0.480394572019577,0.3041727244853973,0.2905891537666321
1629370521560,0.2632129788398742,0.4950667917728424,0.3041727244853973,0.2905891537666321
1629370521625,0.2632129788398742,0.5031632781028748,0.3002162575721741,0.2905891537666321
1629370521738,0.2632129788398742,0.5038661360740662,0.3090329170227051,0.2905891537666321
1629370521833,0.2632129788398742,0.4982549548149109,0.3184852600097656,0.2905891537666321
1629370521959,0.5730313062667847,0.4880817234516144,0.3102603554725647,0.2905891537666321
1629370522020,0.5796570181846619,0.4866910278797149,0.2992900311946869,0.2905891537666321
1629370522153,0.577092707157135,0.4885228872299194,0.2797248959541321,0.2905891537666321
1629370522284,0.5687891244888306,0.4964679181575775,0.2461581379175186,0.2905891537666321
1629370522393,0.5645372271537781,0.5067893266677856,0.2311870604753494,0.2905891537666321
1629370522440,0.5738686323165894,0.5104061365127563,0.2287520319223404,0.2905891537666321
1629370522559,0.5938182473182678,0.5130515098571777,0.2332982867956161,0.2905891537666321
1629370522622,0.6133323311805725,0.5094754099845886,0.2380896806716919,0.5893458127975464
1629370522723,0.6234042048454285,0.489368736743927,0.2390191107988357,0.5507341027259827
1629370522990,0.62227863073349,0.4672793745994568,0.2364456057548523,0.5159626603126526
1629370523067,0.6141961812973022,0.4431592524051666,0.2353639155626297,0.4857537150382995
1629370523155,0.6040873527526855,0.4187533855438232,0.2418266832828521,0.461586982011795
1629370523220,0.5942816734313965,0.3990150094032287,0.2584017515182495,0.4456211626529693
1629370523294,0.5868862867355347,0.3862259685993194,0.2842728197574615,0.4373325705528259
1629370523352,0.577976405620575,0.379574716091156,0.3159202933311462,0.4337283670902252
1629370523508,0.5655556321144104,0.3783276975154876,0.3470920920372009,0.4324668645858764
1629370523610,0.5517041087150574,0.3810349404811859,0.371759295463562,0.4325121343135834
1629370523650,0.5385392904281616,0.3817921578884125,0.3867610096931457,0.4329205453395843
1629370523759,0.5253155827522278,0.3722805082798004,0.3923932313919067,0.4320284426212311
1629370523860,0.5247215628623962,0.3485353887081146,0.3904269933700561,0.4067185223102569
1629370523937,0.514231264591217,0.3157957196235657,0.382257729768753,0.381969004869461
1629370524169,0.4886486232280731,0.2864051461219787,0.3700424432754516,0.3647551238536834
1629370524207,0.4508004188537597,0.2707118391990661,0.3587287068367004,0.3569579422473907
1629370524282,0.4115930497646332,0.2657606303691864,0.3547337353229522,0.357770025730133
1629370524372,0.3829829096794128,0.2685734033584595,0.3637212216854095,0.3654464781284332
1629370524447,0.367109477519989,0.2744545638561249,0.3729760944843292,0.3788619041442871
1629370524577,0.3572717010974884,0.2785889506340027,0.3768585324287414,0.395583838224411
1629370524755,0.3486376702785492,0.2770396173000335,0.3674741685390472,0.4108067750930786
1629370524831,0.3390804827213287,0.2947818040847778,0.3369762897491455,0.4212217628955841
1629370524949,0.3262476921081543,0.3142956495285034,0.2833370864391327,0.4273189604282379
1629370525045,0.3262476921081543,0.3320836722850799,0.2227656692266464,0.4273189604282379
1629370525119,0.3262476921081543,0.34332475066185,0.1774818450212478,0.4273189604282379
1629370525252,0.3262476921081543,0.3504711389541626,0.1600205451250076,0.4273189604282379
1629370525361,0.3262476921081543,0.3652234375476837,0.1621777117252349,0.4273189604282379
1629370525449,0.3262476921081543,0.3975750505924225,0.1715636253356933,0.4273189604282379
1629370525543,0.3262476921081543,0.4426515102386474,0.1855966597795486,0.4273189604282379
1629370525610,0.3262476921081543,0.4846786558628082,0.2090460062026977,0.4273189604282379
1629370525677,0.3262476921081543,0.5128554701805115,0.2393406182527542,0.4273189604282379
1629370525808,0.3262476921081543,0.5115882158279419,0.2633543908596039,0.4273189604282379
1629370525908,0.3262476921081543,0.5044555068016052,0.2726787030696869,0.4273189604282379
1629370526042,0.3262476921081543,0.4967240691184997,0.271791934967041,0.4273189604282379
1629370526093,0.3262476921081543,0.4902232885360718,0.2660759687423706,0.4273189604282379
1629370526194,0.3262476921081543,0.4839454293251037,0.2631126046180725,0.4273189604282379
1629370526291,0.3262476921081543,0.477790892124176,0.2656604051589966,0.4273189604282379
1629370526434,0.3262476921081543,0.469503253698349,0.2689604759216308,0.4273189604282379
1629370526528,0.3262476921081543,0.4618319869041443,0.2741766571998596,0.4273189604282379
1629370526574,0.3262476921081543,0.4589317739009857,0.2766285538673401,0.4273189604282379
1629370526723,0.3262476921081543,0.4645507335662842,0.2754983305931091,0.4273189604282379
1629370526785,0.3262476921081543,0.4752976596355438,0.2724825739860534,0.4273189604282379
1629370526955,0.3262476921081543,0.4810533821582794,0.2686561048030853,0.4273189604282379
1629370527002,0.3262476921081543,0.4741694033145904,0.2632536888122558,0.4273189604282379
1629370527146,0.3262476921081543,0.4569772481918335,0.2537397146224975,0.4273189604282379
1629370527226,0.4302469491958618,0.4387570917606354,0.2391121387481689,0.1284587979316711
1629370527326,0.4165486693382263,0.4271426498889923,0.2217400223016739,0.1381515562534332
1629370527440,0.4043977260589599,0.4237273037433624,0.2066854685544967,0.1488126665353775
1629370527488,0.3951060175895691,0.4266030192375183,0.1980914920568466,0.1594963371753692
1629370527582,0.3951060175895691,0.4342506229877472,0.1946307867765426,0.1594963371753692
1629370527752,0.3951060175895691,0.4465102255344391,0.1901409476995468,0.1594963371753692
1629370527843,0.3951060175895691,0.4623884558677673,0.1805479526519775,0.1594963371753692
1629370527942,0.3951060175895691,0.4791840016841888,0.1693944483995437,0.1594963371753692
1629370528108,0.3951060175895691,0.4921005964279175,0.1661720126867294,0.1594963371753692
1629370528170,0.3951060175895691,0.496692031621933,0.1761714816093444,0.1594963371753692
1629370528269,0.3951060175895691,0.4918082058429718,0.1927668303251266,0.1594963371753692
1629370528363,0.3951060175895691,0.4822979569435119,0.1954234391450882,0.1594963371753692
1629370528470,0.3805610835552215,0.4756067097187042,0.2034386396408081,0.1763023883104324
1629370528544,0.3635804057121277,0.4746540486812591,0.2151471823453903,0.1861119121313095
1629370528619,0.3515026271343231,0.4752063155174255,0.2286689579486847,0.1907652914524078
1629370528744,0.3515026271343231,0.4719851613044739,0.243183359503746,0.1907652914524078
1629370528825,0.3515026271343231,0.4647771418094635,0.2575786113739013,0.1907652914524078
1629370528957,0.3515026271343231,0.4554080665111542,0.2740653157234192,0.1907652914524078
1629370529041,0.3515026271343231,0.4447186887264251,0.2925910055637359,0.1907652914524078
1629370529194,0.3515026271343231,0.4342763125896454,0.3086378872394562,0.1907652914524078
1629370529224,0.2349654287099838,0.4255580902099609,0.318267673254013,0.4284635484218597
1629370529404,0.2252176105976104,0.4185025990009308,0.3226067721843719,0.410519391298294
1629370529437,0.2079970389604568,0.4119269251823425,0.3266705572605133,0.3904857337474823
1629370529632,0.1898064166307449,0.4071157872676849,0.3355816900730133,0.3765392303466797
1629370529659,0.1852360069751739,0.4078874289989471,0.3515579998493194,0.3699213862419128
1629370529759,0.2020915299654007,0.4152202904224396,0.3730532824993133,0.3666090965270996
1629370529831,0.2020915299654007,0.4247248768806457,0.3917028307914734,0.3666090965270996
1629370529935,0.2020915299654007,0.4312993884086609,0.3987314105033874,0.3666090965270996
1629370530039,0.2020915299654007,0.4335157573223114,0.3987314105033874,0.3666090965270996
1629370530159,0.2020915299654007,0.4345492422580719,0.4087347984313965,0.3666090965270996
1629370530234,0.2020915299654007,0.4459600150585174,0.4168308973312378,0.3666090965270996
1629370530417,0.2020915299654007,0.4644639492034912,0.4239665269851684,0.3666090965270996
1629370530479,0.1924821138381958,0.484955221414566,0.4303683042526245,0.3568432331085205
1629370530608,0.1867685765028,0.5039944648742676,0.4367018043994903,0.3445484638214111
1629370530676,0.1813511103391647,0.5186580419540405,0.4461959600448608,0.3267092108726501
1629370530794,0.1738743185997009,0.5270915031433105,0.4639924466609955,0.3098792731761932
1629370530846,0.1713367253541946,0.5298656821250916,0.4922266602516174,0.3046311736106872
1629370530999,0.1713367253541946,0.5312445759773254,0.525219738483429,0.3046311736106872
1629370531053,0.1713367253541946,0.5381773114204407,0.5496209263801575,0.3046311736106872
1629370531198,0.1713367253541946,0.5079114437103271,0.5534532070159912,0.3046311736106872
1629370531279,0.1713367253541946,0.4636644124984741,0.5228926539421082,0.3046311736106872
1629370531388,0.1713367253541946,0.3984173536300659,0.4746050238609314,0.3046311736106872
1629370531450,0.1713367253541946,0.32371586561203,0.4327507019042969,0.3046311736106872
1629370531619,0.1713367253541946,0.2769566774368286,0.4061398804187774,0.3046311736106872
1629370531665,0.1713367253541946,0.3173242211341858,0.3927388787269592,0.3046311736106872
1629370531822,0.1713367253541946,0.3586905300617218,0.3894180655479431,0.3046311736106872
1629370531894,0.1713367253541946,0.3925396502017975,0.3893496394157409,0.3046311736106872
1629370532025,0.1713367253541946,0.4133036136627197,0.3865136504173279,0.3046311736106872
1629370532126,0.1713367253541946,0.4203353822231293,0.3811340630054474,0.3046311736106872
1629370532150,0.1713367253541946,0.4176145195960998,0.3769401609897613,0.3046311736106872
1629370532336,0.1713367253541946,0.4115509390830993,0.3758906722068786,0.3046311736106872
1629370532412,0.1713367253541946,0.4067642092704773,0.3766162991523742,0.3046311736106872
1629370532523,0.1713367253541946,0.4031573235988617,0.3763966560363769,0.3046311736106872
1629370532622,0.1713367253541946,0.3974739611148834,0.3730655014514923,0.3046311736106872
1629370532700,0.1713367253541946,0.3947727382183075,0.3507486581802368,0.3046311736106872
1629370532795,0.1713367253541946,0.3900421261787414,0.3333511650562286,0.3046311736106872
1629370532942,0.1713367253541946,0.3854251205921173,0.3240852057933807,0.3046311736106872
1629370533012,0.1713367253541946,0.3820672631263733,0.3200255036354065,0.3046311736106872
1629370533123,0.1713367253541946,0.3784483075141907,0.3173602819442749,0.3046311736106872
1629370533298,0.1713367253541946,0.3613673448562622,0.31454998254776,0.3046311736106872
1629370533320,0.1713367253541946,0.372141569852829,0.3156261742115021,0.3046311736106872
1629370533436,0.1713367253541946,0.349029392004013,0.3133872747421264,0.3046311736106872
1629370533551,0.1713367253541946,0.3419071137905121,0.3122667372226715,0.3046311736106872
1629370533648,0.1713367253541946,0.3437165319919586,0.3124289214611053,0.3046311736106872
1629370533798,0.1713367253541946,0.349588930606842,0.3143746256828308,0.3046311736106872
1629370533917,0.1713367253541946,0.3505249619483948,0.3158053159713745,0.3046311736106872
1629370534023,0.1713367253541946,0.3437498807907104,0.3156197369098663,0.3046311736106872
1629370534145,0.1713367253541946,0.3343168795108795,0.3175792694091797,0.3046311736106872
1629370534204,0.1713367253541946,0.3360737562179565,0.317151129245758,0.3046311736106872
1629370534272,0.1713367253541946,0.3447937369346618,0.3209362328052521,0.3046311736106872
1629370534337,0.1713367253541946,0.3600343465805053,0.3282849192619324,0.3046311736106872
1629370534488,0.1713367253541946,0.3772964179515838,0.3375928997993469,0.3046311736106872
1629370534567,0.1713367253541946,0.3908919095993042,0.3482188582420349,0.3046311736106872
1629370534659,0.1713367253541946,0.3978985846042633,0.3592793643474579,0.3046311736106872
1629370534733,0.1713367253541946,0.3983037173748016,0.3669964373111725,0.3046311736106872
1629370534794,0.1713367253541946,0.3942920863628387,0.368760734796524,0.3046311736106872
1629370534891,0.1713367253541946,0.3848339319229126,0.3678916692733764,0.3046311736106872
1629370535023,0.1713367253541946,0.3633011877536773,0.371781975030899,0.3046311736106872
1629370535155,0.1713367253541946,0.3217708468437195,0.3812291622161865,0.3046311736106872
1629370535242,0.1713367253541946,0.282607227563858,0.3536117076873779,0.3046311736106872
1629370535413,0.1713367253541946,0.2656186819076538,0.3451489210128784,0.3046311736106872
1629370535485,0.1713367253541946,0.2901740372180938,0.3558378517627716,0.3046311736106872
1629370535546,0.1713367253541946,0.3375531733036041,0.3663855195045471,0.3046311736106872
1629370535738,0.1713367253541946,0.3578700721263885,0.38138148188591,0.3046311736106872
1629370535771,0.1713367253541946,0.375996857881546,0.3942144513130188,0.3046311736106872
1629370535850,0.1713367253541946,0.390339583158493,0.4038909375667572,0.3046311736106872
1629370535918,0.1713367253541946,0.3995558023452759,0.4047860503196716,0.3046311736106872
1629370536023,0.1713367253541946,0.4032225906848907,0.3958203196525574,0.3046311736106872
1629370536123,0.1713367253541946,0.4036667644977569,0.3817332684993744,0.3046311736106872
1629370536257,0.1713367253541946,0.4034712314605713,0.3679032325744629,0.3046311736106872
1629370536402,0.1713367253541946,0.4034712314605713,0.3679032325744629,0.3046311736106872
1629370536446,0.1713367253541946,0.4034712314605713,0.3679032325744629,0.3046311736106872
1629370536565,0.1713367253541946,0.4034712314605713,0.3679032325744629,0.3046311736106872
1629370536646,0.1713367253541946,0.4034712314605713,0.3679032325744629,0.3046311736106872
1629370536724,0.1713367253541946,0.4094939827919006,0.3795962631702423,0.3046311736106872
1629370536908,0.1713367253541946,0.420783519744873,0.382721483707428,0.3046311736106872
1629370536976,0.1713367253541946,0.4312564134597778,0.3777140378952026,0.3046311736106872
1629370537053,0.1713367253541946,0.4370843768119812,0.3687681257724762,0.3046311736106872
1629370537178,0.1713367253541946,0.4381250739097595,0.3563427627086639,0.3046311736106872
1629370537237,0.1713367253541946,0.4342987835407257,0.3340694010257721,0.3046311736106872
1629370537371,0.1713367253541946,0.4255374670028686,0.296713262796402,0.3046311736106872
1629370537504,0.1713367253541946,0.4255374670028686,0.2192309498786926,0.3046311736106872
1629370537567,0.1713367253541946,0.4255374670028686,0.1991450488567352,0.3046311736106872
1629370537674,0.1713367253541946,0.4255374670028686,0.2501410245895386,0.3046311736106872
1629370537769,0.1713367253541946,0.4255374670028686,0.2501410245895386,0.3046311736106872
1629370537848,0.1713367253541946,0.4255374670028686,0.2501410245895386,0.3046311736106872
1629370537940,0.1713367253541946,0.4255374670028686,0.2501410245895386,0.3046311736106872
1629370538074,0.1713367253541946,0.4255374670028686,0.2501410245895386,0.3046311736106872
1629370538192,0.1713367253541946,0.4255374670028686,0.2501410245895386,0.3046311736106872
1629370538291,0.1713367253541946,0.4255374670028686,0.2501410245895386,0.3046311736106872
1629370538378,0.1713367253541946,0.4255374670028686,0.2501410245895386,0.3046311736106872
1629370538474,0.1713367253541946,0.4255374670028686,0.2501410245895386,0.3046311736106872
1629370538581,0.1713367253541946,0.4255374670028686,0.2501410245895386,0.3046311736106872
1629370538687,0.1713367253541946,0.4255374670028686,0.2501410245895386,0.3046311736106872
1629370538793,0.1713367253541946,0.4255374670028686,0.2501410245895386,0.3046311736106872
1629370538899,0.1713367253541946,0.4255374670028686,0.3139214515686035,0.3046311736106872
1629370538992,0.1713367253541946,0.4255374670028686,0.3781706094741821,0.3046311736106872
1629370539107,0.1713367253541946,0.4255374670028686,0.408623069524765,0.3046311736106872
1629370539207,0.1713367253541946,0.4255374670028686,0.3966771960258484,0.3046311736106872
1629370539375,0.1713367253541946,0.4255374670028686,0.3730109333992004,0.3046311736106872
1629370539421,0.1713367253541946,0.4255374670028686,0.3483870923519134,0.3046311736106872
1629370539480,0.3941524922847748,0.4255374670028686,0.3321675062179565,0.3046311736106872
1629370539598,0.3681657016277313,0.4255374670028686,0.3268709182739258,0.3046311736106872
1629370539691,0.3625642955303192,0.3525236546993255,0.3263276219367981,0.3046311736106872
1629370539810,0.3653802871704101,0.352279931306839,0.3226863145828247,0.4622746706008911
1629370539930,0.3653802871704101,0.3559866547584533,0.3124986290931701,0.4622746706008911
1629370540008,0.3653802871704101,0.3642597794532776,0.2977535426616668,0.4622746706008911
1629370540091,0.3653802871704101,0.3729894757270813,0.2819895148277282,0.4622746706008911
1629370540207,0.3653802871704101,0.3803882300853729,0.268191933631897,0.4622746706008911
1629370540301,0.3653802871704101,0.3885514438152313,0.268191933631897,0.4622746706008911
1629370540410,0.3653802871704101,0.3991554081439972,0.2526149749755859,0.4622746706008911
1629370540559,0.3653802871704101,0.4131803214550018,0.2359748631715774,0.4622746706008911
1629370540593,0.3653802871704101,0.4326038658618927,0.2185356318950653,0.4622746706008911
1629370540785,0.3254455924034118,0.4581069648265838,0.203847050666809,0.4622746706008911
1629370540820,0.2979000806808471,0.4870767891407013,0.1967662870883941,0.4622746706008911
1629370540939,0.2979758381843567,0.495274543762207,0.1965346783399582,0.4622746706008911
1629370541042,0.2979758381843567,0.5044634342193604,0.1908375024795532,0.4622746706008911
1629370541126,0.2979758381843567,0.515010416507721,0.1814866214990615,0.4622746706008911
1629370541378,0.2979758381843567,0.5272361040115356,0.1779974400997162,0.4622746706008911
1629370541463,0.2979758381843567,0.541466236114502,0.2007858455181121,0.4622746706008911
1629370541560,0.2979758381843567,0.556633472442627,0.2576135396957397,0.4622746706008911
1629370541657,0.2979758381843567,0.5718446373939514,0.3275271356105804,0.4622746706008911
1629370541727,0.2979758381843567,0.5872045159339905,0.3843990564346313,0.4622746706008911
1629370541832,0.2979758381843567,0.5961523056030273,0.4164246618747711,0.4622746706008911
1629370541933,0.2979758381843567,0.5929049253463745,0.3990584909915924,0.4622746706008911
1629370542049,0.3544913232326507,0.5763763785362244,0.3767929971218109,0.4622746706008911
1629370542132,0.4147450625896454,0.5477497577667236,0.3575604259967804,0.4622746706008911
1629370542185,0.4424616992473602,0.5052948594093323,0.3439485132694244,0.4622746706008911
1629370542267,0.4457286596298218,0.4440512657165527,0.3357095420360565,0.4622746706008911
1629370542360,0.4379466772079468,0.3582134544849396,0.3313739001750946,0.4622746706008911
1629370542549,0.4277824759483337,0.3543810844421386,0.32931649684906,0.3080467879772186
1629370542661,0.4277824759483337,0.3609020411968231,0.3361399173736572,0.3080467879772186
1629370542765,0.4277824759483337,0.3807347118854522,0.3378291726112366,0.3080467879772186
1629370542837,0.4277824759483337,0.4087395966053009,0.3403207659721374,0.3080467879772186
1629370542899,0.4277824759483337,0.4336168169975281,0.3341290354728699,0.3080467879772186
1629370542993,0.4277824759483337,0.4484671950340271,0.3138176798820495,0.3080467879772186
1629370543165,0.4277824759483337,0.4534173309803009,0.2799470722675323,0.3080467879772186
1629370543245,0.4514986872673034,0.442021906375885,0.2433593720197677,0.3080467879772186
1629370543318,0.4759013652801513,0.4285462498664856,0.2204910218715667,0.3080467879772186
1629370543412,0.4888685047626495,0.4165118932723999,0.2196101695299148,0.3080467879772186
1629370543499,0.4786376953125,0.4066945612430572,0.2344797402620315,0.3080467879772186
1629370543577,0.4435474574565887,0.398788183927536,0.2538392841815948,0.3080467879772186
1629370543704,0.4435474574565887,0.391556829214096,0.270906388759613,0.3080467879772186
1629370543779,0.4435474574565887,0.3835594654083252,0.2822532653808594,0.3080467879772186
1629370543900,0.4435474574565887,0.3742420971393585,0.2822532653808594,0.3080467879772186
1629370544019,0.4435474574565887,0.3648699223995209,0.2822532653808594,0.3080467879772186
1629370544107,0.4435474574565887,0.3529680371284485,0.2822532653808594,0.3080467879772186
1629370544219,0.4435474574565887,0.3310413062572479,0.2822532653808594,0.3080467879772186
1629370544326,0.4435474574565887,0.2925704717636108,0.2822532653808594,0.3080467879772186
1629370544491,0.4435474574565887,0.239905446767807,0.2822532653808594,0.3080467879772186
1629370544558,0.4435474574565887,0.1827695369720459,0.1453276127576828,0.3080467879772186
1629370544635,0.4435474574565887,0.1304361969232559,0.130502313375473,0.3080467879772186
1629370544698,0.4435474574565887,0.0868473872542381,0.1089423969388008,0.3080467879772186
1629370544794,0.4435474574565887,0.056520402431488,0.0854912549257278,0.3080467879772186
1629370544907,0.4435474574565887,0.0450382195413112,0.062709130346775,0.3080467879772186
1629370545071,0.4435474574565887,0.0495070368051528,0.0404393039643764,0.3080467879772186
1629370545122,0.4435474574565887,0.058866124600172,0.0178406052291393,0.3080467879772186
1629370545216,0.2295131981372833,0.0649635940790176,-0.0045509818010032,0.3301217257976532
1629370545308,0.2158849984407425,0.0666319280862808,-0.0257041081786155,0.2992775440216064
1629370545423,0.2117722630500793,0.0650428459048271,-0.0445098280906677,0.2625849545001983
1629370545524,0.2100538611412048,0.0564452074468135,-0.0600299574434757,0.2310042232275009
1629370545656,0.2070268839597702,0.0367722399532794,-0.0705611035227775,0.2075654715299606
1629370545748,0.2006701827049255,0.0090645281597971,-0.093115858733654,0.1907939910888672
1629370545875,0.1903112530708313,-0.0138734066858887,-0.1180638745427131,0.1786632537841797
1629370545979,0.1773026883602142,-0.0206068325787782,-0.1472344994544983,0.1723096221685409
1629370546054,0.1675530076026916,-0.0110182873904705,-0.1778498888015747,0.1732534766197204
1629370546128,0.1672035455703735,0.0084223067387938,-0.2042574733495712,0.1807754933834076
1629370546258,0.1780948191881179,0.0311876647174358,-0.2196806073188781,0.1914937198162078
1629370546340,0.1940818428993225,0.0517539829015731,-0.223504826426506,0.2018099278211593
1629370546407,0.1951036602258682,0.0678342208266258,-0.2207200527191162,0.1984743773937225
1629370546502,0.2042127102613449,0.0812797546386718,-0.2161668539047241,0.18965944647789
1629370546689,0.2169263809919357,0.0942049995064735,-0.210611805319786,0.1776829063892364
1629370546736,0.2307860851287841,0.1063097119331359,-0.2020896226167678,0.1703820675611496
1629370546820,0.247659146785736,0.1168963760137558,-0.1904841214418411,0.1723590493202209
1629370546960,0.2766121923923492,0.1278511583805084,-0.1789877712726593,0.1808496266603469
1629370547003,0.3226737976074219,0.1424773931503296,-0.1717686951160431,0.1884172409772873
1629370547120,0.3861242830753326,0.1628182083368301,-0.1731901168823242,0.1947890073060989
1629370547258,0.4538629055023193,0.1895655840635299,-0.1834735870361328,0.2062618434429168
1629370547361,0.5120431780815125,0.2204183787107467,-0.1938164830207824,0.2302814722061157
1629370547430,0.5529343485832214,0.2500415444374084,-0.1902313530445099,0.2656928896903991
1629370547499,0.5768325328826904,0.2726971209049225,-0.1666301190853119,0.303416758775711
1629370547657,0.5909762978553772,0.2858372926712036,-0.1335383951663971,0.3345469236373901
1629370547704,0.6008785963058472,0.2915344834327698,-0.1060434132814407,0.354059487581253
1629370547908,0.6098118424415588,0.2932094633579254,-0.0902333483099937,0.3620353937149048
1629370547985,0.6202204823493958,0.292532205581665,-0.0821339190006256,0.3642079830169678
1629370548049,0.6319425702095032,0.2903793454170227,-0.0750733241438865,0.3690172731876373
1629370548138,0.6441027522087097,0.2890258133411407,-0.0659983977675437,0.381875604391098
1629370548221,0.6572006940841675,0.2908997535705566,-0.0583817549049854,0.4021783471107483
1629370548356,0.6730186939239502,0.2950589656829834,-0.055202592164278,0.4259785413742065
1629370548473,0.6905830502510071,0.2969804108142853,-0.0554779954254627,0.4505471587181091
1629370548541,0.7032811045646667,0.2933865487575531,-0.0545824170112609,0.4741573929786682
1629370548652,0.7025113105773926,0.2848715484142303,-0.0465731546282768,0.4940720498561859
1629370548810,0.6879575252532959,0.2736433148384094,-0.0297036841511726,0.5060276389122009
1629370548856,0.6674220561981201,0.2612443566322326,-0.0104051940143108,0.5056544542312622
1629370548955,0.6503985524177551,0.2498378157615661,0.0007997867651283,0.4919127225875854
1629370549110,0.6397135257720947,0.2428238838911056,-0.0021728298161178,0.4681599140167236
1629370549168,0.6300415396690369,0.2409685999155044,-0.0166352000087499,0.4414986371994018
1629370549279,0.6171451210975647,0.2409344017505645,-0.0349580273032188,0.4198072552680969
1629370549351,0.6012707948684692,0.2405989170074463,-0.0504436418414115,0.4079138338565826
1629370549427,0.5836843848228455,0.241994246840477,-0.0594828203320503,0.4039570391178131
1629370549523,0.5654564499855042,0.2440814971923828,-0.0617003962397575,0.4001896381378174
1629370549642,0.5633049607276917,0.2452650070190429,-0.0639138743281364,0.3985097408294678
1629370549810,0.5587528944015503,0.2448856383562088,-0.0644943341612815,0.3883184492588043
1629370549842,0.5450240969657898,0.2442694008350372,-0.0605951584875583,0.3702655434608459
1629370550002,0.5124502778053284,0.2474167793989181,-0.0509484186768531,0.3452088832855224
1629370550125,0.4602573812007904,0.2585587501525879,-0.0382980406284332,0.3151125311851501
1629370550171,0.3979237973690033,0.2772987484931946,0.0008973621879704,0.2821220457553863
1629370550264,0.3382334113121032,0.3181537687778473,0.0220685508102178,0.2502809762954712
1629370550394,0.2846059203147888,0.3590032756328583,0.033438604325056,0.2260840684175491
1629370550490,0.234674260020256,0.3877381086349487,0.0427500195801258,0.2150380760431289
1629370550642,0.1928417831659317,0.397529274225235,0.0561069846153259,0.2194267213344574
1629370550720,0.1692733317613601,0.4105181396007538,0.0765550658106803,0.3654840886592865
1629370550813,0.1692733317613601,0.4368653297424316,0.1040510982275009,0.4707302451133728
1629370550906,0.1692733317613601,0.4368653297424316,0.1326480656862259,0.541026771068573
1629370550997,0.1692733317613601,0.4368653297424316,0.1538951843976974,0.582070529460907
1629370551078,0.1692733317613601,0.4368653297424316,0.1473944038152694,0.6353771090507507
1629370551186,0.1692733317613601,0.4368653297424316,0.1427394449710846,0.6353771090507507
1629370551365,0.1692733317613601,0.4368653297424316,0.1441321521997451,0.6353771090507507
1629370551472,0.1692733317613601,0.3949201107025146,0.1498968750238418,0.6353771090507507
1629370551559,0.1692733317613601,0.3727616369724273,0.1555974930524826,0.5925804376602173
1629370551634,0.1692733317613601,0.3636117577552795,0.1580465734004974,0.5750325322151184
1629370551711,0.1692733317613601,0.3604861795902252,0.1543342918157577,0.5649086236953735
1629370551764,0.1692733317613601,0.350812166929245,0.1510989814996719,0.5649086236953735
1629370551896,0.1692733317613601,0.3305809199810028,0.1518878489732742,0.5649086236953735
1629370552025,0.1692733317613601,0.3030029535293579,0.1653968691825866,0.5649086236953735
1629370552103,0.1692733317613601,0.282246857881546,0.1943064033985138,0.5649086236953735
1629370552216,0.1692733317613601,0.282246857881546,0.1977592408657074,0.5429468750953674
1629370552337,0.1692733317613601,0.282246857881546,0.2002854198217392,0.5118485689163208
1629370552415,0.1692733317613601,0.282246857881546,0.203100100159645,0.4761876463890075
1629370552475,0.1692733317613601,0.282246857881546,0.2092899084091186,0.4761876463890075
1629370552551,0.1692733317613601,0.282246857881546,0.2200362831354141,0.4761876463890075
1629370552729,0.1692733317613601,0.282246857881546,0.2320873290300369,0.4761876463890075
1629370552791,0.1692733317613601,0.282246857881546,0.2409329563379287,0.4761876463890075
1629370552949,0.1692733317613601,0.3064798414707184,0.2310457080602646,0.4761876463890075
1629370553029,0.1692733317613601,0.3231820464134216,0.2114646583795547,0.4761876463890075
1629370553122,0.1692733317613601,0.3260168433189392,0.193869262933731,0.4761876463890075
1629370553234,0.1692733317613601,0.3182190060615539,0.1884854584932327,0.4761876463890075
1629370553342,0.1692733317613601,0.300297200679779,0.1957583725452423,0.4761876463890075
1629370553474,0.2722686529159546,0.2818257510662079,0.2034390568733215,0.2861686050891876
1629370553537,0.2557387948036194,0.2658716738224029,0.1928357630968094,0.2739793956279754
1629370553647,0.2452567666769027,0.2605591714382171,0.1545180678367614,0.2725952863693237
1629370553726,0.2400799840688705,0.2645574808120727,0.1626027971506118,0.275701493024826
1629370553825,0.2375960350036621,0.2706083059310913,0.1673024594783783,0.2818395495414734
1629370554024,0.2364852130413055,0.275177925825119,0.1663707047700882,0.2892192900180816
1629370554054,0.2361415773630142,0.2796159386634826,0.1595175266265869,0.2933773994445801
1629370554169,0.23581463098526,0.2843720316886902,0.1494339108467102,0.2909404337406158
1629370554244,0.2357703596353531,0.2873258292675018,0.1403574794530868,0.2856695055961609
1629370554358,0.2364404797554016,0.2880287170410156,0.1279560625553131,0.2860299944877624
1629370554466,0.2387969642877578,0.289434939622879,0.133515402674675,0.2962598800659179
1629370554564,0.2437171339988708,0.2940183877944946,0.151376873254776,0.3122720122337341
1629370554680,0.2484948486089706,0.3038394749164581,0.1694239675998687,0.3186836242675781
1629370554745,0.2581642270088196,0.3160364329814911,0.17715685069561,0.3296721577644348
1629370554812,0.2747810781002044,0.3277395963668823,0.1729891002178192,0.3399479687213897
1629370554890,0.2938013076782226,0.3364738225936889,0.1655560284852981,0.3442220389842987
1629370554991,0.3077274858951568,0.3396564126014709,0.1656568795442581,0.3423167169094085
1629370555198,0.3140864074230194,0.3370183706283569,0.1748149096965789,0.3382543921470642
1629370555324,0.3156676590442657,0.331989049911499,0.1861980855464935,0.3356528878211975
1629370555368,0.3165207207202911,0.3291370272636413,0.1948432326316833,0.333447515964508
1629370555437,0.3171736001968384,0.3290803134441376,0.2016547620296478,0.3275570273399353
1629370555501,0.3157692551612854,0.3286973237991333,0.2102003842592239,0.3173222839832306
1629370555696,0.3111672401428222,0.3271586000919342,0.2204832136631012,0.3069836795330047
1629370555812,0.3161121308803558,0.3275748789310455,0.2331497073173523,0.3124025166034698
1629370555898,0.3211674094200134,0.3298354148864746,0.2434801757335662,0.3140546381473541
1629370555967,0.32529416680336,0.3315544426441192,0.2477862983942031,0.304898589849472
1629370556167,0.326892077922821,0.3274201452732086,0.245880901813507,0.2833459377288818
1629370556247,0.3234900236129761,0.3145648241043091,0.2431327253580093,0.2543309926986694
1629370556324,0.3115045428276062,0.2948678433895111,0.2475177198648452,0.2260991334915161
1629370556421,0.2881674766540527,0.2749573290348053,0.2617315351963043,0.20574551820755
1629370556503,0.2569516897201538,0.2634223401546478,0.2784076035022735,0.1979103535413742
1629370556570,0.228958860039711,0.2671670913696289,0.28487229347229,0.2005219459533691
1629370556692,0.2133362591266632,0.2837969064712524,0.2737662494182586,0.2032835781574249
1629370556777,0.2072135508060455,0.3026205897331238,0.2492130696773529,0.191202238202095
1629370556893,0.2072135508060455,0.3026205897331238,0.2164850682020187,0.191202238202095
1629370557011,0.2072135508060455,0.3026205897331238,0.1935119032859802,0.191202238202095
1629370557128,0.2072135508060455,0.3026205897331238,0.1710209399461746,0.191202238202095
1629370557156,0.2072135508060455,0.3026205897331238,0.146375373005867,0.191202238202095
1629370557367,0.2072135508060455,0.3026205897331238,0.1444228142499923,0.191202238202095
1629370557407,0.2072135508060455,0.3026205897331238,0.1559515595436096,0.191202238202095
1629370557505,0.2072135508060455,0.3026205897331238,0.1680249273777008,0.4388397634029388
1629370557613,0.2072135508060455,0.3026205897331238,0.170798048377037,0.4466577470302582
1629370557707,0.2168879508972168,0.3364833891391754,0.1635580509901046,0.4459474980831146
1629370557771,0.1938457638025283,0.3011906147003174,0.1522262096405029,0.4420305788516998
1629370557888,0.1975470632314682,0.2734712958335876,0.1424068808555603,0.4397377371788025
1629370557980,0.2206735014915466,0.255143791437149,0.1372720897197723,0.441171258687973
1629370558071,0.2484532594680786,0.2466671019792556,0.1383336931467056,0.4469107985496521
1629370558190,0.2687798142433166,0.2462619990110397,0.1447572261095047,0.4560529887676239
1629370558292,0.2793989777565002,0.2536267042160034,0.153506189584732,0.4647228717803955
1629370558438,0.2831000685691833,0.2675864398479461,0.1590801626443863,0.4677761793136596
1629370558500,0.2831661403179168,0.2847478091716766,0.1650397032499313,0.4627745449542999
1629370558587,0.2820107340812683,0.3007417619228363,0.1705441772937774,0.4514493346214294
