timestamp,TP9,AF7,AF8,TP10
1629370423026,-0.0274920724332332,0.1721203625202179,0.568886399269104,-0.019001081585884
1629370423201,0.0804151222109794,-0.0324088744819164,0.5574196577072144,0.4661360681056976
1629370423231,0.1846140474081039,-0.0008377014892175,0.524846076965332,0.4661360681056976
1629370423295,0.2596987187862396,0.0045125111937522,0.4599598348140716,0.4661360681056976
1629370423409,0.2596987187862396,0.0006289444863796,0.35614213347435,0.4661360681056976
1629370423664,0.2596987187862396,0.0098797464743256,0.2237678468227386,0.4661360681056976
1629370423741,0.3550659716129303,0.0403698198497295,0.0986075326800346,0.4661360681056976
1629370423807,0.4441692233085632,0.0802376791834831,0.0269984863698482,0.5633236169815063
1629370423857,0.505763590335846,0.1206279844045639,0.0121085941791534,0.6044551730155945
1629370423928,0.5311927199363708,0.1557749658823013,0.0170310288667678,0.5990765690803528
1629370424037,0.5260223150253296,0.1745017766952514,0.0157494265586137,0.5658056139945984
1629370424139,0.5036038756370544,0.1803917288780212,-0.0050191413611173,0.5241775512695312
1629370424265,0.4983539879322052,0.1792203485965728,-0.0513227768242359,0.4865248501300812
1629370424312,0.4941767454147339,0.1727304458618164,-0.1199450567364692,0.4478305280208587
1629370424453,0.5207663774490356,0.1590933948755264,-0.1959086060523986,0.4183490574359894
1629370424516,0.5090303421020508,0.1370354145765304,-0.2529682219028473,0.4160145223140716
1629370424567,0.5206884145736694,0.1159621998667717,-0.2724889814853668,0.4101325273513794
1629370424765,0.5227168798446655,0.1126646921038627,-0.2541119158267975,0.4101325273513794
1629370424831,0.5195392966270447,0.1393731981515884,-0.1965642422437667,0.4101325273513794
1629370424921,0.5195392966270447,0.192011147737503,-0.0961750820279121,0.4101325273513794
1629370424999,0.5195392966270447,0.2497762888669967,0.017632795497775,0.4101325273513794
1629370425097,0.4839324653148651,0.2901878654956817,0.1074033677577972,0.4101325273513794
1629370425257,0.3972472250461578,0.3014059364795685,0.1551776826381683,0.3002957701683044
1629370425419,0.2411325424909591,0.287289410829544,0.164957195520401,0.1323124915361404
1629370425482,0.0106316749006509,0.2646455466747284,0.1542507708072662,-0.0494982562959194
1629370425546,-0.2579244971275329,0.2502593100070953,0.1415785104036331,-0.1498779654502868
1629370425623,-0.2579244971275329,0.2500667572021484,0.1334299594163894,-0.1498779654502868
1629370425760,-0.2579244971275329,0.2610305249691009,0.1298340409994125,-0.1498779654502868
1629370425801,-0.2579244971275329,0.2767888605594635,0.1300242096185684,-0.1498779654502868
1629370425974,-0.2579244971275329,0.2909591197967529,0.1380454301834106,-0.1498779654502868
1629370426090,-0.2579244971275329,0.2990593016147613,0.1565774381160736,-0.1498779654502868
1629370426167,-0.239834651350975,0.2981839179992676,0.1794605106115341,-0.1498779654502868
1629370426253,-0.215518832206726,0.2870503664016723,0.1939489096403122,-0.1498779654502868
1629370426437,-0.2016501575708389,0.2615172564983368,0.1856176406145095,-0.1498779654502868
1629370426533,-0.1982452124357223,0.2128334194421768,0.1391994208097458,0.2076737582683563
1629370426587,-0.1880259066820144,0.1347803026437759,0.0483896695077419,0.147525355219841
1629370426697,-0.1585179567337036,0.0370579063892364,-0.0756458267569542,0.1011394038796424
1629370426755,-0.1176395341753959,-0.0444869324564933,-0.1929678320884704,0.0635030046105384
1629370426856,-0.0783561542630195,-0.0731216371059417,-0.2562189102172851,0.034817274659872
1629370427057,-0.0509745180606842,-0.0596316009759902,-0.2662359476089477,0.0209211912006139
1629370427181,-0.0293560456484556,-0.0401230454444885,-0.2592678368091583,0.0209093615412712
1629370427270,-0.0051015126518905,-0.0351169072091579,-0.2497975677251815,0.0305910371243953
1629370427320,0.0230364520102739,-0.0500288642942905,-0.2419250011444091,0.0512424111366272
1629370427455,0.0610302835702896,-0.0823240205645561,-0.2384590953588485,0.0828906595706939
1629370427535,0.0938680246472358,-0.1238040253520011,-0.2507058680057525,0.1164065450429916
1629370427647,0.1195118054747581,-0.1634211391210556,-0.2902684509754181,0.1391151398420334
1629370427786,0.1399308145046234,-0.1950670033693313,-0.3564926385879516,0.1239208653569221
1629370427817,0.1556499600410461,-0.2189385294914245,-0.4313786327838897,0.1023240387439727
1629370428020,0.1656539291143417,-0.236004889011383,-0.4885187745094299,0.0865839645266532
1629370428091,0.1718797981739044,-0.2459096759557724,-0.5122548341751099,0.0791175439953804
1629370428253,0.1764852255582809,-0.2523339092731476,-0.5065750479698181,0.0776465535163879
1629370428286,0.1792173832654953,-0.2609519958496094,-0.4796802103519439,0.0831732004880905
1629370428421,0.1777483373880386,-0.2725848257541656,-0.4412700533866882,0.0975113362073898
1629370428639,0.1698723286390304,-0.2829135358333587,-0.4076890051364898,0.1165544167160987
1629370428814,0.1576497256755828,-0.2858110666275024,-0.3884572386741638,0.1297772973775863
1629370428907,0.141173705458641,-0.2838991582393646,-0.3822320997714996,0.1301642805337906
1629370428954,0.1189724430441856,-0.2876311242580414,-0.3830476403236389,0.1148289665579795
1629370429028,0.0892381817102432,-0.3012493848800659,-0.3882850408554077,0.0831060409545898
1629370429191,0.0559922978281974,-0.3137796819210052,-0.399895966053009,0.0359596833586692
1629370429235,0.0290802344679832,-0.3103217780590057,-0.4166774451732635,-0.0181067530065774
1629370429289,0.0110956653952598,-0.2874234616756439,-0.4317266345024109,-0.0643502250313758
1629370429399,-0.0055748247541487,-0.2563565969467163,-0.4355263411998749,-0.0931148007512092
1629370429471,-0.0271855555474758,-0.2321455925703048,-0.4244813621044159,-0.1081337258219719
1629370429529,-0.0503798313438892,-0.2230507731437683,-0.4042949974536896,-0.1163961440324783
1629370429585,-0.0730515122413635,-0.2286735773086547,-0.3864167332649231,-0.1221101060509681
1629370429641,-0.0999755188822746,-0.2402790635824203,-0.3799139857292175,-0.1312160938978195
1629370429719,-0.1364934146404266,-0.248798206448555,-0.3883166909217834,-0.1521146446466446
1629370429909,-0.1780554801225662,-0.2542344927787781,-0.4087677597999573,-0.1871866732835769
1629370429948,-0.2014577090740203,-0.2647641003131866,-0.4290487170219421,-0.2249339073896408
1629370430034,-0.2145394384860992,-0.2718906700611114,-0.4316925704479217,-0.2714801430702209
1629370430227,-0.2184900194406509,-0.1836453676223755,-0.3676455914974212,-0.309024304151535
1629370430314,-0.2215608805418014,0.0925873219966888,-0.1752837598323822,-0.3184850215911865
1629370430409,-0.2270049303770065,0.4218516945838928,0.1025566458702087,-0.3045448362827301
1629370430484,-0.236797422170639,0.6874779462814331,0.3663912713527679,-0.2917479574680328
1629370430541,-0.2623915672302246,0.8712526559829712,0.5724635124206543,-0.3081555068492889
1629370430801,-0.3178419470787048,0.9826979041099548,0.7107371687889099,-0.3639371991157532
1629370430894,-0.4063040316104889,1.039632797241211,0.7903096675872803,-0.4434505701065063
1629370430971,-0.5034517645835876,1.0631515979766846,0.8278284668922424,-0.5100172758102417
1629370431048,-0.5711224675178528,1.0714737176895142,0.8413973450660706,-0.5391244888305664
1629370431113,-0.5711224675178528,1.0751415491104126,0.8448391556739807,-0.5391244888305664
1629370431162,-0.5711224675178528,1.0778818130493164,0.8457067608833313,-0.5391244888305664
1629370431328,-0.5711224675178528,1.0795176029205322,0.8460232019424438,-0.5391244888305664
1629370431420,-0.5711224675178528,1.07992422580719,0.8461594581604004,-0.5391244888305664
1629370431609,-0.5711224675178528,1.0797468423843384,0.8461912274360657,-0.5391244888305664
1629370431752,-0.5711224675178528,1.079003930091858,0.8457329273223877,-0.5391244888305664
1629370431798,-0.5711224675178528,1.073773980140686,0.8419730067253113,-0.5391244888305664
1629370432127,-0.5711224675178528,1.0517553091049194,0.8272766470909119,-0.5391244888305664
1629370432195,0.0087646758183836,0.9946826696395874,0.7885956168174744,-0.5391244888305664
1629370432252,0.0451712310314178,0.8851852416992188,0.7104771733283997,-0.5391244888305664
1629370432340,0.0706474184989929,0.7105002403259277,0.5768736004829407,0.5797982811927795
1629370432518,0.0772644206881523,0.4723679423332214,0.3821510672569275,0.674015998840332
1629370432568,0.0689859464764595,0.2075331360101699,0.1435341835021972,0.674015998840332
1629370432630,0.0553699508309364,-0.0068235411308705,-0.0785853341221809,0.674015998840332
1629370432700,0.048302412033081,-0.1291092485189438,-0.2048372775316238,0.674015998840332
1629370432754,0.0479510128498077,-0.1957443803548813,-0.2315144687891006,0.674015998840332
1629370432858,0.0497782528400421,-0.2425801008939743,-0.2180383950471878,0.6427825689315796
1629370432926,0.0513286888599395,-0.2597571313381195,-0.1976062953472137,0.603489875793457
1629370433036,0.050157856196165,-0.2512042820453644,-0.18288055062294,0.5609337091445923
1629370433142,0.0432707630097866,-0.241313099861145,-0.1730733662843704,0.5217912793159485
1629370433215,0.0356436446309089,-0.2458562701940536,-0.154518187046051,0.5255169868469238
1629370433279,0.0398350246250629,-0.2627547085285187,-0.118740327656269,0.556986927986145
1629370433437,0.0415328480303287,-0.2660280168056488,-0.0734856501221656,0.5721181035041809
1629370433621,0.0367270410060882,-0.2770760655403137,-0.0216066464781761,0.5721181035041809
1629370433693,0.0227820016443729,-0.2902498841285705,0.0790050402283668,0.5721181035041809
1629370433786,0.0034861536696553,-0.3074804246425628,0.0835539996623992,0.418204516172409
1629370433842,-0.0108721861615777,-0.3246728777885437,0.0927132293581962,0.1651248484849929
1629370433903,-0.0130471363663673,-0.3345245718955993,0.1095780134201049,0.1651248484849929
1629370433965,-0.0051994868554174,-0.3291949033737182,0.1320177167654037,0.1651248484849929
1629370434021,-0.0026074757333844,-0.3076785504817962,0.1550850123167038,0.1651248484849929
1629370434122,-0.0126567566767334,-0.2799306511878967,0.1763175725936889,0.1651248484849929
1629370434300,-0.035840805619955,-0.258704274892807,0.2568506896495819,0.056686908006668
1629370434426,-0.035840805619955,-0.2592006027698517,0.2771674394607544,0.056686908006668
1629370434477,-0.035840805619955,-0.2811984121799469,0.27741140127182,0.056686908006668
1629370434546,-0.035840805619955,-0.2811984121799469,0.2733711004257202,0.056686908006668
1629370434658,-0.035840805619955,-0.2811984121799469,0.26284059882164,0.056686908006668
1629370434818,-0.035840805619955,-0.2811984121799469,0.240439087152481,0.056686908006668
1629370434865,-0.035840805619955,-0.2811984121799469,0.2145196497440338,0.056686908006668
1629370435007,-0.035840805619955,0.1527290493249893,0.1935127675533294,0.056686908006668
1629370435134,-0.035840805619955,0.3767236173152923,0.188101589679718,0.056686908006668
1629370435228,-0.035840805619955,0.3767236173152923,0.188101589679718,0.056686908006668
1629370435332,-0.035840805619955,0.3767236173152923,0.188101589679718,0.056686908006668
1629370435435,-0.035840805619955,0.3767236173152923,0.188101589679718,0.056686908006668
1629370435466,-0.035840805619955,0.3767236173152923,0.188101589679718,0.056686908006668
1629370435548,-0.035840805619955,0.3767236173152923,0.188101589679718,0.056686908006668
1629370435619,-0.035840805619955,0.3767236173152923,0.188101589679718,0.056686908006668
1629370435690,-0.035840805619955,0.3767236173152923,0.1064417213201522,0.056686908006668
1629370435793,-0.035840805619955,0.3767236173152923,0.0891126990318298,0.056686908006668
1629370435981,-0.035840805619955,0.3767236173152923,0.1206400543451309,0.056686908006668
1629370436089,-0.035840805619955,0.3767236173152923,0.1768375188112259,0.056686908006668
1629370436158,-0.035840805619955,0.4256649613380432,0.251264214515686,0.056686908006668
1629370436232,-0.035840805619955,0.4682077467441559,0.2672406435012817,0.056686908006668
1629370436316,-0.035840805619955,0.465579628944397,0.2471586018800735,0.056686908006668
1629370436393,-0.035840805619955,0.3931387364864349,0.1579085886478424,0.056686908006668
1629370436535,-0.035840805619955,-0.0033390051685273,-0.4472706019878387,0.056686908006668
1629370436594,-0.035840805619955,-0.0777560248970985,-0.4932451248168945,0.056686908006668
1629370436711,-0.035840805619955,-0.1344411820173263,-0.5069581270217896,0.056686908006668
1629370436750,-0.035840805619955,-0.1634375154972076,-0.490485817193985,0.056686908006668
1629370436919,0.3142080307006836,-0.1485693603754043,-0.4451082348823547,0.056686908006668
1629370437059,0.2966658473014831,-0.0934061482548713,-0.3742041289806366,0.056686908006668
1629370437132,0.2966658473014831,-0.0272108074277639,-0.2966779172420501,0.056686908006668
1629370437212,0.2966658473014831,0.0212428104132413,-0.2280113101005554,0.056686908006668
1629370437274,0.2966658473014831,0.0212428104132413,-0.1733831018209457,0.056686908006668
1629370437419,0.2966658473014831,0.0212428104132413,-0.1257844716310501,0.056686908006668
1629370437575,0.2966658473014831,0.0212428104132413,-0.0732368305325508,0.056686908006668
1629370437642,0.2966658473014831,-3.392928192624822e-05,-0.0135924955829977,0.056686908006668
1629370437745,0.2966658473014831,-0.06058244779706,0.0533862076699733,0.056686908006668
1629370437827,0.2966658473014831,-0.074155680835247,0.115076407790184,0.056686908006668
1629370437990,0.2966658473014831,-0.0558821819722652,0.1627771407365799,0.056686908006668
1629370438094,0.2966658473014831,-0.0236355327069759,0.1979722082614898,0.056686908006668
1629370438198,0.3772192895412445,0.0085485531017184,0.2226319462060928,0.056686908006668
1629370438251,0.3840765058994293,0.0335470251739025,0.2370291054248809,0.056686908006668
1629370438359,0.3472486436367035,0.0484929233789444,0.2417159527540207,0.056686908006668
1629370438424,0.3156129121780395,0.0471787452697753,0.2391045540571212,0.056686908006668
1629370438569,0.3302461802959442,0.0320166125893592,0.2338970303535461,0.056686908006668
1629370438646,0.3753543198108673,0.0463839769363403,0.2319406419992447,0.056686908006668
1629370438908,0.4441903233528137,0.1724758446216583,0.240348607301712,0.056686908006668
1629370438952,0.5025872588157654,0.3631476461887359,0.2586440742015838,0.056686908006668
1629370439140,0.5349263548851013,0.5089151263237,0.276121973991394,0.056686908006668
1629370439233,0.5349263548851013,0.5905631184577942,0.2794643938541412,0.056686908006668
1629370439289,0.5349263548851013,0.6457053422927856,0.2687985301017761,0.056686908006668
1629370439402,0.5349263548851013,0.6735219955444336,0.2818626463413238,0.056686908006668
1629370439437,0.5349263548851013,0.7108533382415771,0.3834594190120697,0.056686908006668
1629370439501,0.5349263548851013,0.7743254899978638,0.3824788630008697,0.056686908006668
1629370439597,0.5349263548851013,0.8475561141967773,0.3883669078350067,0.056686908006668
1629370439702,0.5264678001403809,0.8730331659317017,0.4012748897075653,0.056686908006668
1629370439800,0.5449652671813965,0.9012630581855774,0.422885000705719,0.056686908006668
1629370439814,0.5897403359413147,0.9324209094047546,0.4540741443634033,0.056686908006668
1629370440017,0.6465200185775757,0.966655433177948,0.4928894340991974,0.056686908006668
1629370440081,0.7021719813346863,1.003259301185608,0.5342928171157837,0.056686908006668
1629370440256,0.7021719813346863,1.0378003120422363,0.5739353895187378,0.056686908006668
1629370440321,0.7021719813346863,1.0104162693023682,0.5446296334266663,0.056686908006668
1629370440413,0.7021719813346863,0.9515394568443298,0.4984223246574402,0.056686908006668
1629370440458,0.7021719813346863,0.8626523613929749,0.4431626796722412,0.056686908006668
1629370440590,0.7021719813346863,0.7665829658508301,0.3923319578170776,0.056686908006668
1629370440778,0.0472186282277107,0.6933366060256958,0.3441390991210937,-0.3453315794467926
1629370440877,-0.0175292920321226,0.6443215608596802,0.2248081564903259,-0.3228033185005188
1629370440932,-0.0711694583296775,0.5610648393630981,-0.6930561661720276,-0.2943391501903534
1629370441025,-0.0711694583296775,0.3427186012268066,-0.6908710598945618,-0.261135995388031
1629370441162,-0.0711694583296775,-0.5655751824378967,-0.680385172367096,-0.2334461957216262
1629370441213,-0.0711694583296775,-0.5909907817840576,-0.6515607833862305,-0.218741312623024
1629370441285,-0.0740109086036682,-0.6151565313339233,-0.611353874206543,-0.2180160284042358
1629370441457,-0.0556159019470214,-0.6384601593017578,-0.5709705948829651,-0.2260914295911789
1629370441536,-0.0372401811182498,-0.6587346792221069,-0.5307315587997437,-0.2380015701055526
1629370441616,-0.0293609611690044,-0.6688817739486694,-0.4870466589927673,-0.2508460283279419
1629370441696,-0.0232608541846275,-0.6589273810386658,-0.4474771022796631,-0.2468930929899215
1629370441832,0.0125037934631109,-0.6817420721054077,-0.413158506155014,-0.1846429854631424
1629370441879,0.0902123227715492,-0.6525119543075562,-0.3933256566524505,-0.0237202998250722
1629370442159,0.2403103411197662,-0.5949996113777161,-0.3859824538230896,0.1643050611019134
1629370442259,0.3862503468990326,-0.5410329699516296,-0.3848089277744293,0.3161598443984985
1629370442357,0.4861587882041931,-0.5016983151435852,-0.3861438333988189,0.4106941223144531
1629370442688,0.5378627181053162,-0.4760958850383758,-0.3862034678459167,0.4546408355236053
1629370442735,0.5566288232803345,-0.4605205059051513,-0.3828063309192657,0.4675587117671966
1629370442879,0.5286278128623962,-0.4529376626014709,-0.3775704205036163,0.4687249064445495
1629370442954,0.4996464550495147,-0.4487168788909912,-0.3741984963417053,0.4679285883903503
1629370443069,0.4728204607963562,-0.4422772228717804,-0.3745161592960357,0.4674843549728393
1629370443133,0.4692745804786682,-0.4297441244125366,-0.3739592432975769,0.4685591161251068
1629370443226,0.4643132984638214,-0.4112959206104278,-0.3652233183383941,0.471859723329544
1629370443327,0.4603469669818878,-0.3919124007225036,-0.3483740389347076,0.4769825339317322
1629370443421,0.4590359330177307,-0.3787437081336975,-0.331584483385086,0.48313969373703
1629370443495,0.4584616422653198,-0.3762737214565277,-0.3194495141506195,0.4872371554374695
1629370443547,0.4504542052745819,-0.3779534101486206,-0.3038061559200287,0.4812615513801574
1629370443606,0.4194158613681793,-0.373731404542923,-0.2739104330539703,0.4503760039806366
1629370443655,0.3497753143310547,-0.3576757311820984,-0.2322884947061538,0.3826797008514404
1629370443834,0.2401611506938934,-0.3305575847625732,-0.1907139271497726,0.2852546274662018
1629370443958,0.1183481365442276,-0.2975267767906189,-0.1556156873703003,0.1950005739927292
1629370444020,0.0459766276180744,-0.2609451115131378,-0.1275886744260788,0.1590604484081268
1629370444090,0.053821325302124,-0.2192332595586776,-0.1061437726020813,0.1753072738647461
1629370444143,0.1028644293546676,-0.1710255742073059,-0.0909739285707473,0.2040071338415146
1629370444198,0.1502480506896972,-0.1194469854235649,-0.0815269723534584,0.225251093506813
1629370444305,0.1830689311027526,-0.0673299729824066,-0.075236901640892,0.2447895258665084
1629370444445,0.2032296508550644,-0.0193757936358451,-0.0689678117632865,0.2760975956916809
1629370444493,0.2160497903823852,0.0191152021288871,-0.0634219348430633,0.324778139591217
1629370444562,0.2258477061986923,0.0450268201529979,-0.0602690987288951,0.3812146186828613
1629370444691,0.2349584847688675,0.0593912787735462,-0.0607716329395771,0.4294542074203491
1629370444836,0.2429442107677459,0.0649180188775062,-0.06531772762537,0.4587397873401642
1629370444895,0.2462937384843826,0.0631038323044776,-0.07581028342247,0.4697670638561249
1629370444966,0.2435001879930496,0.053765058517456,-0.0960979908704757,0.4835825562477112
1629370445046,0.2442548125982284,0.0369965992867946,-0.1262363046407699,0.4944427907466888
1629370445209,0.258791983127594,0.0139289312064647,-0.1606586724519729,0.5028350949287415
1629370445453,0.283513605594635,-0.0124863646924495,-0.1932591646909713,0.509514331817627
1629370445499,0.3035222887992859,-0.040589552372694,-0.2203342765569687,0.515052855014801
1629370445631,0.3140823543071747,-0.0712898075580596,-0.2396207600831985,0.5222193002700806
1629370445803,0.3214845955371856,-0.1074664443731308,-0.2519504427909851,0.5364260673522949
1629370445927,0.3337653875350952,-0.1494446098804474,-0.2623694241046905,0.5623409748077393
1629370446132,0.3492052257061004,-0.1950358748435974,-0.2778986990451813,0.5961049795150757
1629370446225,0.3587502837181091,-0.2383710592985153,-0.3048394322395324,0.5935046076774597
1629370446343,0.3570933043956756,-0.2745293080806732,-0.3444048762321472,0.5343257188796997
1629370446428,0.3468030989170074,-0.3014471530914306,-0.3963812887668609,0.483108639717102
1629370446491,0.3325903713703155,-0.3204348683357239,-0.4566739797592163,0.3965384066104889
1629370446540,0.3179251849651336,-0.331409752368927,-0.5103405117988586,0.3965384066104889
1629370446601,0.3051388263702392,-0.3339694738388061,-0.5352457761764526,0.3965384066104889
1629370446663,0.2933306992053985,-0.3252559602260589,-0.5198796987533569,0.3965384066104889
1629370446713,0.2741669714450836,-0.3012583553791046,-0.4784790575504303,0.1060188338160514
1629370446781,0.2390107959508896,-0.2664207220077514,-0.4349714815616607,0.0709877237677574
1629370446828,0.1869407892227172,-0.2344439327716827,-0.4070860743522644,0.0384606681764125
1629370447064,0.1278890520334243,-0.2157622724771499,-0.4032410085201263,0.0081256385892629
1629370447123,0.0713135376572609,-0.2104323804378509,-0.4215809106826782,0.0048710368573665
1629370447248,0.0278722755610942,-0.2100952863693237,-0.4517565369606018,0.0574094504117965
1629370447347,0.0099990982562303,-0.207990288734436,-0.4774743318557739,0.1473017930984497
1629370447411,0.0222292952239513,-0.2065431773662567,-0.4915923774242401,0.22885063290596
1629370447501,0.0514275915920734,-0.2117329239845276,-0.4983894824981689,0.2604689598083496
1629370447612,0.0794583708047866,-0.2232320010662078,-0.504009485244751,0.2861592769622803
1629370447641,0.0976661369204521,-0.235061690211296,-0.5085736513137817,0.2715946733951568
1629370447733,0.1081359535455703,-0.2413373291492462,-0.509530782699585,0.2529451549053192
1629370447822,0.115222118794918,-0.2423807680606842,-0.5067456364631653,0.2429122626781463
1629370447955,0.1223715990781784,-0.2439033091068267,-0.5057427883148193,0.2440624982118606
1629370448016,0.1324393451213836,-0.2537145912647247,-0.514574408531189,0.2689019441604614
1629370448141,0.1459084302186966,-0.2788956761360168,-0.5354659557342529,0.2872686982154846
1629370448321,0.1605545580387115,-0.3181245625019073,-0.5598945617675781,0.2967230081558227
1629370448417,0.1725198179483413,-0.3549507856369018,-0.5656148791313171,0.2995905876159668
1629370448468,0.1792029589414596,-0.3669536113739013,-0.5345399379730225,0.2991844117641449
1629370448587,0.179376795887947,-0.351189911365509,-0.4758644700050354,0.2912854850292206
1629370448727,0.1685967743396759,-0.3277287185192108,-0.4101316034793854,0.26387619972229
1629370448794,0.1410765349864959,-0.3172194957733154,-0.3513654172420501,0.2095813751220703
1629370448847,0.0989566445350647,-0.3253446817398071,-0.3033588826656341,0.1362566351890564
1629370448914,0.0586201138794422,-0.3445559740066528,-0.2667278051376343,0.0698023438453674
1629370449010,0.0398066267371177,-0.3633838593959808,-0.240607738494873,0.0353211164474487
1629370449153,0.0440051108598709,-0.3730715215206146,-0.2244461476802826,0.0292991511523723
1629370449242,0.0561908446252346,-0.3722440898418426,-0.2154293358325958,0.0355561859905719
1629370449356,0.0638676732778549,-0.3658202886581421,-0.2116074860095977,0.0428318828344345
1629370449434,0.0623407252132892,-0.3608564436435699,-0.2120485305786132,0.0428614094853401
1629370449505,0.0520062260329723,-0.3539126217365265,-0.2106656283140182,0.03245085850358
1629370449567,0.0353846400976181,-0.33523029088974,-0.200271189212799,0.0184996370226144
1629370449845,0.0185082759708166,-0.3029661774635315,-0.1812194138765335,0.0140718836337327
1629370449919,0.0088599659502506,-0.2696955502033233,-0.1631925404071808,0.0253414865583181
1629370450017,0.0079529825598001,-0.2481690347194671,-0.158095121383667,0.045525386929512
1629370450090,0.0104488357901573,-0.2420493960380554,-0.1700409203767776,0.0689506381750106
1629370450154,0.0095786927267909,-0.2437806576490402,-0.1947219222784042,0.0976522788405418
1629370450244,0.0035212615039199,-0.2420800477266311,-0.2256964892148971,0.1300121247768402
1629370450339,-0.0074464054778218,-0.2259623110294342,-0.2548658549785614,0.1577037721872329
1629370450501,-0.0220024492591619,-0.1873500943183899,-0.2698740363121032,0.1751337051391601
1629370450593,-0.0359530113637447,-0.1260979324579239,-0.2602249681949615,0.1841187328100204
1629370450676,-0.0440162345767021,-0.0558973364531993,-0.228074163198471,0.1905314922332763
1629370450732,-0.0335732065141201,0.0046959612518548,-0.1862874180078506,0.1939416378736496
1629370450823,0.0031091379933059,0.0445960573852062,-0.1438562124967575,0.1924930810928344
1629370450985,0.0593656748533248,0.0648196935653686,-0.1048349365592002,0.1909615248441696
1629370451153,0.116852268576622,0.0717194229364395,-0.0747956857085228,0.1960278153419494
1629370451186,0.1613408327102661,0.0708552151918411,-0.0592772886157035,0.2073744237422943
1629370451262,0.1877464950084686,0.0653835609555244,-0.0593690685927867,0.2162324339151382
1629370451471,0.1987699717283249,0.0594331659376621,-0.0702766999602317,0.2157652229070663
1629370451534,0.1999022662639618,0.0556899458169937,-0.0830721631646156,0.2067927122116089
1629370451640,0.1940277814865112,0.0542706064879894,-0.091364175081253,0.1913573592901229
1629370451753,0.1827229857444763,0.0523605532944202,-0.0946669280529022,0.1675722301006317
1629370451819,0.1655997633934021,0.0493796318769454,-0.0957466289401054,0.1337794363498687
1629370451882,0.144596055150032,0.0451267175376415,-0.0991030931472778,0.094670683145523
1629370452001,0.1227113828063011,0.0335923731327056,-0.1106375828385353,0.058588545769453
1629370452101,0.1018339842557907,0.0041305581107735,-0.1356731504201889,0.0301379710435867
1629370452256,0.0827324017882347,-0.0498866215348243,-0.1737982481718063,0.0068401205353438
1629370452308,0.060867715626955,-0.1219291090965271,-0.2182799726724624,-0.0122671741992235
1629370452366,0.0300606898963451,-0.1914193034172058,-0.2621491551399231,-0.0273112040013074
1629370452476,-0.0141527727246284,-0.2395465523004531,-0.3019185066223144,-0.0440216995775699
1629370452551,-0.0679132938385009,-0.2673888504505157,-0.3372962176799774,-0.0688394978642463
1629370452691,-0.1213326454162597,-0.2883010506629944,-0.368195116519928,-0.0990108251571655
1629370452804,-0.1658407151699066,-0.3110316395759582,-0.393395721912384,-0.1197095811367034
1629370452847,-0.1897715181112289,-0.3064088523387909,-0.393305629491806,-0.1400479078292846
1629370453104,-0.1961259394884109,-0.1649867892265319,-0.2520093023777008,-0.1435984671115875
1629370453222,-0.1875412613153457,0.1548392474651336,0.0738283842802047,-0.1327117085456848
1629370453287,-0.1707587838172912,0.1734572499990463,0.0976964682340622,-0.112296313047409
1629370453360,-0.148495927453041,0.1948195546865463,0.1244679689407348,-0.0881529822945594
1629370453427,-0.1190251410007476,0.215529054403305,0.1544499695301056,-0.0637845173478126
1629370453532,-0.0802155584096908,0.2346778959035873,0.1881111860275268,-0.0381098128855228
1629370453679,-0.0377532206475734,0.255965918302536,0.2256863266229629,-0.0069390060380101
1629370453752,-0.0023286377545446,0.2856090068817138,0.2667533159255981,0.0310137327760458
1629370453878,0.0154770966619253,0.3268433213233948,0.310124397277832,0.0671527534723281
1629370453957,0.009504472836852,0.3790622651576996,0.3549935221672058,0.0896976068615913
1629370454071,0.009504472836852,0.4414563179016113,0.3569922745227813,0.0896976068615913
1629370454162,0.009504472836852,0.5162416100502014,0.3578838407993316,0.0896976068615913
1629370454234,0.009504472836852,0.6086397767066956,0.3641315996646881,0.0896976068615913
1629370454328,0.009504472836852,0.6086397767066956,0.4157851636409759,0.0896976068615913
1629370454380,0.009504472836852,0.6086397767066956,0.4763516187667846,0.0896976068615913
1629370454465,0.009504472836852,0.6086397767066956,0.4840215444564819,0.0896976068615913
1629370454624,0.009504472836852,0.6086397767066956,0.4840215444564819,0.0896976068615913
1629370454814,0.009504472836852,0.6086397767066956,0.4840215444564819,0.0896976068615913
1629370454843,0.009504472836852,0.6086397767066956,0.4840215444564819,0.0896976068615913
1629370454952,0.009504472836852,0.6086397767066956,0.4840215444564819,0.0896976068615913
1629370455036,0.009504472836852,0.6086397767066956,0.4840215444564819,0.0896976068615913
1629370455121,0.009504472836852,0.6086397767066956,0.4840215444564819,0.0896976068615913
1629370455258,0.009504472836852,0.6086397767066956,0.4840215444564819,0.0896976068615913
1629370455386,0.009504472836852,0.6086397767066956,0.4840215444564819,0.0896976068615913
1629370455401,0.009504472836852,0.6086397767066956,0.4840215444564819,0.0896976068615913
1629370455543,0.009504472836852,0.6086397767066956,0.4840215444564819,0.0896976068615913
1629370455601,0.009504472836852,0.6086397767066956,0.4840215444564819,0.0896976068615913
1629370455673,0.009504472836852,0.6086397767066956,0.4840215444564819,0.0896976068615913
1629370455920,0.009504472836852,0.6086397767066956,0.4840215444564819,0.0896976068615913
1629370456042,0.009504472836852,0.6086397767066956,0.4840215444564819,0.0896976068615913
1629370456150,0.009504472836852,0.6086397767066956,0.4840215444564819,0.0896976068615913
1629370456209,0.009504472836852,0.6086397767066956,0.4840215444564819,0.0896976068615913
1629370456270,0.009504472836852,0.6086397767066956,0.4840215444564819,0.0896976068615913
1629370456406,0.009504472836852,0.6086397767066956,0.4840215444564819,0.0896976068615913
1629370456494,0.009504472836852,0.6086397767066956,0.4840215444564819,0.0896976068615913
1629370456589,0.009504472836852,0.6086397767066956,0.4840215444564819,0.0896976068615913
1629370456639,0.009504472836852,0.6086397767066956,0.4840215444564819,0.0896976068615913
1629370456805,0.009504472836852,0.6086397767066956,0.4840215444564819,0.0896976068615913
1629370456851,0.009504472836852,0.6086397767066956,0.4840215444564819,0.0896976068615913
1629370457063,0.009504472836852,0.6086397767066956,0.4840215444564819,0.0896976068615913
1629370457093,0.009504472836852,0.6086397767066956,0.4840215444564819,0.0896976068615913
1629370457213,0.009504472836852,0.6086397767066956,0.4840215444564819,0.0896976068615913
1629370457280,0.009504472836852,0.6086397767066956,0.4840215444564819,0.0896976068615913
1629370457353,0.009504472836852,0.6086397767066956,0.4840215444564819,0.0896976068615913
1629370457438,0.009504472836852,0.6086397767066956,0.3155882954597473,0.0896976068615913
1629370457525,0.009504472836852,0.6086397767066956,0.2478644251823425,0.0896976068615913
1629370457618,0.009504472836852,0.6086397767066956,0.1952387988567352,0.0896976068615913
1629370457749,0.009504472836852,0.6086397767066956,0.1481413543224334,0.0896976068615913
1629370457829,0.009504472836852,0.6086397767066956,0.1088533252477645,0.0896976068615913
1629370458041,0.009504472836852,0.6086397767066956,0.0947403088212013,0.0896976068615913
1629370458236,0.009504472836852,0.6086397767066956,0.1497785449028015,0.0896976068615913
1629370458360,0.009504472836852,0.6086397767066956,0.1497785449028015,0.0896976068615913
1629370458477,0.009504472836852,0.6086397767066956,0.1497785449028015,0.0896976068615913
1629370458565,0.009504472836852,0.6086397767066956,0.1332677453756332,0.0896976068615913
1629370458611,0.009504472836852,0.6086397767066956,0.0747962296009063,0.0896976068615913
1629370458689,0.009504472836852,0.6086397767066956,-0.0397265888750553,0.0896976068615913
1629370458793,0.009504472836852,0.6086397767066956,-0.0397265888750553,0.0896976068615913
1629370458846,0.009504472836852,0.6086397767066956,-0.0397265888750553,0.0896976068615913
1629370458914,0.009504472836852,0.6086397767066956,-0.0397265888750553,0.0896976068615913
1629370458974,0.009504472836852,0.6086397767066956,-0.011332893744111,0.0896976068615913
1629370459062,0.009504472836852,0.6086397767066956,0.0228729173541069,0.0896976068615913
1629370459156,0.009504472836852,0.6086397767066956,0.0711911618709564,0.0896976068615913
1629370459274,0.009504472836852,0.6086397767066956,0.0711911618709564,0.0896976068615913
1629370459409,0.009504472836852,0.6086397767066956,0.0711911618709564,0.0896976068615913
1629370459440,0.009504472836852,0.6086397767066956,0.0711911618709564,0.0896976068615913
1629370459560,0.009504472836852,0.6086397767066956,0.0711911618709564,0.0896976068615913
1629370459666,0.009504472836852,0.6086397767066956,0.0711911618709564,0.0896976068615913
1629370459816,0.009504472836852,0.6086397767066956,0.0711911618709564,0.0896976068615913
1629370459874,0.009504472836852,0.6086397767066956,0.0711911618709564,0.0896976068615913
1629370459978,0.009504472836852,0.6086397767066956,0.0711911618709564,0.0896976068615913
1629370460147,0.009504472836852,0.6086397767066956,0.0711911618709564,0.0896976068615913
1629370460226,0.009504472836852,0.6086397767066956,0.0711911618709564,0.0896976068615913
1629370460404,0.009504472836852,0.6086397767066956,0.0711911618709564,0.0896976068615913
1629370460507,0.009504472836852,0.6086397767066956,0.0711911618709564,0.0896976068615913
1629370460568,0.009504472836852,0.6086397767066956,0.0711911618709564,0.0896976068615913
1629370460618,0.009504472836852,0.6086397767066956,0.0711911618709564,0.0896976068615913
1629370460737,0.009504472836852,0.6086397767066956,0.0711911618709564,0.0896976068615913
1629370460784,0.009504472836852,0.6086397767066956,0.0711911618709564,0.0896976068615913
1629370460851,0.009504472836852,0.6086397767066956,0.0711911618709564,0.0896976068615913
1629370460957,0.009504472836852,0.6086397767066956,0.0711911618709564,0.0896976068615913
1629370461060,0.009504472836852,0.6086397767066956,0.0711911618709564,0.0896976068615913
1629370461184,0.009504472836852,0.6086397767066956,0.0711911618709564,0.0896976068615913
1629370461303,0.009504472836852,0.6086397767066956,0.0711911618709564,0.0896976068615913
1629370461404,0.009504472836852,0.6086397767066956,0.0711911618709564,0.0896976068615913
1629370461481,0.009504472836852,0.6086397767066956,0.0711911618709564,0.0896976068615913
1629370461626,0.1809079498052597,0.1239116117358207,-0.2203176617622375,0.0896976068615913
1629370461656,0.143794909119606,0.0814104229211807,-0.2944202423095703,0.0896976068615913
1629370461761,0.142339140176773,0.0694574788212776,-0.3483655750751495,0.0896976068615913
1629370461907,0.1609036177396774,0.0717755705118179,-0.3670568466186523,0.0896976068615913
1629370462002,0.1926332712173462,0.0701063126325607,-0.3611713349819183,0.0896976068615913
1629370462062,0.2319280207157135,0.0554915033280849,-0.3541288673877716,-0.1385641545057296
1629370462225,0.2656859457492828,0.0303540248423814,-0.360401451587677,-0.1520571410655975
1629370462295,0.2837511599063873,0.0031144921667873,-0.3796316981315613,-0.1801456063985824
1629370462408,0.2863959670066833,-0.0177941862493753,-0.405923455953598,-0.2113859951496124
1629370462522,0.2829361855983734,-0.0308558344841003,-0.4327234029769897,-0.2340864688158035
1629370462597,0.2792655825614929,-0.0392931587994098,-0.4581822752952575,-0.2468763440847396
1629370462692,0.2736459970474243,-0.0472510643303394,-0.4817178547382355,-0.2563375532627105
1629370462892,0.2488466948270797,-0.1121895536780357,-0.547896683216095,-0.2640210688114166
1629370463003,0.2398362010717392,-0.1471606791019439,-0.6244431734085083,-0.2670086324214935
1629370463098,0.2490288913249969,-0.1590876579284668,-0.6833544373512268,-0.2625994384288788
1629370463206,0.2710860967636108,-0.1654905825853347,-0.6863235235214233,-0.2549777925014496
1629370463386,0.2937805652618408,-0.1787812560796737,-0.6308393478393555,-0.2507509291172027
1629370463452,0.3051277697086334,-0.2043514996767044,-0.5598207712173462,-0.2510988116264343
1629370463523,0.2999824583530426,-0.2392661720514297,-0.5138962864875793,-0.2595581114292145
1629370463586,0.2767249345779419,-0.2754784524440765,-0.5033727288246155,-0.262307733297348
1629370463682,0.238363429903984,-0.3047760725021362,-0.5103158950805664,-0.2497577965259552
1629370463804,0.2045312672853469,-0.3220817148685455,-0.5048014521598816,-0.2007952630519867
1629370463898,0.2233797758817672,-0.3260518312454223,-0.474086582660675,-0.0711365044116973
1629370463995,0.3196374177932739,-0.3201221525669098,-0.4203939139842987,0.1257911324501037
1629370464101,0.4431245326995849,-0.3093239665031433,-0.3573140501976013,0.3131707906723022
1629370464184,0.5406667590141296,-0.3006488382816314,-0.3005924224853515,0.4463387429714203
1629370464281,0.5962889194488525,-0.2973005175590515,-0.2620662152767181,0.5211607813835144
1629370464359,0.6194632649421692,-0.2991490662097931,-0.2446151077747345,0.5520931482315063
1629370464454,0.6269984841346741,-0.3037435710430145,-0.2408207654953003,0.5779794454574585
1629370464533,0.6283435225486755,-0.3091249763965606,-0.2423300445079803,0.6051141619682312
1629370464658,0.6244043707847595,-0.3127066493034363,-0.2499603778123855,0.6075707674026489
1629370464759,0.6159107089042664,-0.3173876702785492,-0.268709659576416,0.6125315427780151
1629370464851,0.6084309816360474,-0.3249850571155548,-0.2958817183971405,0.6192233562469482
1629370464982,0.6085354685783386,-0.3298993408679962,-0.3177516460418701,0.625678539276123
1629370465029,0.6171749234199524,-0.3222746253013611,-0.3215565383434295,0.6295983791351318
1629370465173,0.6277822852134705,-0.3009381294250488,-0.3101853430271148,0.6300910115242004
1629370465238,0.6307541131973267,-0.2759436070919037,-0.2995803356170654,0.6246963739395142
1629370465357,0.6125237941741943,-0.2530938386917114,-0.301569253206253,0.6023252606391907
1629370465457,0.5584731101989746,-0.2290706783533096,-0.3228359222412109,0.543846607208252
1629370465576,0.4623218476772308,-0.2039029002189636,-0.3615927994251251,0.4348702728748321
1629370465675,0.3365263640880584,-0.1847706139087677,-0.4050225615501404,0.2809803783893585
1629370465759,0.2210945785045623,-0.1792971193790435,-0.4333516955375671,0.1234300211071968
1629370465835,0.1576539129018783,-0.1847157925367355,-0.4360484778881073,0.0289418809115886
1629370465957,0.1468746662139892,-0.188891127705574,-0.4213794469833374,0.0331611931324005
1629370466033,0.1736999005079269,-0.1787753999233245,-0.4033592939376831,0.0665458962321281
1629370466147,0.2387610971927642,-0.154359221458435,-0.3890467286109924,0.1298556923866272
1629370466311,0.3378647267818451,-0.1234805136919021,-0.3813911974430084,0.1914265900850296
1629370466470,0.4406244456768036,-0.0950150489807128,-0.38348388671875,0.2318800538778305
1629370466528,0.5172477960586548,-0.0751854553818702,-0.398653894662857,0.2458846122026443
1629370466598,0.5567792057991028,-0.0669500157237052,-0.4279111623764038,0.2415635883808136
1629370466665,0.5671385526657104,-0.0691246390342712,-0.467296302318573,0.2302966713905334
1629370466883,0.5641497373580933,-0.0781195163726806,-0.5078931450843811,0.220018208026886
1629370466916,0.5598093271255493,-0.0945065170526504,-0.5383883714675903,0.2121307998895645
1629370467010,0.5578849911689758,-0.1240766420960426,-0.5543752312660217,0.205959215760231
1629370467122,0.5586444735527039,-0.1675495952367782,-0.5622503161430359,0.2018126100301742
1629370467208,0.5623146891593933,-0.2133869230747223,-0.5692577958106995,0.1995603442192077
1629370467301,0.5669831037521362,-0.2448097914457321,-0.5794807076454163,0.1979053318500518
1629370467438,0.568734347820282,-0.258919894695282,-0.5930195450782776,0.1934247314929962
1629370467508,0.5637749433517456,-0.2685590386390686,-0.6121827363967896,0.177884429693222
1629370467611,0.5485142469406128,-0.288209319114685,-0.6399543285369873,0.1405573189258575
1629370467683,0.5161579251289368,-0.3226374983787536,-0.6737815737724304,0.0742320343852043
1629370467749,0.4568151533603668,-0.3715815246105194,-0.7076759338378906,-0.0158460717648267
1629370467930,0.3665092289447784,-0.4309927821159363,-0.7326892018318176,-0.1031397804617881
1629370468079,0.2602119445800781,-0.4875229001045227,-0.7436364889144897,-0.1528590768575668
1629370468178,0.180270716547966,-0.5139917135238647,-0.7423242330551147,-0.1564060151576995
1629370468264,0.1621994823217392,-0.4950725734233856,-0.7324677109718323,-0.135988250374794
1629370468347,0.1873205602169037,-0.4501015841960907,-0.7073713541030884,-0.1194186583161354
1629370468409,0.2170246839523315,-0.4105754494667053,-0.6620187163352966,-0.1172173619270324
1629370468478,0.2317108660936355,-0.3904808759689331,-0.6046059131622314,-0.1164787262678146
1629370468624,0.2386229038238525,-0.3679695129394531,-0.5346582531929016,-0.1204005032777786
1629370468687,0.2394131124019622,-0.2708377540111542,-0.4121478497982025,-0.1233899220824241
1629370468861,0.2414365708827972,-0.0636437311768531,-0.202134907245636,-0.1196994930505752
1629370468955,0.25201416015625,0.1610909551382064,0.0313377678394317,-0.1053236052393913
1629370469049,0.2710968554019928,0.329086571931839,0.2177253812551498,-0.0818191468715667
1629370469126,0.2926499247550964,0.4268050193786621,0.3380690515041351,-0.0615845993161201
1629370469282,0.3130866587162018,0.469532310962677,0.4014579951763153,-0.0557949133217334
1629370469321,0.330578863620758,0.4828017354011535,0.4280252456665039,-0.0649903863668441
1629370469471,0.3464345932006836,0.4882836639881134,0.4393871426582336,-0.0806701555848121
1629370469515,0.3627686500549316,0.4926649928092956,0.4475868642330169,-0.0976796522736549
1629370469624,0.3627686500549316,0.4947521984577179,0.4554838538169861,-0.0976796522736549
1629370469707,0.3627686500549316,0.4933702647686004,0.4620806276798248,-0.0976796522736549
1629370469824,0.3627686500549316,0.4898443818092346,0.4654292166233063,-0.0976796522736549
1629370469981,0.3627686500549316,0.4866253137588501,0.4642716348171234,-0.0976796522736549
1629370470033,0.3627686500549316,0.4853339493274688,0.4593349695205688,-0.0976796522736549
1629370470175,0.4275786280632019,0.4835355579853058,0.451262891292572,-0.110622152686119
1629370470227,0.4600405991077423,0.4698661267757416,0.4349070191383362,0.02169119566679
1629370470311,0.4859545826911926,0.422250896692276,0.3939148485660553,0.1206606924533844
1629370470548,0.5041430592536926,0.3199518620967865,0.3081661760807037,0.1857136785984039
1629370470666,0.5195840001106262,0.1579138189554214,0.1663506925106048,0.2257646173238754
1629370470745,0.5333999395370483,-0.0329785756766796,-0.0216769147664308,0.2489497363567352
1629370470804,0.540008008480072,-0.1776835471391677,-0.208326369524002,0.2579631209373474
1629370470859,0.5349774956703186,-0.2395428270101547,-0.3280141353607178,0.2563253045082092
1629370470934,0.5181685090065002,-0.2688936591148376,-0.3839680552482605,0.2484469264745712
1629370471072,0.4944166243076324,-0.2920075953006744,-0.416057825088501,0.2383050471544265
1629370471167,0.4698685109615326,-0.3040719330310821,-0.4406319558620453,0.2264619618654251
1629370471306,0.4489111304283142,-0.2999760508537292,-0.4569841921329498,0.2131118476390838
1629370471352,0.4330098628997803,-0.2861776649951935,-0.4553508758544922,0.2233821302652359
1629370471496,0.4297965168952942,-0.2722786664962768,-0.4290616512298584,0.2370699644088745
1629370471558,0.4286326766014099,-0.2647716999053955,-0.383973628282547,0.2498558014631271
1629370471693,0.4166195690631866,-0.2640464901924133,-0.3350191712379455,0.2508829832077026
1629370471777,0.3903065919876098,-0.2695382535457611,-0.2930760383605957,0.2330904155969619
1629370471849,0.3542114198207855,-0.2814503610134125,-0.2608216106891632,0.1985597014427185
1629370471993,0.3203102648258209,-0.2986195683479309,-0.2385170012712478,0.1546876430511474
1629370472034,0.2961981296539306,-0.3177234232425689,-0.2257384657859802,0.1069665029644966
1629370472143,0.2787806689739227,-0.3342330157756805,-0.2198725789785385,0.0566817820072174
1629370472293,0.2605085372924804,-0.346161812543869,-0.2182376384735107,0.0079285716637969
1629370472385,0.2389060407876968,-0.3532068729400635,-0.218392938375473,-0.0331698395311832
1629370472458,0.2225126773118972,-0.3547321557998657,-0.2153586894273758,-0.0618999749422073
1629370472606,0.2183361798524856,-0.3500273525714874,-0.2043929398059845,-0.0810105875134468
1629370472691,0.2218073606491089,-0.339127779006958,-0.1845565289258957,-0.0929329618811607
1629370472767,0.2251354753971099,-0.3250279128551483,-0.1626512110233307,-0.0974634885787963
1629370472885,0.2220501899719238,-0.3134701550006866,-0.1502562165260315,-0.0987388044595718
1629370473022,0.2095413357019424,-0.307029128074646,-0.1540741175413131,-0.1067606657743454
1629370473083,0.1897087693214416,-0.3037954270839691,-0.1727526485919952,-0.1252000331878662
1629370473193,0.1683675348758697,-0.3027987480163574,-0.1988655775785446,-0.1468967348337173
1629370473276,0.1511077284812927,-0.3045868873596191,-0.2268798351287841,-0.1599198877811432
1629370473382,0.1380721926689148,-0.3081361949443817,-0.2555142641067505,-0.1592111140489578
1629370473523,0.1159728616476059,-0.31098073720932,-0.2845590710639953,-0.1516968458890915
1629370473625,0.0714567229151725,-0.3122062385082245,-0.30998694896698,-0.143904447555542
1629370473671,0.0057438276708126,-0.3115467727184295,-0.3257770240306854,-0.1364245414733886
1629370473847,-0.0547279082238674,-0.30799201130867,-0.3253031969070434,-0.1273648291826248
1629370473877,-0.0699535757303237,-0.3022283315658569,-0.3075756728649139,-0.1139812022447586
1629370473939,-0.0340812690556049,-0.2992991805076599,-0.2847565710544586,-0.0939511433243751
1629370474143,0.0253051221370697,-0.30795618891716,-0.2757511734962463,-0.0633051544427871
1629370474223,0.0823971703648567,-0.3365424275398254,-0.2900654673576355,-0.0241179261356592
1629370474280,0.123619444668293,-0.38601154088974,-0.3216394186019897,0.0161090828478336
1629370474392,0.1439785212278366,-0.4436962902545929,-0.3527449667453766,0.0470939166843891
1629370474506,0.1464866399765014,-0.4871121048927307,-0.3704535365104675,0.0624864175915718
1629370474581,0.1404651403427124,-0.5025870203971863,-0.3759726285934448,0.0632978305220604
1629370474709,0.1365057229995727,-0.4950203001499176,-0.3768916726112366,0.0548679754137992
1629370474824,0.1389213949441909,-0.4743927419185638,-0.3761616945266723,0.0432489328086376
1629370474925,0.1460338532924652,-0.4473832547664642,-0.3750680685043335,0.0312099140137434
1629370474966,0.1539689302444458,-0.4212542772293091,-0.3725166916847229,0.0202384851872921
1629370475091,0.1602433174848556,-0.4036267101764679,-0.3673065602779388,0.0115541145205497
1629370475208,0.1646644026041031,-0.399544358253479,-0.3587489128112793,0.0076857372187078
1629370475341,0.168010801076889,-0.407978355884552,-0.3522619307041168,0.008891430683434
1629370475505,0.1660835742950439,-0.4218095541000366,-0.3585816919803619,0.0091044427827
1629370475550,0.1527458727359771,-0.4338203966617584,-0.3851485550403595,-3.545030267559923e-05
1629370475664,0.1221259832382202,-0.4429088234901428,-0.4265269339084625,-0.0208133161067962
1629370475753,0.0749074220657348,-0.4508647918701172,-0.4688137769699096,-0.0473858453333377
1629370475847,0.0191937312483787,-0.4581148326396942,-0.4990186095237732,-0.0732674375176429
1629370475950,-0.0301260519772768,-0.4632251560688019,-0.5103854537010193,-0.0939824134111404
1629370476058,-0.0610145106911659,-0.4686157703399658,-0.4933050274848938,-0.1026437655091285
1629370476159,-0.0736190006136894,-0.4764828979969024,-0.4451729655265808,-0.0953657925128936
1629370476191,-0.0762141421437263,-0.4887545108795166,-0.3805536925792694,-0.0746814087033271
1629370476323,-0.0746107473969459,-0.5073383450508118,-0.3204562962055206,-0.0510435812175273
1629370476412,-0.0726702138781547,-0.5325626730918884,-0.2754886448383331,-0.0332719348371028
1629370476554,-0.0716714859008789,-0.5609956979751587,-0.2470427751541137,-0.0235351901501417
1629370476635,-0.0709454715251922,-0.5825018882751465,-0.2312454730272293,-0.0182575862854719
1629370476738,-0.0722719654440879,-0.5877479314804077,-0.2239716947078704,-0.0129288909956812
1629370476830,-0.0800961330533027,-0.5768817067146301,-0.2222993969917297,-0.0046580149792134
1629370477016,-0.0954275354743003,-0.5585138201713562,-0.2244291454553604,0.0050249407067894
1629370477084,-0.1133280470967292,-0.5395472645759583,-0.2285327315330505,0.0130887879058718
1629370477170,-0.1239418089389801,-0.523430585861206,-0.2322160750627517,0.0143996309489011
1629370477323,-0.1204787567257881,-0.5079831480979919,-0.2334930300712585,0.0045133312232792
1629370477400,-0.1035047322511673,-0.4956787228584289,-0.2335735261440277,-0.0186854843050241
1629370477484,-0.076517753303051,-0.4900540113449096,-0.2372533231973648,-0.0510522872209548
1629370477550,-0.0429400280117988,-0.4914340674877167,-0.2530291676521301,-0.0825790464878082
1629370477621,-0.006507200654596,-0.4975880682468414,-0.2874744236469269,-0.1013678535819053
1629370477760,0.0253822077065706,-0.5048559904098511,-0.3411615788936615,-0.1045292541384697
1629370477892,0.0447252169251441,-0.5092215538024902,-0.4066361486911773,-0.099683865904808
1629370477990,0.0485159568488597,-0.509222686290741,-0.472617506980896,-0.0964829549193382
1629370478180,0.0394547842442989,-0.5054664015769958,-0.5283592343330383,-0.0980490446090698
1629370478298,0.0237046163529157,-0.5023528337478638,-0.5683258175849915,-0.1016347557306289
1629370478390,0.0087364334613084,-0.5016762018203735,-0.5914556980133057,-0.1037667617201805
1629370478480,-0.0008783594821579,-0.5024505257606506,-0.5965500473976135,-0.1064147874712944
1629370478561,-0.0044925543479621,-0.5035548210144043,-0.5833083987236023,-0.1118542179465293
1629370478657,-0.0068060918711125,-0.5057334899902344,-0.5575025081634521,-0.1193393543362617
1629370478734,-0.0139083890244364,-0.5095346570014954,-0.5321574807167053,-0.1270041167736053
1629370478842,-0.0277720615267753,-0.5149787664413452,-0.5187662243843079,-0.1324315667152404
1629370478898,-0.0474839769303798,-0.515370786190033,-0.5183517932891846,-0.133740022778511
1629370478977,-0.0726129412651062,-0.5085726380348206,-0.5260551571846008,-0.1327780783176422
1629370479067,-0.1007995903491973,-0.4955253899097442,-0.5348027944564819,-0.1342770159244537
1629370479148,-0.1233885735273361,-0.4797400832176208,-0.5405435562133789,-0.1376613974571228
1629370479291,-0.1274259984493255,-0.4630363285541534,-0.5430499315261841,-0.1347517520189285
1629370479385,-0.108350783586502,-0.4480921924114227,-0.5422600507736206,-0.1186950430274009
1629370479456,-0.0775989443063736,-0.4407835006713867,-0.5326019525527954,-0.0922320857644081
1629370479574,-0.0461013168096542,-0.4466417133808136,-0.5089067220687866,-0.0675318241119384
1629370479714,-0.0182024799287319,-0.4648036658763885,-0.4703312516212463,-0.0551368333399295
1629370479812,0.0064447470940649,-0.4886290431022644,-0.4195884168148041,-0.0582806728780269
1629370479911,0.0264178179204463,-0.5077643990516663,-0.3634863793849945,-0.0728110298514366
1629370480021,0.0371602326631546,-0.5187416076660156,-0.3079881072044372,-0.09024678170681
1629370480110,0.0392819046974182,-0.5280835032463074,-0.2579248547554016,-0.1058604568243026
1629370480232,0.0464848987758159,-0.5402480959892273,-0.2169529050588607,-0.1029662415385246
1629370480332,0.0575542412698268,-0.5453624725341797,-0.1837807893753051,-0.0962748900055885
1629370480440,0.07603769749403,-0.5104533433914185,-0.1384498924016952,-0.0860124751925468
1629370480531,0.0994133651256561,-0.3474772572517395,-0.0434913970530033,-0.0704933255910873
1629370480618,0.1195696145296096,-0.0933194756507873,0.0982765853404998,-0.0519322678446769
1629370480686,0.1260775625705719,0.138129785656929,0.2339239567518234,-0.0422042980790138
1629370480839,0.1125553399324417,0.1585024446249008,0.3281330466270447,-0.0581735074520111
1629370480906,0.0805544778704643,0.1807503849267959,0.3774862885475158,-0.1105627194046974
1629370481008,0.0442763119935989,0.2066503465175628,0.4035104811191559,-0.198843777179718
1629370481089,0.0187757369130849,0.2341959327459335,0.4306151568889618,-0.3014052212238312
1629370481172,0.0068885856308043,0.2426369041204452,0.4582191109657287,-0.3766664862632751
1629370481256,0.0068885856308043,0.2476454079151153,0.4853720664978027,-0.3766664862632751
1629370481407,0.0068885856308043,0.2530173063278198,0.4745074212551117,-0.3766664862632751
1629370481518,0.0068885856308043,0.260267049074173,0.4598127901554107,-0.3766664862632751
1629370481608,0.0068885856308043,0.2689286768436432,0.4432232081890106,-0.3766664862632751
1629370481700,0.0068885856308043,0.2763727903366089,0.4274046719074249,-0.3766664862632751
1629370481853,0.0068885856308043,0.2793299853801727,0.4136307835578918,-0.3766664862632751
1629370481950,0.0068885856308043,0.2727398872375488,0.3952863812446594,0.4041053652763366
1629370482050,0.4725129604339599,0.2301460057497024,0.3507342338562011,0.3379098176956177
1629370482138,0.4457349181175232,0.0971617847681045,0.2488659620285034,0.2845429182052612
1629370482195,0.4225594699382782,-0.2718806862831116,0.0637812092900276,0.2495090663433075
1629370482307,0.4035067856311798,-0.2793022394180298,-0.2189114987850189,0.2264219671487808
1629370482442,0.3848739564418793,-0.2727187573909759,-0.5805013179779053,0.2037177383899688
1629370482498,0.3642641901969909,-0.2543392479419708,-0.5732010006904602,0.1760481745004654
1629370482620,0.3443523943424225,-0.2820037603378296,-0.5667381882667542,0.1457227170467376
1629370482742,0.3271098732948303,-0.2502456307411194,-0.5493361353874207,0.117376372218132
1629370482841,0.3114583492279053,-0.2034995555877685,-0.5187835097312927,0.0924268513917923
1629370482891,0.2950532436370849,-0.1626150608062744,-0.4837166965007782,0.0699768140912056
1629370483090,0.2773743867874145,-0.1407947838306427,-0.4517295360565185,0.0484820194542408
1629370483165,0.2599686682224273,-0.1368668228387832,-0.424844890832901,-0.0363381616771221
1629370483322,0.227521538734436,-0.1369818449020385,-0.3978093564510345,-0.1396463215351104
1629370483420,0.1928359419107437,-0.1272904723882675,-0.3696772754192352,-0.2332697957754135
1629370483511,0.1699378341436386,-0.1079509556293487,-0.3456850945949554,-0.2909059226512909
1629370483607,0.1664130985736847,-0.0887601599097251,-0.331609308719635,-0.315870076417923
1629370483679,0.1761404722929,-0.0772879049181938,-0.3289571404457092,-0.3338558673858642
1629370483738,0.1868989467620849,-0.0742429420351982,-0.3342383205890655,-0.3585065603256225
1629370483841,0.194110631942749,-0.0775507166981697,-0.3404234647750854,-0.3850681185722351
1629370484012,0.197347417473793,-0.0870974361896514,-0.3410646617412567,-0.3968017697334289
1629370484116,0.1965279579162597,-0.1046832203865051,-0.3349076211452484,-0.3859834372997284
1629370484214,0.192348375916481,-0.132753849029541,-0.3298412263393402,-0.3639501333236694
1629370484308,0.1860839873552322,-0.1751612871885299,-0.3378103971481323,-0.3466174602508545
1629370484416,0.179249495267868,-0.234856367111206,-0.3641083538532257,-0.3371884524822235
1629370484537,0.1732028424739837,-0.3072465062141418,-0.4021608233451843,-0.3306904137134552
1629370484645,0.1700358688831329,-0.3761880695819855,-0.4380227625370025,-0.3215582072734833
1629370484731,0.1700486689805984,-0.4279077649116516,-0.4644009172916412,-0.3098340928554535
1629370484821,0.1671611964702606,-0.4681801795959472,-0.4865935742855072,-0.2984055280685425
1629370484891,0.1531518399715423,-0.5189614295959473,-0.511622965335846,-0.2883571982383728
1629370484980,0.1222805231809616,-0.5955837965011597,-0.5389620661735535,-0.2798599004745483
1629370485077,0.0759496763348579,-0.6828253269195557,-0.5585752725601196,-0.2705382108688354
1629370485165,0.0208658222109079,-0.7282170057296753,-0.5558452606201172,-0.2555974721908569
1629370485289,-0.0377378761768341,-0.6896734237670898,-0.5234664082527161,-0.234650582075119
1629370485355,-0.0958747193217277,-0.6040574908256531,-0.4718173146247864,-0.2137226015329361
1629370485513,-0.1433583199977874,-0.5236964821815491,-0.4188644886016845,-0.2014975100755691
1629370485558,-0.1628342568874359,-0.4647697806358337,-0.3780383765697479,-0.2020631581544876
1629370485640,-0.1517065912485122,-0.419983446598053,-0.3487134575843811,-0.2117648422718048
1629370485824,-0.118019200861454,-0.3788083791732788,-0.3159040510654449,-0.221680149435997
1629370485872,-0.0730814188718795,-0.3381970524787903,-0.2653451561927795,-0.2232910245656967
1629370486040,-0.0279773417860269,-0.2988608479499817,-0.1998928338289261,-0.2087217271327972
1629370486110,0.0071725458838045,-0.2641223967075348,-0.1369886845350265,-0.172065794467926
1629370486179,0.0286697968840599,-0.2371598035097122,-0.0916203707456588,-0.1187833249568939
1629370486271,0.0411543138325214,-0.2178793847560882,-0.0635709539055824,-0.0631522238254547
1629370486472,0.051444336771965,-0.2011006474494934,-0.0404707565903663,-0.0167277064174413
1629370486564,0.0598790124058723,-0.1791643649339676,-0.0119128674268722,0.0180077292025089
1629370486680,0.0636004507541656,-0.1516771167516708,0.0204110480844974,0.0412293449044227
1629370486754,0.0633819848299026,-0.1281294971704483,0.0456239618360996,0.0508584752678871
1629370486844,0.066186599433422,-0.1198051795363426,0.0545793063938617,0.0459417663514614
1629370486971,0.0771801695227623,-0.1294657438993454,0.0458437390625476,0.0326984487473964
1629370487016,0.0943017750978469,-0.1512225866317749,0.0247686840593814,0.0206167567521333
1629370487154,0.1087651178240776,-0.1760357767343521,3.399637353140861e-05,0.0143179213628172
1629370487192,0.1146357581019401,-0.2001784443855285,-0.0218292642384767,0.011313097551465
1629370487273,0.1092323139309883,-0.2259322702884674,-0.0418270155787467,0.0079996027052402
1629370487430,0.0943991690874099,-0.2546963393688202,-0.0656314045190811,0.0054198871366679
1629370487510,0.0750734508037567,-0.2847984433174133,-0.0950160920619964,0.0041999341920018
1629370487609,0.0593808963894844,-0.3108322620391845,-0.1227318421006202,0.0009455395629629
1629370487745,0.0555734820663929,-0.3259828388690948,-0.1371856778860092,-0.0075868000276386
1629370487774,0.0660442486405372,-0.3264172673225403,-0.1398257464170456,-0.0183094050735235
1629370487918,0.0696240961551666,-0.3177458345890045,-0.1434728503227234,-0.0495970323681831
1629370488013,0.0807089582085609,-0.298196017742157,-0.1417850106954574,-0.0786252170801162
1629370488108,0.1001839712262153,-0.216497927904129,-0.0817348957061767,-0.1013143360614776
1629370488242,0.1250745952129364,-0.0402252934873104,0.0729703605175018,-0.1130431666970253
1629370488307,0.1479970514774322,0.1570956259965896,0.2569659650325775,-0.1101232841610908
1629370488450,0.1629751175642013,0.3095763623714447,0.4026894569396972,-0.0981879755854606
1629370488511,0.1675673127174377,0.4054186046123504,0.4933130741119385,-0.0826702788472175
1629370488635,0.1651614010334015,0.4603594243526459,0.5385244488716125,-0.0605873875319957
1629370488766,0.1592855006456375,0.4953007102012634,0.5568411350250244,-0.022627655416727
1629370488868,0.1533648073673248,0.5233096480369568,0.5640103220939636,0.0348666161298751
1629370488941,0.1505276411771774,0.5542437434196472,0.5680925250053406,0.0998764410614967
1629370489047,0.1505276411771774,0.5701648592948914,0.5931724905967712,0.0998764410614967
1629370489116,0.1505276411771774,0.6092575192451477,0.6180742383003235,0.0998764410614967
1629370489315,0.1505276411771774,0.6829726696014404,0.6439211368560791,0.0998764410614967
1629370489425,0.1505276411771774,0.7687765955924988,0.6729536056518555,0.0998764410614967
1629370489476,0.1505276411771774,0.8377435207366943,0.7065786123275757,0.0998764410614967
1629370489548,0.1505276411771774,0.8805687427520752,0.7417237162590027,0.0998764410614967
1629370489616,0.1505276411771774,0.9049588441848756,0.7660303115844727,0.0998764410614967
1629370489692,0.1505276411771774,0.9173190593719482,0.7578989863395691,0.0998764410614967
1629370489804,0.1505276411771774,0.9147529006004332,0.6963563561439514,0.0998764410614967
1629370489919,0.1505276411771774,0.9053755402565002,0.5687747597694397,0.0998764410614967
1629370490053,0.1505276411771774,0.9047478437423706,0.3415624499320984,0.0998764410614967
1629370490164,0.1505276411771774,0.869729220867157,0.1538530737161636,0.0998764410614967
1629370490256,0.1505276411771774,0.8417180776596069,0.0794926285743713,0.0998764410614967
1629370490347,0.1505276411771774,0.7919520735740662,0.0668134614825248,0.0998764410614967
1629370490432,0.1505276411771774,0.7478832006454468,0.04758882522583,0.0998764410614967
1629370490557,0.1505276411771774,0.7353327870368958,0.0014896711800247,-0.1180897206068039
1629370490672,0.1782635003328323,0.6983110308647156,-0.0373813509941101,-0.1371520161628723
1629370490738,0.1379803866147995,0.603611946105957,-0.0664610192179679,-0.1513323634862899
1629370490822,0.1104383543133735,0.4210818111896515,-0.0890047550201416,-0.1644611954689026
1629370490975,0.0874784961342811,0.118529126048088,-0.109846718609333,-0.1786095649003982
1629370491051,0.0640249103307724,-0.4427932202816009,-0.13322614133358,-0.1968872845172882
1629370491168,0.0367758832871913,-0.4053744971752167,-0.1600701063871383,-0.2183275520801544
1629370491294,0.0066631995141506,-0.3784361183643341,-0.1882441639900207,-0.2357015013694763
1629370491386,-0.0245661865919828,-0.3689814209938049,-0.2142157554626464,-0.2400816679000854
1629370491515,-0.0245661865919828,-0.3584222793579101,-0.2313674390316009,-0.2400816679000854
1629370491580,-0.0245661865919828,-0.3064111471176147,-0.2479463815689087,-0.2400816679000854
1629370491700,-0.0245661865919828,-0.1375263482332229,-0.1203237324953079,-0.2400816679000854
1629370491859,-0.0245661865919828,0.1203641593456268,0.127454787492752,-0.2848703563213348
1629370491935,-0.0977964922785759,0.1464105993509292,0.3580006659030914,-0.3060557544231415
1629370492025,-0.1540335118770599,0.173759788274765,0.514663577079773,-0.3109525442123413
1629370492071,-0.1859158873558044,0.2019851803779602,0.6001243591308594,-0.3169198036193847
1629370492193,-0.2051175534725189,0.2322733998298645,0.6355047225952148,-0.3321509957313537
1629370492317,-0.2309738546609878,0.2662301063537597,0.646375298500061,-0.3517509996891022
1629370492452,-0.2744567096233368,0.3038897812366485,0.6501402854919434,-0.3745524883270263
1629370492552,-0.3388922810554504,0.3442077934741974,0.6520372033119202,-0.3975373804569244
1629370492619,-0.3388922810554504,0.3870846927165985,0.6530729532241821,-0.3975373804569244
1629370492709,-0.3388922810554504,0.3838762640953064,0.6541118025779724,-0.3975373804569244
1629370492825,-0.3388922810554504,0.3767586350440979,0.6560249328613281,-0.3975373804569244
1629370492916,-0.3388922810554504,0.373129278421402,0.6591807007789612,-0.3975373804569244
1629370493036,0.4900423586368561,0.3663447499275207,0.6626152992248535,-0.3975373804569244
1629370493119,0.4925442636013031,0.3426112234592438,0.6613741517066956,0.1080856472253799
1629370493231,0.5148034691810608,0.2438991963863372,0.6416465640068054,0.2225858718156814
1629370493395,0.5646827220916748,-0.0958663672208786,0.5846652388572693,0.3368694186210632
1629370493472,0.6268098950386047,0.0831435918807983,0.4803495109081268,0.4368236362934112
1629370493550,0.6268098950386047,0.2053124159574508,0.3401593267917633,0.5089435577392578
1629370493634,0.6268098950386047,0.2669661045074463,0.2072686553001403,0.5089435577392578
1629370493740,0.6268098950386047,0.2863333225250244,0.130353644490242,0.5089435577392578
1629370493846,0.6268098950386047,0.2847623527050018,0.1035679131746292,0.5089435577392578
1629370493894,0.6268098950386047,0.2762216031551361,0.0940159410238266,0.5089435577392578
1629370494039,0.6268098950386047,0.2635104954242706,0.0901335105299949,0.5089435577392578
1629370494117,0.6268098950386047,0.2469505816698074,0.0899801105260849,0.5089435577392578
1629370494243,0.6439722180366516,0.248732641339302,0.092061311006546,0.5089435577392578
1629370494359,0.6633861660957336,0.271787017583847,0.1026840135455131,0.5516409277915955
1629370494453,0.6903665065765381,0.2972946763038635,0.157249316573143,0.6034353375434875
1629370494515,0.7306656241416931,0.3266537189483642,0.2863689959049225,0.6589313745498657
1629370494626,0.7306656241416931,0.357412040233612,0.4479561746120453,0.7137899398803711
1629370494774,0.7306656241416931,0.3808607161045074,0.5788392424583435,0.7137899398803711
1629370494836,0.7306656241416931,0.3797118663787842,0.5942143797874451,0.7137899398803711
1629370494942,0.7306656241416931,0.3399645090103149,0.6280837655067444,0.7137899398803711
1629370495003,0.7306656241416931,0.2603800892829895,0.6299325227737427,0.7137899398803711
1629370495152,0.7306656241416931,0.1612385958433151,0.6258448958396912,0.7137899398803711
1629370495209,0.7306656241416931,0.0734017565846443,0.6261231899261475,0.7137899398803711
1629370495313,0.7306656241416931,0.0076416316442191,0.6285529136657715,0.7137899398803711
1629370495442,0.7306656241416931,0.0076416316442191,0.6305776238441467,0.7137899398803711
1629370495524,0.7306656241416931,0.0076416316442191,0.6317081451416016,0.7137899398803711
1629370495725,0.7306656241416931,0.0076416316442191,0.6326342225074768,0.7137899398803711
1629370495841,0.7306656241416931,0.0076416316442191,0.6336151361465454,0.7137899398803711
1629370495908,0.416803628206253,-0.3815376162528991,0.6316151022911072,-0.0206024125218391
1629370496017,0.4179004728794098,-0.4190309941768646,0.6129131317138672,-0.0326548963785171
1629370496124,0.3948351740837097,-0.4616259932518005,0.5514365434646606,-0.0259976424276828
1629370496190,0.3619903922080993,-0.4800783395767212,0.4164949953556061,0.0021036949474364
1629370496298,0.3315954208374023,-0.4655183553695678,0.1781486123800277,0.0365135855972766
1629370496410,0.3315954208374023,-0.4296148717403412,0.156032919883728,0.0365135855972766
1629370496500,0.3315954208374023,-0.3745836913585663,-0.0123501783236861,0.0365135855972766
1629370496584,0.3315954208374023,-0.2600475251674652,-0.1118071526288986,0.0365135855972766
1629370496697,0.3315954208374023,-0.082859456539154,-0.1759721785783767,0.0365135855972766
1629370496761,0.3315954208374023,-0.082859456539154,-0.2305655777454376,0.0365135855972766
1629370496853,0.3315954208374023,-0.082859456539154,-0.2649088501930237,0.0365135855972766
1629370496970,0.3315954208374023,-0.082859456539154,-0.2712082266807556,0.0365135855972766
1629370497099,0.3214342296123504,-0.0626020357012748,-0.2297694385051727,0.0330245867371559
1629370497129,0.3223488926887512,-0.0409912504255771,-0.2309237718582153,0.0434571020305156
1629370497275,0.2939390540122986,-0.0177533756941556,-0.2312133461236953,0.0589746944606304
1629370497460,0.2254851907491684,0.0135786607861518,-0.23249252140522,0.0869835913181305
1629370497494,0.2254851907491684,0.0585599914193153,-0.2357846349477768,0.0869835913181305
1629370497571,0.2254851907491684,0.1163319125771522,-0.2432520985603332,0.0869835913181305
1629370497683,0.2254851907491684,0.1817386597394943,-0.2540897130966186,0.0869835913181305
1629370497837,0.2254851907491684,0.6829362511634827,-0.2565146386623382,0.0869835913181305
1629370498004,0.2254851907491684,0.8532894253730774,-0.23796246945858,0.0869835913181305
1629370498096,0.2254851907491684,0.9096236228942872,-0.1984265297651291,0.0869835913181305
1629370498217,0.2254851907491684,0.9076966047286988,-0.1476987898349762,0.0869835913181305
1629370498315,0.2254851907491684,0.8699231147766113,-0.0465469136834144,0.0869835913181305
1629370498403,0.2254851907491684,0.7975452542304993,0.047910489141941,0.0869835913181305
1629370498462,0.2254851907491684,0.7411859035491943,0.1290218830108642,0.0869835913181305
1629370498583,0.2254851907491684,0.6960156559944153,0.1923325210809707,0.0869835913181305
1629370498660,0.2254851907491684,0.6577033400535583,0.2189259380102157,0.0869835913181305
1629370498750,0.2254851907491684,0.6577033400535583,0.2449366748332977,0.0869835913181305
1629370498840,0.2254851907491684,0.6577033400535583,0.2755857408046722,0.0869835913181305
1629370498914,0.2254851907491684,0.6577033400535583,0.3133507966995239,0.0869835913181305
1629370498980,0.2254851907491684,0.6577033400535583,0.3607490658760071,0.0869835913181305
1629370499072,0.2254851907491684,0.6577033400535583,0.4095115661621094,0.0869835913181305
1629370499173,0.2254851907491684,0.6577033400535583,0.4459249973297119,0.0869835913181305
1629370499268,0.2254851907491684,0.4771918952465057,0.4611667394638061,0.0869835913181305
1629370499471,0.2254851907491684,0.22764553129673,0.4549137055873871,0.0869835913181305
1629370499542,0.2254851907491684,0.0006724849226884,0.435662031173706,0.0869835913181305
1629370499631,0.2254851907491684,-0.058906402438879,0.4141080379486084,0.0869835913181305
1629370499731,0.2254851907491684,-0.0152458436787128,0.4140467643737793,0.0869835913181305
1629370499827,0.2254851907491684,-0.0152458436787128,0.4226046204566955,0.0869835913181305
1629370499942,0.2254851907491684,-0.0152458436787128,0.4389021396636963,0.0869835913181305
1629370500010,0.2254851907491684,-0.0152458436787128,0.4538243114948272,0.0869835913181305
1629370500117,0.2254851907491684,-0.0152458436787128,0.4594408273696899,0.0869835913181305
1629370500233,0.2254851907491684,-0.0152458436787128,0.4517301619052887,0.0869835913181305
1629370500382,0.2254851907491684,-0.0152458436787128,0.4320166409015655,0.0869835913181305
1629370500462,0.2254851907491684,-0.0152458436787128,0.4019985198974609,0.0869835913181305
1629370500563,0.2254851907491684,-0.0152458436787128,0.3593656122684479,0.0869835913181305
1629370500657,0.2254851907491684,-0.0152458436787128,0.3020162582397461,0.0869835913181305
1629370500834,0.2254851907491684,-0.0152458436787128,0.2358824908733368,0.0869835913181305
1629370500972,0.2254851907491684,-0.0152458436787128,0.176395982503891,0.0869835913181305
1629370501062,0.2254851907491684,-0.0152458436787128,0.1398117393255233,1.0830206871032717
1629370501169,0.9201517701148988,0.1902821362018585,0.1248122677206993,1.0460100173950195
1629370501238,0.9201517701148988,0.1777255237102508,0.1175436154007911,1.0460100173950195
1629370501311,0.9201517701148988,0.2498518675565719,0.1037150770425796,1.0460100173950195
1629370501370,0.9201517701148988,0.2498518675565719,0.0828665941953659,1.0460100173950195
1629370501441,0.9201517701148988,0.2498518675565719,0.0286402646452188,1.0460100173950195
1629370501525,0.9201517701148988,0.2498518675565719,-0.0470533818006515,1.009039044380188
1629370501634,0.9201517701148988,0.2498518675565719,-0.1202525720000267,1.009039044380188
1629370501753,0.9201517701148988,0.2498518675565719,-0.1611862927675247,1.009039044380188
1629370501830,0.9201517701148988,0.2498518675565719,-0.1664948761463165,1.009039044380188
1629370501926,0.9201517701148988,0.2498518675565719,-0.1571559756994247,1.009039044380188
1629370502091,0.9201517701148988,0.2498518675565719,-0.1538463085889816,1.009039044380188
1629370502158,0.9201517701148988,0.2498518675565719,-0.1605567038059234,1.009039044380188
1629370502222,0.9201517701148988,0.2421497404575348,-0.1711075901985168,1.009039044380188
1629370502404,0.9201517701148988,0.2524710595607757,-0.1722929030656814,1.009039044380188
1629370502538,0.9201517701148988,0.2524710595607757,-0.1507001668214798,1.009039044380188
1629370502619,0.9201517701148988,0.2524710595607757,-0.1507001668214798,1.009039044380188
1629370502718,0.9201517701148988,0.2524710595607757,-0.1507001668214798,1.009039044380188
1629370502785,0.9201517701148988,0.2524710595607757,-0.1507001668214798,1.009039044380188
1629370502849,0.9201517701148988,0.2524710595607757,-0.1507001668214798,1.009039044380188
1629370503024,0.9201517701148988,0.2524710595607757,-0.1507001668214798,1.009039044380188
1629370503128,0.9201517701148988,0.2524710595607757,-0.1507001668214798,1.009039044380188
1629370503217,0.9201517701148988,0.2524710595607757,-0.1507001668214798,1.009039044380188
1629370503321,0.9201517701148988,0.2524710595607757,-0.1507001668214798,1.009039044380188
1629370503479,0.9201517701148988,0.2524710595607757,-0.1507001668214798,1.009039044380188
1629370503535,0.9201517701148988,0.2524710595607757,-0.1507001668214798,1.009039044380188
1629370503621,0.9201517701148988,0.2524710595607757,-0.1507001668214798,1.009039044380188
1629370503687,0.9201517701148988,0.2524710595607757,-0.1507001668214798,1.009039044380188
1629370503743,0.9201517701148988,0.2524710595607757,-0.1507001668214798,1.009039044380188
1629370503817,0.9201517701148988,0.2524710595607757,-0.1507001668214798,1.009039044380188
1629370503944,0.9201517701148988,0.2524710595607757,-0.1507001668214798,1.009039044380188
1629370504036,0.9201517701148988,0.2524710595607757,-0.1507001668214798,1.009039044380188
1629370504165,0.9201517701148988,0.2524710595607757,-0.1507001668214798,1.009039044380188
1629370504220,0.9201517701148988,0.2524710595607757,-0.1507001668214798,1.009039044380188
1629370504324,0.9201517701148988,0.2524710595607757,-0.1507001668214798,1.009039044380188
1629370504412,0.9201517701148988,0.2524710595607757,-0.1507001668214798,1.009039044380188
1629370504587,0.9201517701148988,0.2524710595607757,-0.1507001668214798,1.009039044380188
1629370504711,0.9201517701148988,0.2524710595607757,-0.1507001668214798,1.009039044380188
1629370504769,0.9201517701148988,0.2524710595607757,-0.1787772476673126,1.009039044380188
1629370504877,0.9201517701148988,0.6759493947029114,-0.0505580529570579,1.009039044380188
1629370504961,0.9201517701148988,0.654802680015564,0.032862339168787,1.009039044380188
1629370505046,0.9201517701148988,0.6768163442611694,0.0877529084682464,1.009039044380188
1629370505269,0.9201517701148988,0.7115264534950256,0.0877529084682464,1.009039044380188
1629370505346,0.9201517701148988,0.7341195344924927,0.1280748099088668,1.009039044380188
1629370505436,0.9201517701148988,0.7372925877571106,0.1280748099088668,1.009039044380188
1629370505507,0.9201517701148988,0.7272396683692932,0.1198670417070388,1.009039044380188
1629370505697,0.9201517701148988,0.7098408341407776,0.0969204381108284,1.009039044380188
1629370505788,0.9201517701148988,0.6879607439041138,0.0725514963269233,0.9481797218322754
1629370505889,0.9201517701148988,0.6635323166847229,0.0524755455553531,0.9471663236618042
1629370505952,0.9201517701148988,0.6385257244110107,0.036648541688919,0.9256278872489928
1629370506019,0.9201517701148988,0.6147775650024414,0.0455515719950199,0.89687579870224
1629370506100,0.9201517701148988,0.564456045627594,0.0564240738749504,0.8767282962799072
1629370506210,0.9201517701148988,0.5307727456092834,0.0631846860051155,0.8672627806663513
1629370506293,0.9201517701148988,0.5161805152893066,0.0626431107521057,0.8870927691459656
1629370506380,0.9201517701148988,0.5157620906829834,0.0696614831686019,0.8767189383506775
1629370506499,0.9201517701148988,0.5392833948135376,0.0427287556231021,0.8250075578689575
1629370506634,0.9201517701148988,0.6079807877540588,0.0056820232421159,0.8250075578689575
1629370506721,0.9201517701148988,0.5806394219398499,0.0056820232421159,0.8250075578689575
1629370506871,0.9201517701148988,0.5484331846237183,-0.0472884401679039,0.8250075578689575
1629370506883,0.9201517701148988,0.5248322486877441,-0.0472884401679039,0.8250075578689575
1629370507027,0.9201517701148988,0.514532208442688,-0.0592831894755363,0.8250075578689575
1629370507079,0.9201517701148988,0.517691433429718,-0.0450342781841754,0.8250075578689575
1629370507233,0.9201517701148988,0.5347804427146912,-0.0182282980531454,0.7895498871803284
1629370507327,0.9201517701148988,0.5656251311302185,0.0122121190652251,0.7408759593963623
1629370507416,0.9201517701148988,0.5814933180809021,0.0467027053236961,0.7408759593963623
1629370507478,0.9201517701148988,0.6049445867538452,0.0229641310870647,0.7408759593963623
1629370507685,0.9201517701148988,0.6327472925186157,-0.0154250198975205,0.7408759593963623
1629370507751,0.9201517701148988,0.6643953323364258,-0.0796397477388382,0.7408759593963623
1629370507856,0.9201517701148988,0.69502192735672,-0.1998048722743988,0.7408759593963623
1629370507919,0.9201517701148988,0.708346426486969,-0.5703675150871277,0.4842324554920196
1629370508045,0.9201517701148988,0.662851095199585,-0.5938776731491089,0.5267340540885925
1629370508111,0.9201517701148988,0.462102323770523,-0.6267246603965759,0.5344322919845581
1629370508226,0.9201517701148988,0.4270303249359131,-0.662930428981781,0.5180361270904541
1629370508347,0.9201517701148988,0.3974680602550506,-0.6911232471466064,0.4893835783004761
1629370508482,0.3409021496772766,0.3729452788829803,-0.702114999294281,0.4592992961406708
1629370508530,0.2707776427268982,0.3520709872245788,-0.6813101172447205,0.4337323009967804
1629370508632,0.2400759607553482,0.3345292508602142,-0.620863676071167,0.4160182178020477
1629370508717,0.2853187620639801,0.3209363222122192,-0.5204545855522156,0.422970175743103
1629370508947,0.3927890062332153,0.3113742768764496,-0.4033883810043335,0.4693669974803924
1629370508996,0.502862274646759,0.3029175400733948,-0.3032797574996948,0.5381976366043091
1629370509167,0.5775086283683777,0.2852621972560882,-0.2271448373794555,0.5999124646186829
1629370509219,0.613857626914978,0.2516930401325226,-0.1782877892255783,0.6580880284309387
1629370509289,0.6280926465988159,0.1975498348474502,-0.1474021524190902,0.688381552696228
1629370509381,0.6352127194404602,0.1258940994739532,-0.1246068924665451,0.6984429359436035
1629370509526,0.6390991806983948,0.053439263254404,-0.105000264942646,0.6963426470756531
1629370509576,0.6366679668426514,0.0007814829587005,-0.0886580199003219,0.6869312524795532
1629370509676,0.6268372535705566,-0.0276091396808624,-0.0769842416048049,0.674358606338501
1629370509785,0.6243773698806763,-0.0461294651031494,-0.069693423807621,0.6638569831848145
1629370509894,0.6302359104156494,-0.0632908195257186,-0.0664204210042953,0.6580982208251953
1629370509980,0.6400379538536072,-0.0828840658068656,-0.0666334182024002,0.655571460723877
1629370510139,0.6483840942382812,-0.1080760285258293,-0.0717488154768943,0.6531067490577698
1629370510292,0.6505825519561768,-0.1419882774353027,-0.0852752104401588,0.6477048397064209
1629370510338,0.6377856135368347,-0.1853682696819305,-0.1147302463650703,0.6306074261665344
1629370510474,0.6010681390762329,-0.2298966348171234,-0.1649630963802337,0.5877934098243713
1629370510530,0.5395194292068481,-0.2556898891925812,-0.2274974435567855,0.5112742185592651
1629370510601,0.4655938446521759,-0.2475919276475906,-0.2777572870254516,0.4064640998840332
1629370510691,0.396793007850647,-0.2142377346754074,-0.293318897485733,0.2957048118114471
1629370510726,0.3542115688323974,-0.1726221144199371,-0.2802262008190155,0.2020829766988754
1629370510875,0.3091020584106445,-0.1717486530542373,-0.2487416565418243,0.1103439703583717
1629370510988,0.2558180093765259,-0.1638605296611786,-0.2037545889616012,0.0149290403351187
1629370511042,0.2050025463104248,-0.1465108692646026,-0.1495603322982788,-0.0682362616062164
1629370511104,0.1712429970502853,-0.1215743869543075,-0.1007553413510322,-0.1102345809340477
1629370511274,0.1467266380786895,-0.0954314768314361,-0.0818022117018699,-0.1143891960382461
1629370511410,0.116174004971981,-0.0713890343904495,-0.0568311922252178,-0.1096846684813499
1629370511493,0.0771287754178047,-0.0446372516453266,-0.0276812855154275,-0.1140448972582817
1629370511550,0.0368887856602668,-0.007131555583328,0.0040840068832039,-0.1216495335102081
1629370511657,0.0078866183757781,0.0461487360298633,0.037915863096714,-0.1138302981853485
1629370511884,-0.0037306668236851,0.1121041700243949,0.0739867091178894,-0.0823466256260871
1629370511977,-0.0037306668236851,0.1772888749837875,0.1106429323554039,-0.0823466256260871
1629370512059,-0.0037306668236851,0.1772888749837875,0.1951522678136825,-0.0823466256260871
1629370512121,-0.0037306668236851,0.1772888749837875,0.286155641078949,-0.0823466256260871
1629370512177,-0.0037306668236851,0.1772888749837875,0.362861692905426,-0.0823466256260871
1629370512273,-0.0037306668236851,0.1772888749837875,0.4165028035640716,-0.0823466256260871
1629370512388,-0.0037306668236851,0.1772888749837875,0.4468883275985718,-0.0823466256260871
1629370512506,-0.0037306668236851,0.1772888749837875,0.4638820886611938,-0.0823466256260871
1629370512548,-0.0037306668236851,0.1772888749837875,0.4725267291069031,-0.0823466256260871
1629370512670,-0.0037306668236851,0.1772888749837875,0.4770488739013672,-0.0823466256260871
1629370512853,-0.0037306668236851,0.1772888749837875,0.4499854445457458,-0.0823466256260871
1629370512980,-0.0037306668236851,0.1772888749837875,0.4179241359233856,-0.0823466256260871
1629370513106,-0.0037306668236851,0.1772888749837875,0.3853451013565063,-0.0823466256260871
1629370513176,-0.0037306668236851,0.1772888749837875,0.3589732944965362,-0.0823466256260871
1629370513238,-0.0037306668236851,0.1772888749837875,0.3589732944965362,-0.0823466256260871
1629370513290,-0.0037306668236851,0.1772888749837875,0.3589732944965362,-0.0823466256260871
1629370513426,-0.0037306668236851,0.1772888749837875,0.3589732944965362,-0.0823466256260871
1629370513535,-0.0037306668236851,0.1772888749837875,0.3504796326160431,-0.0823466256260871
1629370513645,-0.0037306668236851,0.1772888749837875,0.3201883733272552,-0.0823466256260871
1629370513776,-0.0037306668236851,0.1772888749837875,0.2724594473838806,-0.0823466256260871
1629370513913,-0.0037306668236851,0.1772888749837875,0.2185803055763244,-0.0823466256260871
1629370513988,-0.0037306668236851,0.1772888749837875,0.1686222106218338,-0.0823466256260871
1629370514131,-0.0037306668236851,0.1772888749837875,0.111208252608776,-0.0823466256260871
1629370514213,-0.0037306668236851,0.1772888749837875,0.0334557071328163,-0.0823466256260871
1629370514247,-0.0037306668236851,0.1772888749837875,-0.0668293163180351,-0.0823466256260871
1629370514372,-0.0037306668236851,0.1772888749837875,0.281204342842102,-0.0823466256260871
1629370514437,-0.0037306668236851,0.1772888749837875,0.4615668356418609,-0.0823466256260871
1629370514519,-0.0037306668236851,0.1772888749837875,0.5555192232131958,-0.0823466256260871
1629370514596,-0.0037306668236851,0.1772888749837875,0.5916230082511902,-0.0823466256260871
1629370514793,-0.0037306668236851,0.1772888749837875,0.5199158787727356,-0.0823466256260871
1629370514822,-0.0037306668236851,0.1772888749837875,0.4514176249504089,-0.0823466256260871
1629370514941,-0.0037306668236851,0.1772888749837875,0.3900501430034637,-0.0823466256260871
1629370515056,-0.0037306668236851,0.1772888749837875,0.3422564566135406,-0.0823466256260871
1629370515148,-0.0037306668236851,0.1772888749837875,0.3288505375385284,-0.0823466256260871
1629370515291,-0.0037306668236851,0.1772888749837875,0.376060426235199,-0.0823466256260871
1629370515340,-0.0037306668236851,0.1772888749837875,0.4654344916343689,-0.0823466256260871
1629370515410,-0.0037306668236851,0.1772888749837875,0.5486885905265808,-0.0823466256260871
1629370515557,-0.0037306668236851,0.1772888749837875,0.5972434878349304,-0.0823466256260871
1629370515657,-0.0037306668236851,0.1772888749837875,0.6091545224189758,-0.0823466256260871
1629370515706,-0.0037306668236851,0.1772888749837875,0.5983424186706543,-0.0823466256260871
1629370515842,-0.0037306668236851,0.1772888749837875,0.5665645599365234,-0.0823466256260871
1629370515928,-0.0037306668236851,0.1772888749837875,0.5376446843147278,-0.0823466256260871
1629370516060,-0.0037306668236851,0.1772888749837875,0.5185031294822693,-0.0823466256260871
1629370516233,-0.0037306668236851,0.1772888749837875,0.5099561214447021,-0.0823466256260871
1629370516295,-0.0037306668236851,0.1772888749837875,0.5104567408561707,-0.0823466256260871
1629370516372,-0.0037306668236851,0.1772888749837875,0.516427755355835,-0.0823466256260871
1629370516435,-0.0037306668236851,0.0355429761111736,0.5266770124435425,-0.0823466256260871
1629370516525,-0.0037306668236851,0.1023745015263557,0.5462598204612732,-0.0823466256260871
1629370516623,-0.0037306668236851,0.2209332138299942,0.575444221496582,-0.0823466256260871
1629370516804,-0.0037306668236851,0.3258422315120697,0.5972877740859985,-0.0823466256260871
1629370516892,-0.0037306668236851,0.3849824965000152,0.561375617980957,-0.0823466256260871
1629370516949,-0.0037306668236851,0.3976336717605591,0.5203685760498047,-0.0823466256260871
1629370517045,-0.0037306668236851,0.3778747320175171,0.4603525400161743,-0.0823466256260871
1629370517125,-0.0037306668236851,0.3453844785690307,0.4107590019702911,-0.0823466256260871
1629370517225,-0.0037306668236851,0.3128684163093567,0.3853707015514374,-0.0823466256260871
1629370517359,-0.0037306668236851,0.2851278185844421,0.3730115294456482,-0.0823466256260871
1629370517441,-0.0037306668236851,0.2624013125896454,0.362206220626831,-0.0823466256260871
1629370517558,-0.0037306668236851,0.2430650442838668,0.3510293960571289,-0.0823466256260871
1629370517694,-0.0037306668236851,0.2216693758964538,0.3403267562389374,-0.0823466256260871
1629370517763,-0.0037306668236851,0.2139313966035843,0.3299925029277801,-0.0823466256260871
1629370517853,0.062550276517868,0.2077684700489044,0.3198563754558563,-0.6435065269470215
1629370518086,0.0201811473816633,0.1967049986124038,0.306154727935791,-0.6793146133422852
1629370518224,0.0363791584968566,0.1656398475170135,0.2693466544151306,-0.6986854672431946
1629370518313,0.0937011167407035,0.0985393226146698,0.1777971684932708,-0.6612681150436401
1629370518391,0.1570410579442978,-0.0079164896160364,-0.0039477022364735,-0.563881516456604
1629370518468,0.2034097164869308,-0.133003681898117,-0.0222025737166404,-0.4530962407588959
1629370518537,0.2313757836818695,-0.2319939732551574,-0.2204615920782089,-0.3653136789798736
1629370518603,0.2476019710302353,-0.2735631167888641,-0.357280284166336,-0.309108018875122
1629370518676,0.2560192346572876,-0.28411665558815,-0.4027612209320068,-0.2777749896049499
1629370518808,0.2557361423969269,-0.2925310730934143,-0.4125470221042633,-0.2617729306221008
1629370518841,0.2458045035600662,-0.3103083670139313,-0.4205396175384521,-0.2564082443714142
1629370519023,0.2320427596569061,-0.3385425508022308,-0.4268621802330017,-0.260860413312912
1629370519069,0.2281362861394882,-0.3729225695133209,-0.4287030398845672,-0.2457890063524246
1629370519225,0.233060672879219,-0.3908706307411194,-0.4206662476062774,-0.2274687737226486
1629370519295,0.251613974571228,-0.3557263016700744,-0.3771457970142364,-0.2048519998788833
1629370519346,0.2802904844284057,-0.2377415746450424,-0.2384588718414306,-0.177010953426361
1629370519456,0.3086909055709839,-0.2241863459348678,-0.2336605340242386,-0.1438452899456024
1629370519591,0.3260969817638397,-0.2110912352800369,-0.2250781208276748,-0.1075336262583732
1629370519676,0.3250065743923187,-0.2046799808740615,-0.2085211426019668,-0.0770261734724044
1629370519800,0.3043906390666961,-0.212890163064003,-0.1875845789909362,-0.0638439729809761
1629370519892,0.2717365622520447,-0.2339859008789062,-0.1698797345161438,-0.074330173432827
1629370519987,0.2333736419677734,-0.2541082501411438,-0.1579879224300384,-0.1062689423561096
1629370520171,0.1861362308263778,-0.2567971646785736,-0.1467164009809494,-0.1505568474531173
1629370520220,0.1861362308263778,-0.2295368015766143,-0.126881405711174,-0.1505568474531173
1629370520295,0.1861362308263778,-0.1784514337778091,-0.0933563187718391,-0.1505568474531173
1629370520468,0.1861362308263778,-0.1097932606935501,-0.0376281328499317,-0.1505568474531173
1629370520612,0.1861362308263778,-0.006729525513947,0.0813838988542556,-0.1505568474531173
1629370520689,0.1861362308263778,0.1855136454105377,0.3324891924858093,-0.1505568474531173
1629370520757,0.1861362308263778,0.4031292796134949,0.6248421669006348,-0.1505568474531173
1629370520805,0.1861362308263778,0.5660420060157776,0.6888455152511597,-0.1505568474531173
1629370520896,0.1861362308263778,0.6460537314414978,0.7336283922195435,-0.1505568474531173
1629370521043,0.1861362308263778,0.6460537314414978,0.7336283922195435,-0.1505568474531173
1629370521109,0.1861362308263778,0.6460537314414978,0.7336283922195435,-0.1505568474531173
1629370521291,0.1861362308263778,0.5915229916572571,0.7336283922195435,-0.1505568474531173
1629370521323,0.1861362308263778,0.5423547029495239,0.7336283922195435,-0.1505568474531173
1629370521436,0.1861362308263778,0.4988228976726532,0.7336283922195435,-0.1505568474531173
1629370521560,0.1861362308263778,0.4606126844882965,0.7336283922195435,-0.1505568474531173
1629370521642,0.1861362308263778,0.438988447189331,0.6445569396018982,-0.1505568474531173
1629370521748,0.1861362308263778,0.4448055624961853,0.5788856148719788,-0.1505568474531173
1629370521835,0.1861362308263778,0.4711379706859588,0.5323672890663147,-0.1505568474531173
1629370521959,0.3405472338199615,0.4973675608634949,0.5384224057197571,-0.1505568474531173
1629370522020,0.3737446963787079,0.5306293964385986,0.5235835909843445,-0.1505568474531173
1629370522158,0.3779309689998626,0.5296513438224792,0.4183388650417328,-0.1505568474531173
1629370522283,0.3628602921962738,0.4917264580726623,-0.0510940738022327,-0.1505568474531173
1629370522392,0.3450087010860443,0.427028089761734,-0.0782129690051078,-0.1505568474531173
1629370522438,0.3367290794849396,0.3541933000087738,-0.1049942374229431,-0.1505568474531173
1629370522560,0.3387880623340606,0.329118937253952,-0.1308877319097519,-0.1505568474531173
1629370522622,0.3442745804786682,0.303480714559555,-0.1475029736757278,0.4881834685802459
1629370522724,0.3438321352005005,0.2886750996112823,-0.1414322555065155,0.4548222720623016
1629370522990,0.335164725780487,0.2796583771705627,-0.1094386279582977,0.4285166263580322
1629370523069,0.3236944079399109,0.2745068073272705,-0.0702544301748275,0.4149208962917328
1629370523159,0.3156401515007019,0.271273523569107,-0.0446018055081367,0.4072314500808716
1629370523226,0.3154625594615936,0.2572198212146759,-0.0234855506569147,0.3958006799221039
1629370523296,0.311960905790329,0.2160624712705612,-0.0283905230462551,0.376514732837677
1629370523354,0.2932092845439911,0.1391167640686035,-0.0552441291511058,0.3520971834659576
1629370523508,0.2578292489051819,0.0354089997708797,-0.0950349941849708,0.3267216384410858
1629370523608,0.2194863408803939,-0.0701903700828552,-0.1362025439739227,0.3009426295757293
1629370523655,0.1964937299489975,-0.149762824177742,-0.1691144555807113,0.2751235961914062
1629370523757,0.1925188899040222,-0.1958440840244293,-0.1908983737230301,0.2539126574993133
1629370523857,0.1924143433570861,-0.1974795460700988,-0.1982062608003616,0.2277859449386596
1629370523943,0.1863761395215988,-0.1055970713496208,-0.1666501760482788,0.1919596195220947
1629370524159,0.1686146855354309,0.087344653904438,-0.0596092082560062,0.1541313827037811
1629370524202,0.1406226009130478,0.3207184374332428,0.1120684668421745,0.1231387630105018
1629370524286,0.1147312745451927,0.3467714190483093,0.2771473228931427,0.1026508882641792
1629370524376,0.1020301580429077,0.3736231625080108,0.284513384103775,0.0800428688526153
1629370524447,0.0973178371787071,0.4014125764369964,0.2866022288799286,0.0373163595795631
1629370524577,0.0834525898098945,0.4311735332012176,0.2923192679882049,-0.0333156287670135
1629370524755,0.0512813478708267,0.4637990593910217,0.3099106848239898,-0.1224219053983688
1629370524839,0.0189750045537948,0.4704963266849518,0.3407849371433258,-0.2049543708562851
1629370524954,0.0236341692507267,0.473091572523117,0.3478387594223022,-0.2655093669891357
1629370525049,0.0236341692507267,0.4728971123695373,0.3583095371723175,-0.2655093669891357
1629370525122,0.0236341692507267,0.4703611731529236,0.3693163692951202,-0.2655093669891357
1629370525258,0.0236341692507267,0.4684029817581177,0.3778448104858398,-0.2655093669891357
1629370525370,0.0236341692507267,0.471335232257843,0.3845784664154053,-0.2655093669891357
1629370525453,0.0236341692507267,0.4777630865573883,0.3969957232475281,-0.2655093669891357
1629370525547,0.0236341692507267,0.4695915877819061,0.4218452870845794,-0.2655093669891357
1629370525611,0.0236341692507267,0.4000617563724518,0.4428052902221679,-0.2655093669891357
1629370525680,0.0236341692507267,0.1479103863239288,0.4200674295425415,-0.2655093669891357
1629370525792,0.0236341692507267,0.1528868973255157,0.3226891756057739,-0.2655093669891357
1629370525908,0.0236341692507267,0.1481925398111343,0.3350737988948822,-0.2655093669891357
1629370526042,0.0236341692507267,0.1475309580564499,0.3205249905586242,-0.2655093669891357
1629370526092,0.0236341692507267,0.1539489775896072,0.296379953622818,-0.2655093669891357
1629370526199,0.0236341692507267,0.1639858782291412,0.2696770429611206,-0.2655093669891357
1629370526297,0.0236341692507267,0.1875789910554886,0.242911621928215,-0.2655093669891357
1629370526433,0.0236341692507267,0.2246373295783996,0.2356386929750442,-0.2655093669891357
1629370526528,0.0236341692507267,0.2693946957588196,0.2276627570390701,-0.2655093669891357
1629370526575,0.0236341692507267,0.3129180073738098,0.2203649133443832,-0.2655093669891357
1629370526723,0.0236341692507267,0.3496437072753906,0.2150579243898391,-0.2655093669891357
1629370526784,0.0236341692507267,0.3766445517539978,0.2101303935050964,-0.2655093669891357
1629370526956,0.0236341692507267,0.3910908102989197,0.1947674006223678,-0.2655093669891357
1629370527002,0.0236341692507267,0.3900617063045501,0.1474266350269317,-0.2655093669891357
1629370527143,0.0236341692507267,0.378781646490097,0.0475165843963623,-0.2655093669891357
1629370527226,0.3366744220256805,0.3655164241790771,-0.11245047301054,-0.0324867479503154
1629370527324,0.2803655564785003,0.3560506701469421,-0.3136645555496216,-0.0799860209226608
1629370527440,0.257857084274292,0.3474433124065399,-0.4994150996208191,-0.1049691662192344
1629370527490,0.2623360455036163,0.3347298204898834,-0.6107789874076843,-0.1074702516198158
1629370527583,0.2623360455036163,0.3174441456794739,-0.648695170879364,-0.1074702516198158
1629370527751,0.2623360455036163,0.300572782754898,-0.5959308743476868,-0.1074702516198158
1629370527848,0.2623360455036163,0.2924532890319824,-0.4392944574356079,-0.1074702516198158
1629370527941,0.2623360455036163,0.3012939393520355,-0.225468561053276,-0.1074702516198158
1629370528109,0.2623360455036163,0.3261914551258087,-0.0362742729485034,-0.1074702516198158
1629370528169,0.2623360455036163,0.3549973666667938,0.0940441638231277,-0.1074702516198158
1629370528272,0.2623360455036163,0.3716710209846496,0.1678065508604049,-0.1074702516198158
1629370528367,0.2623360455036163,0.3679002225399017,0.1937509179115295,-0.1074702516198158
1629370528473,0.2080921232700348,0.3475835621356964,0.2228551357984542,-0.1440771073102951
1629370528548,0.1412775218486786,0.3225058019161224,0.2547061443328857,-0.1918615102767944
1629370528619,0.1064797863364219,0.3022363483905792,0.2704338431358337,-0.231980413198471
1629370528742,0.1064797863364219,0.2893327176570892,0.2858675420284271,-0.231980413198471
1629370528823,0.1064797863364219,0.2820959091186523,0.3005061745643616,-0.231980413198471
1629370528957,0.1064797863364219,0.279369592666626,0.3151101469993591,-0.231980413198471
1629370529040,0.1064797863364219,0.2797409296035766,0.3296784460544586,-0.231980413198471
1629370529191,0.1064797863364219,0.2803544700145721,0.3438788950443268,-0.231980413198471
1629370529225,0.1219429969787597,0.2756337821483612,0.3534926176071167,0.0644110143184661
1629370529407,0.1539310812950134,0.2527323961257934,0.3488191962242126,0.1475118696689605
1629370529444,0.1693632900714874,0.1949885189533233,0.312934398651123,0.2152624875307083
1629370529611,0.1684084683656692,0.0897208601236343,0.2378010749816894,0.2543083131313324
1629370529659,0.1608581393957138,-0.0613984614610672,0.134501501917839,0.2636204361915588
1629370529758,0.150558665394783,-0.2295922487974167,0.035567719489336,0.2506578862667084
1629370529844,0.150558665394783,-0.3503163158893585,0.0148670002818107,0.2506578862667084
1629370529943,0.150558665394783,-0.3481789231300354,0.0178997311741113,0.2506578862667084
1629370530039,0.150558665394783,-0.1849236190319061,0.0178997311741113,0.2506578862667084
1629370530160,0.150558665394783,-0.1694181114435196,0.0205152574926614,0.2506578862667084
1629370530234,0.150558665394783,-0.1523293852806091,0.0217286590486764,0.2506578862667084
1629370530417,0.150558665394783,-0.1345497518777847,0.022590359672904,0.2506578862667084
1629370530487,0.163725271821022,-0.1164691448211669,0.0224890913814306,0.2796311378479004
1629370530619,0.1751930862665176,-0.0984147787094116,0.0212892834097147,0.3102127909660339
1629370530682,0.1808143556118011,-0.0791971385478973,0.0152613315731287,0.3392342329025268
1629370530790,0.1721667200326919,-0.0536246001720428,-0.0042792242020368,0.3575262427330017
1629370530849,0.1463059782981872,-0.0188700556755065,-0.0476128198206424,0.352493017911911
1629370530996,0.1463059782981872,0.023661496117711,-0.1129415482282638,0.352493017911911
1629370531043,0.1463059782981872,0.0748827904462814,-0.1770089864730835,0.352493017911911
1629370531200,0.1463059782981872,0.3303165435791015,-0.1347761452198028,0.352493017911911
1629370531286,0.1463059782981872,0.4739739596843719,-0.042536623775959,0.352493017911911
1629370531387,0.1463059782981872,0.5446340441703796,0.0071185398846864,0.352493017911911
1629370531454,0.1463059782981872,0.5691025257110596,-0.0607301443815231,0.352493017911911
1629370531619,0.1463059782981872,0.5429790616035461,-0.1146715730428695,0.352493017911911
1629370531665,0.1463059782981872,0.5327273011207581,-0.1600696444511413,0.352493017911911
1629370531822,0.1463059782981872,0.5229414105415344,-0.1987666934728622,0.352493017911911
1629370531899,0.1463059782981872,0.5020237565040588,-0.23628930747509,0.352493017911911
1629370532027,0.1463059782981872,0.469482421875,-0.2754009664058685,0.352493017911911
1629370532126,0.1463059782981872,0.4314084351062774,-0.3092269897460937,0.352493017911911
1629370532154,0.1463059782981872,0.3931002616882324,-0.327818900346756,0.352493017911911
1629370532338,0.1463059782981872,0.3575658500194549,-0.3326992392539978,0.352493017911911
1629370532414,0.1463059782981872,0.3256962597370147,-0.3352304100990295,0.352493017911911
1629370532523,0.1463059782981872,0.29692342877388,-0.3455528914928436,0.352493017911911
1629370532623,0.1463059782981872,0.2702583372592926,-0.3626436293125152,0.352493017911911
1629370532696,0.1463059782981872,0.1852343380451202,-0.4169738292694092,0.352493017911911
1629370532801,0.1463059782981872,0.0945679694414138,-0.4634466767311096,0.352493017911911
1629370532941,0.1463059782981872,0.0270800739526748,-0.4592851996421814,0.352493017911911
1629370533007,0.1463059782981872,-0.0174567010253667,-0.4003124237060547,0.352493017911911
1629370533124,0.1463059782981872,-0.070479579269886,-0.3343690633773803,0.352493017911911
1629370533298,0.1463059782981872,-0.2520882487297058,-0.2839212715625763,0.352493017911911
1629370533315,0.1463059782981872,-0.1520463824272155,-0.2951638102531433,0.352493017911911
1629370533436,0.1463059782981872,-0.3383073806762695,-0.284063309431076,0.352493017911911
1629370533560,0.1463059782981872,-0.3789231479167938,-0.2773886024951935,0.352493017911911
1629370533648,0.1463059782981872,-0.3820592164993286,-0.2602116167545318,0.352493017911911
1629370533805,0.1463059782981872,-0.3702953457832336,-0.2345286160707473,0.352493017911911
1629370533924,0.1463059782981872,-0.3548285365104675,-0.2000065594911575,0.352493017911911
1629370534031,0.1463059782981872,-0.3375383913516998,-0.1553293615579605,0.352493017911911
1629370534146,0.1463059782981872,-0.3015359342098236,-0.099826842546463,0.352493017911911
1629370534210,0.1463059782981872,-0.2840068936347961,-0.0768445134162902,0.352493017911911
1629370534275,0.1463059782981872,-0.2629674077033996,-0.0532607287168502,0.352493017911911
1629370534337,0.1463059782981872,-0.2416985034942627,-0.0371647737920284,0.352493017911911
1629370534489,0.1463059782981872,-0.2297845184803009,-0.0371473021805286,0.352493017911911
1629370534566,0.1463059782981872,-0.2336526811122894,-0.055897768586874,0.352493017911911
1629370534660,0.1463059782981872,-0.2536598443984985,-0.0819637700915336,0.352493017911911
1629370534735,0.1463059782981872,-0.2798651754856109,-0.0911601334810257,0.352493017911911
1629370534798,0.1463059782981872,-0.3014771044254303,-0.0664408206939697,0.352493017911911
1629370534890,0.1463059782981872,-0.3115394413471222,-0.01503895688802,0.352493017911911
1629370535026,0.1463059782981872,-0.3133739829063415,0.0448900386691093,0.352493017911911
1629370535154,0.1463059782981872,-0.3007009923458099,0.1048282906413078,0.352493017911911
1629370535240,0.1463059782981872,-0.3332215249538421,0.045786265283823,0.352493017911911
1629370535402,0.1463059782981872,-0.3863258957862854,-0.0720307379961013,0.352493017911911
1629370535488,0.1463059782981872,-0.4657226800918579,-0.3019706606864929,0.352493017911911
1629370535548,0.1463059782981872,-0.6681110858917236,-1.0775048732757568,0.352493017911911
1629370535740,0.1463059782981872,-0.516582727432251,-1.0482033491134644,0.352493017911911
1629370535771,0.1463059782981872,-0.2947545349597931,-0.9472479224205016,0.352493017911911
1629370535849,0.1463059782981872,-0.0942740440368652,-0.7895918488502502,0.352493017911911
1629370535926,0.1463059782981872,0.0384255722165107,-0.6463059186935425,0.352493017911911
1629370536023,0.1463059782981872,0.1046056300401687,-0.5563927888870239,0.352493017911911
1629370536123,0.1463059782981872,0.1212046667933464,-0.5128015875816345,0.352493017911911
1629370536256,0.1463059782981872,0.1106413975358009,-0.4789980351924896,0.352493017911911
1629370536403,0.1463059782981872,0.1106413975358009,-0.4789980351924896,0.352493017911911
1629370536455,0.1463059782981872,0.1106413975358009,-0.4789980351924896,0.352493017911911
1629370536568,0.1463059782981872,0.1106413975358009,-0.4789980351924896,0.352493017911911
1629370536647,0.1463059782981872,0.1106413975358009,-0.4789980351924896,0.352493017911911
1629370536725,0.1463059782981872,0.1452817469835281,-0.4520156383514404,0.352493017911911
1629370536908,0.1463059782981872,0.1860499829053878,-0.4154761135578155,0.352493017911911
1629370536977,0.1463059782981872,0.231594368815422,-0.3722047209739685,0.352493017911911
1629370537053,0.1463059782981872,0.2798225581645965,-0.3244529962539673,0.352493017911911
1629370537178,0.1463059782981872,0.3246179819107055,-0.2725424170494079,0.352493017911911
1629370537243,0.1463059782981872,0.3482279181480407,-0.2257217913866043,0.352493017911911
1629370537380,0.1463059782981872,0.3302917778491974,-0.2016047090291977,0.352493017911911
1629370537505,0.1463059782981872,0.3302917778491974,-0.0359068438410759,0.352493017911911
1629370537571,0.1463059782981872,0.3302917778491974,0.0100968852639198,0.352493017911911
1629370537692,0.1463059782981872,0.3302917778491974,0.0328573547303676,0.352493017911911
1629370537772,0.1463059782981872,0.3302917778491974,0.0328573547303676,0.352493017911911
1629370537849,0.1463059782981872,0.3302917778491974,0.0328573547303676,0.352493017911911
1629370537941,0.1463059782981872,0.3302917778491974,0.0328573547303676,0.352493017911911
1629370538074,0.1463059782981872,0.3302917778491974,0.0328573547303676,0.352493017911911
1629370538192,0.1463059782981872,0.3302917778491974,0.0328573547303676,0.352493017911911
1629370538293,0.1463059782981872,0.3302917778491974,0.0328573547303676,0.352493017911911
1629370538391,0.1463059782981872,0.3302917778491974,0.0328573547303676,0.352493017911911
1629370538476,0.1463059782981872,0.3302917778491974,0.0328573547303676,0.352493017911911
1629370538578,0.1463059782981872,0.3302917778491974,0.0328573547303676,0.352493017911911
1629370538698,0.1463059782981872,0.3302917778491974,0.0328573547303676,0.352493017911911
1629370538801,0.1463059782981872,0.3302917778491974,0.0328573547303676,0.352493017911911
1629370538901,0.1463059782981872,0.3302917778491974,0.1797838807106018,0.352493017911911
1629370538993,0.1463059782981872,0.3302917778491974,0.1336641758680343,0.352493017911911
1629370539108,0.1463059782981872,0.3302917778491974,0.091315746307373,0.352493017911911
1629370539211,0.1463059782981872,0.3302917778491974,0.0649938136339187,0.352493017911911
1629370539375,0.1463059782981872,0.3302917778491974,0.0166947711259126,0.352493017911911
1629370539421,0.1463059782981872,0.3302917778491974,-0.0191714782267808,0.352493017911911
1629370539500,0.3531151413917541,0.3302917778491974,-0.0506503507494926,0.352493017911911
1629370539614,0.3013472557067871,0.3302917778491974,-0.0804877877235412,0.352493017911911
1629370539693,0.2570403218269348,-0.7471625208854675,-0.1072823479771614,0.352493017911911
1629370539807,0.2251175194978714,-0.657342791557312,-0.1248605921864509,-0.2620441019535064
1629370539930,0.2251175194978714,-0.5803632736206055,-0.1113270595669746,-0.2620441019535064
1629370540008,0.2251175194978714,-0.4258865416049957,-0.0152066322043538,-0.2620441019535064
1629370540089,0.2251175194978714,-0.1601825058460235,0.1843076646327972,-0.2620441019535064
1629370540209,0.2251175194978714,0.0972912013530731,0.4074473679065704,-0.2620441019535064
1629370540301,0.2251175194978714,0.2723464667797088,0.4074473679065704,-0.2620441019535064
1629370540409,0.2251175194978714,0.3642372786998749,0.4105482697486877,-0.2620441019535064
1629370540570,0.2251175194978714,0.3925720453262329,0.4290657341480255,-0.2620441019535064
1629370540596,0.2251175194978714,0.3863765001296997,0.4587047696113586,-0.2620441019535064
1629370540774,0.162371814250946,0.3718939125537872,0.4931640923023224,-0.2620441019535064
1629370540804,0.096518188714981,0.3709808886051178,0.5311765670776367,-0.2620441019535064
1629370540939,0.019562792032957,0.3984990417957306,0.5745196342468262,-0.2620441019535064
1629370541042,0.019562792032957,0.4292077124118805,0.5804671049118042,-0.2620441019535064
1629370541124,0.019562792032957,0.4621433019638061,0.5900183916091919,-0.2620441019535064
1629370541376,0.019562792032957,0.4967657327651977,0.6063597798347473,-0.2620441019535064
1629370541474,0.019562792032957,0.5332933664321899,0.6262794733047485,-0.2620441019535064
1629370541565,0.019562792032957,0.5729503035545349,0.6372115612030029,-0.2620441019535064
1629370541664,0.019562792032957,0.6103599667549133,0.6136601567268372,-0.2620441019535064
1629370541730,0.019562792032957,0.586097002029419,0.4971261918544769,-0.2620441019535064
1629370541832,0.019562792032957,0.5064190030097961,0.0714086890220642,-0.2620441019535064
1629370541938,0.019562792032957,0.3685092329978943,0.0245568919926881,-0.2620441019535064
1629370542054,0.4570055305957794,0.1911193430423736,-0.0179313123226165,-0.2620441019535064
1629370542134,0.4818659126758575,0.0327401533722877,-0.0540203042328357,-0.2620441019535064
1629370542188,0.4971933364868164,-0.0606214590370655,-0.0784640982747078,-0.2620441019535064
1629370542263,0.4893376231193542,-0.1242855191230773,-0.0875644385814666,-0.2620441019535064
1629370542360,0.4624055027961731,-0.2872282266616821,-0.0853741988539695,-0.2620441019535064
1629370542557,0.4285545945167541,-0.2958827912807464,-0.0824518576264381,0.3034949600696563
1629370542669,0.4285545945167541,-0.2941240966320038,-0.0816085785627365,0.3034949600696563
1629370542767,0.4285545945167541,-0.2452912777662277,-0.0571679174900054,0.3034949600696563
1629370542842,0.4285545945167541,-0.0952463150024414,-0.0826811343431472,0.3034949600696563
1629370542906,0.4285545945167541,0.1126563996076583,-0.1323560178279876,0.3034949600696563
1629370543005,0.4285545945167541,0.2868396937847137,-0.1920670419931411,0.3034949600696563
1629370543172,0.4285545945167541,0.3940198123455047,-0.2306125164031982,0.3034949600696563
1629370543248,0.3937379121780395,0.4552085995674133,-0.2278474122285843,0.3034949600696563
1629370543322,0.3991132378578186,0.4783004224300384,-0.1970644742250442,0.3034949600696563
1629370543414,0.4130090773105621,0.4808818101882934,-0.1530998796224594,0.3034949600696563
1629370543502,0.4043707549571991,0.479976087808609,-0.1007015332579612,0.3034949600696563
1629370543587,0.351146399974823,0.4832598567008972,-0.0430778041481971,0.3034949600696563
1629370543703,0.351146399974823,0.4959014356136322,0.0111744729802012,0.3034949600696563
1629370543778,0.351146399974823,0.5292401313781738,0.0531384199857711,0.3034949600696563
1629370543900,0.351146399974823,0.5881510972976685,0.0531384199857711,0.3034949600696563
1629370544019,0.351146399974823,0.6568341851234436,0.0531384199857711,0.3034949600696563
1629370544107,0.351146399974823,0.7116857767105103,0.0531384199857711,0.3034949600696563
1629370544219,0.351146399974823,0.7394210696220398,0.0531384199857711,0.3034949600696563
1629370544324,0.351146399974823,0.735739529132843,0.0531384199857711,0.3034949600696563
1629370544493,0.351146399974823,0.7002917528152466,0.0531384199857711,0.3034949600696563
1629370544558,0.351146399974823,0.639071524143219,0.5238269567489624,0.3034949600696563
1629370544636,0.351146399974823,0.5693119168281555,0.4537582099437713,0.3034949600696563
1629370544699,0.351146399974823,0.5167042016983032,0.3971834182739258,0.3034949600696563
1629370544798,0.351146399974823,0.4954865872859955,0.3507739305496216,0.3034949600696563
1629370544907,0.351146399974823,0.4942110478878021,0.3091025352478027,0.3034949600696563
1629370545071,0.351146399974823,0.495682418346405,0.2697938680648803,0.3034949600696563
1629370545124,0.351146399974823,0.4927250146865845,0.232783630490303,0.3034949600696563
1629370545217,0.0688703507184982,0.4804665148258209,0.1983868777751922,0.2547614574432373
1629370545315,0.0720790773630142,0.4440291821956634,0.1661953926086425,0.2604251503944397
1629370545422,0.0805236846208572,0.361632227897644,0.1359004080295562,0.2353241741657257
1629370545524,0.1108390241861343,0.2182313948869705,0.1081118956208229,0.1962524950504303
1629370545656,0.1708050519227981,0.0265430659055709,0.0837377384305,0.1588340699672699
1629370545756,0.2344025075435638,-0.1476133912801742,-0.1149661689996719,0.1308304369449615
1629370545882,0.2738760709762573,-0.220143511891365,-0.2632941603660583,0.1091657429933548
1629370545983,0.2851458191871643,-0.2113924622535705,-0.3331838548183441,0.0904902517795562
1629370546059,0.2838513851165771,-0.185852512717247,-0.3597159683704376,0.0752094909548759
1629370546134,0.286997377872467,-0.1651832163333892,-0.3737719655036926,0.0627069920301437
1629370546264,0.2971223890781402,-0.1485847383737564,-0.3873744308948517,0.0528773255646228
1629370546340,0.310285210609436,-0.1376052796840667,-0.411788672208786,0.0443408489227294
1629370546408,0.3377549350261688,-0.1273781061172485,-0.4412666857242584,0.039304282516241
1629370546503,0.3772940933704376,-0.1131349429488182,-0.4663787484169006,0.0172967910766601
1629370546690,0.4235632121562958,-0.0947113335132598,-0.4805624783039093,-0.0225819833576679
1629370546736,0.4616509079933166,-0.0759962797164917,-0.4821639955043793,-0.0770315900444984
1629370546826,0.4821236729621887,-0.0604945532977581,-0.4739570021629333,-0.1320886462926864
1629370546960,0.4879983365535736,-0.048939649015665,-0.4620684087276459,-0.1657981425523758
1629370546987,0.4911196231842041,-0.0399412214756011,-0.4518001079559326,-0.1690301746129989
1629370547136,0.5128995180130005,-0.0327088721096515,-0.4454319179058075,-0.1333771347999572
1629370547266,0.5751140117645264,-0.0257342159748077,-0.4417328238487243,-0.0508323721587657
1629370547370,0.670221745967865,-0.0166396647691726,-0.4387161135673523,0.0606246069073677
1629370547436,0.7659997940063477,-0.0055027422495186,-0.4338387846946716,0.1626373827457428
1629370547502,0.8376606106758118,0.0046477080322802,-0.4247183203697204,0.2302709817886352
1629370547658,0.8825626969337463,0.0093437181785702,-0.4107990264892578,0.2635537981986999
1629370547705,0.9106916785240172,0.006845423951745,-0.3926004767417907,0.2769881188869476
1629370547908,0.9298849701881408,-0.0006766844308003,-0.3687538504600525,0.2852641642093658
1629370547986,0.9408082962036132,-0.0115264039486646,-0.3365277647972107,0.2938276827335357
1629370548048,0.9410209059715272,-0.0242624245584011,-0.297072172164917,0.2983775734901428
1629370548141,0.9330689907073976,-0.0368528179824352,-0.2580007314682007,0.2988779246807098
1629370548222,0.9247258305549622,-0.046029407531023,-0.2277296632528305,0.2989219427108764
1629370548356,0.9222981333732604,-0.0517863482236862,-0.2093860805034637,0.3014163970947265
1629370548475,0.9256269335746764,-0.059408314526081,-0.1995688527822494,0.3044605255126953
1629370548541,0.9293015599250792,-0.0752843618392944,-0.1935980021953582,0.3030760288238525
1629370548651,0.9246366024017334,-0.0998526439070701,-0.1882613599300384,0.2880401909351349
1629370548810,0.9015470147132874,-0.1282768249511718,-0.1831110268831253,0.2465190291404724
1629370548857,0.8536939024925232,-0.1560399532318115,-0.1809228211641311,0.1687924116849899
1629370548960,0.7833456993103027,-0.1807205379009246,-0.186107337474823,0.0580042004585266
1629370549111,0.7050295472145081,-0.2007296532392501,-0.1975962668657302,-0.0557141788303852
1629370549168,0.6369686126708984,-0.2105498313903808,-0.206563800573349,-0.1167163923382759
1629370549279,0.5900272130966187,-0.1971099376678466,-0.2015646398067474,-0.1024241149425506
1629370549353,0.5675716996192932,-0.1931903511285781,-0.1803420633077621,-0.0547801554203033
1629370549430,0.5688856244087219,-0.1858394891023636,-0.1472578942775726,-0.0215362515300512
1629370549523,0.5942989587783813,-0.176015630364418,-0.1512133926153183,-0.0039164624176919
1629370549641,0.6039043664932251,-0.1667984575033188,-0.1599431782960891,-0.0001160278188763
1629370549809,0.6180857419967651,-0.1641063690185547,-0.1686698198318481,0.0118025783449411
1629370549842,0.6313285231590271,-0.168503537774086,-0.170097604393959,0.0268738027662038
1629370550002,0.6438270807266235,-0.1690833419561386,-0.1610374748706817,0.0440239757299423
1629370550128,0.6553505063056946,-0.1524263322353363,-0.1436100900173187,0.0667698010802269
1629370550171,0.6624868512153625,-0.1201793923974037,-0.1229699626564979,0.0982364192605018
1629370550264,0.6626653075218201,0.0587813146412372,-0.1048200875520706,0.1382282823324203
1629370550394,0.6615971326828003,0.1198545768857002,-0.0925310403108596,0.1857665777206421
1629370550477,0.6749738454818726,0.1399523168802261,-0.0805682390928268,0.2414295375347137
1629370550642,0.7136043310165405,0.1679451614618301,-0.0741913691163063,0.3016354143619537
1629370550723,0.7697756886482239,0.2060127258300781,-0.0712767988443374,0.314371645450592
1629370550818,0.7697756886482239,0.2444989085197448,-0.0721650943160057,0.2914955615997314
1629370550911,0.7697756886482239,0.2444989085197448,-0.0781110823154449,0.2414556890726089
1629370551005,0.7697756886482239,0.2444989085197448,-0.1055566743016243,0.1989009082317352
1629370551096,0.7697756886482239,0.2444989085197448,-0.1054878458380699,0.1864212751388549
1629370551193,0.7697756886482239,0.2444989085197448,-0.1127346530556678,0.1864212751388549
1629370551369,0.7697756886482239,0.2444989085197448,-0.1159860789775848,0.1864212751388549
1629370551488,0.7697756886482239,0.2599534690380096,-0.1154068037867546,0.1864212751388549
1629370551566,0.7697756886482239,0.2559003531932831,-0.1184256076812744,0.2933722734451294
1629370551638,0.7697756886482239,0.2359470576047897,-0.1304472535848617,0.311059832572937
1629370551714,0.7697756886482239,0.2022307217121124,-0.1505353152751922,0.2891246080398559
1629370551772,0.7697756886482239,0.1234433650970459,-0.1679783314466476,0.2891246080398559
1629370551899,0.7697756886482239,0.1061631515622139,-0.1361836791038513,0.2891246080398559
1629370552030,0.7697756886482239,0.1121720820665359,0.045401107519865,0.2891246080398559
1629370552104,0.7697756886482239,0.1068619340658187,0.343651533126831,0.2891246080398559
1629370552212,0.7697756886482239,0.1068619340658187,0.3645500838756561,0.3107555508613586
1629370552335,0.7697756886482239,0.1068619340658187,0.384428322315216,0.3328159749507904
1629370552414,0.7697756886482239,0.1068619340658187,0.4037481546401977,0.3571913838386535
1629370552483,0.7697756886482239,0.1068619340658187,0.4264581799507141,0.3571913838386535
1629370552556,0.7697756886482239,0.1068619340658187,0.4560764729976654,0.3571913838386535
1629370552727,0.7697756886482239,0.1068619340658187,0.4919739067554474,0.3571913838386535
1629370552792,0.7697756886482239,0.1068619340658187,0.4866757094860077,0.3571913838386535
1629370552949,0.7697756886482239,0.033517200499773,0.4786470234394073,0.3571913838386535
1629370553028,0.7697756886482239,-0.0816696733236312,0.4724780619144439,0.3571913838386535
1629370553122,0.7697756886482239,-0.1937816888093948,0.4712382853031158,0.3571913838386535
1629370553222,0.7697756886482239,-0.2572146952152252,0.4737988710403442,0.3571913838386535
1629370553342,0.7697756886482239,-0.3337655961513519,0.4744313359260559,0.3571913838386535
1629370553474,-0.2449695169925689,-0.3635503053665161,0.4561102986335754,-0.0936616063117981
1629370553549,-0.2015955448150634,-0.3926657140254974,0.3399450182914734,-0.09793421626091
1629370553653,-0.1453228741884231,-0.4196540117263794,-0.4881598651409149,-0.1209736838936805
1629370553732,-0.1015324220061302,-0.4359419047832489,-0.4953071773052215,-0.1501000821590423
1629370553823,-0.0845921337604522,-0.4348554015159607,-0.4880410134792328,-0.179277017712593
1629370554024,-0.0902516692876815,-0.4169959127902984,-0.4660843908786773,-0.2033879309892654
1629370554060,-0.1076193153858184,-0.3902856409549713,-0.4427686333656311,-0.2257981896400451
1629370554168,-0.1241771951317787,-0.3659401834011078,-0.4308410882949829,-0.249838650226593
1629370554260,-0.1359442919492721,-0.3537650406360626,-0.4317483901977539,-0.2760246992111206
1629370554363,-0.1465641260147094,-0.3565019071102142,-0.4340910315513611,-0.3008126020431518
1629370554469,-0.159316137433052,-0.3695065081119537,-0.4232551157474518,-0.3161625862121582
1629370554572,-0.1738958805799484,-0.406542956829071,-0.4112004041671753,-0.3151606321334839
1629370554684,-0.180408090353012,-0.4273896515369415,-0.4069959819316864,-0.3021408915519714
1629370554748,-0.1693723350763321,-0.4384660720825195,-0.4098753631114959,-0.2891709506511688
1629370554815,-0.1263431757688522,-0.4509395658969879,-0.4097752869129181,-0.2751336097717285
1629370554905,-0.0624871551990509,-0.4664047062397003,-0.3980576395988464,-0.2532601654529571
1629370554992,-0.0021313996985554,-0.4792521297931671,-0.372982382774353,-0.2261020541191101
1629370555196,0.0388546548783779,-0.4889046251773834,-0.3377944231033325,-0.2043161541223526
1629370555319,0.0585014447569847,-0.500643253326416,-0.3022679090499878,-0.1957712173461914
1629370555380,0.065630704164505,-0.5199841856956482,-0.2745426595211029,-0.1962752789258957
1629370555439,0.0690301731228828,-0.5523717999458313,-0.2557037770748138,-0.1979726403951645
1629370555501,0.0728348568081855,-0.6005941033363342,-0.2381565272808075,-0.1903962045907974
1629370555701,0.0753716006875038,-0.6595597267150879,-0.2185874134302139,-0.1677601784467697
1629370555812,0.0927326306700706,-0.7155306935310364,-0.2061781138181686,-0.1449944674968719
1629370555900,0.1121634244918823,-0.7538504600524902,-0.1909618377685547,-0.1192531958222389
1629370555969,0.1358314156532287,-0.768268346786499,-0.1781531870365142,-0.0959410145878791
1629370556174,0.1642607599496841,-0.7722926735877991,-0.1667570769786834,-0.0813104435801506
1629370556250,0.1938817203044891,-0.7819904088973999,-0.1510332524776458,-0.0785717517137527
1629370556328,0.2161730825901031,-0.7933914065361023,-0.1280574947595596,-0.0887888967990875
1629370556444,0.2182912230491638,-0.7936753034591675,-0.1015684902667999,-0.1153596341609954
1629370556512,0.1900054514408111,-0.7797878384590149,-0.0776695236563682,-0.1651549041271209
1629370556573,0.1269692331552505,-0.7581424713134766,-0.0600912123918533,-0.2367131114006042
1629370556691,0.0342072658240795,-0.7340543270111084,-0.0512615703046321,-0.3063264191150665
1629370556777,-0.0701240226626396,-0.7079029083251953,-0.0476940311491489,-0.3301508724689483
