timestamp,TP9,AF7,AF8,TP10
1629370423025,0.2967894971370697,0.2143934071063995,0.2715479433536529,0.2172687500715255
1629370423201,0.2562928199768066,0.1995165199041366,0.2670589387416839,0.2648895978927612
1629370423231,0.2301358431577682,0.1868136823177337,0.2625757753849029,0.2648895978927612
1629370423298,0.216118186712265,0.1675246953964233,0.2563660740852356,0.2648895978927612
1629370423400,0.216118186712265,0.1485979557037353,0.2454957067966461,0.2648895978927612
1629370423671,0.216118186712265,0.1363930404186248,0.2289858609437942,0.2648895978927612
1629370423743,0.2273092567920684,0.1312233358621597,0.2065096497535705,0.2648895978927612
1629370423809,0.2371210306882858,0.1296855062246322,0.1779467761516571,0.2741109132766723
1629370423860,0.2433241456747055,0.1211403906345367,0.1452217400074005,0.2896919548511505
1629370423929,0.2476187795400619,0.1198823004961013,0.1134582757949829,0.2931012809276581
1629370424037,0.2517526745796203,0.1197551637887954,0.0874380096793174,0.2805474400520324
1629370424140,0.2541664838790893,0.1158839538693428,0.067506767809391,0.2596192061901092
1629370424274,0.2256411612033844,0.1090337336063385,0.0508984588086605,0.2387803643941879
1629370424310,0.2085184901952743,0.1018227338790893,0.036148801445961,0.2284264117479324
1629370424452,0.2110863327980041,0.094256080687046,0.0226570609956979,0.213280439376831
1629370424517,0.2055261731147766,0.0853634849190712,0.0094133839011192,0.2025102525949478
1629370424568,0.2178036421537399,0.0771617740392685,-0.0048895450308918,0.1772654503583908
1629370424765,0.2302415668964386,0.0749032795429229,-0.0218513421714305,0.1772654503583908
1629370424828,0.2408486455678939,0.079693965613842,-0.0406410656869411,0.1772654503583908
1629370424921,0.2408486455678939,0.0871800333261489,-0.0595465078949928,0.1772654503583908
1629370425001,0.2408486455678939,0.0932020470499992,-0.0809016153216362,0.1772654503583908
1629370425096,0.2330754399299621,0.0961014106869697,-0.1095122918486595,0.1772654503583908
1629370425257,0.2211408019065857,0.0947694331407547,-0.1484252959489822,0.1546725779771804
1629370425420,0.2074100524187088,0.0882255584001541,-0.1951273083686828,0.1085048019886016
1629370425480,0.1892331093549728,0.078361377120018,-0.2420433908700943,0.0528459660708904
1629370425547,0.1582787483930587,0.0707666873931884,-0.27777960896492,0.0139732304960489
1629370425622,0.1582787483930587,0.0702980384230613,-0.293045163154602,0.0139732304960489
1629370425759,0.1582787483930587,0.0760835781693458,-0.2889338135719299,0.0139732304960489
1629370425803,0.1582787483930587,0.0832972973585128,-0.2761701643466949,0.0139732304960489
1629370425974,0.1582787483930587,0.0879417732357978,-0.263129323720932,0.0139732304960489
1629370426090,0.1582787483930587,0.0890636593103408,-0.2502703666687011,0.0139732304960489
1629370426167,-0.0876395925879478,0.0875248163938522,-0.2364694625139236,0.0139732304960489
1629370426262,-0.0711970329284668,0.0838668197393417,-0.2233977615833282,0.0139732304960489
1629370426437,-0.0427956357598304,0.0783754959702491,-0.2143858820199966,0.0139732304960489
1629370426531,-0.0032067794818431,0.0712044388055801,-0.208969697356224,0.131371408700943
1629370426590,0.0375385731458663,0.0614394508302211,-0.2035097926855087,0.1240491345524787
1629370426703,0.0675854757428169,0.0492386072874069,-0.1965028047561645,0.1306207776069641
1629370426756,0.0828636512160301,0.0376068316400051,-0.1898488849401474,0.1401017308235168
1629370426856,0.0873613357543945,0.029763825237751,-0.1862423717975616,0.1439613103866577
1629370427056,0.0848111733794212,0.0243425890803337,-0.1864026933908462,0.1416714638471603
1629370427180,0.0758795514702797,0.0153792221099138,-0.1911434382200241,0.1382611989974975
1629370427269,0.0617854632437229,-0.0001183860367746,-0.2018080204725265,0.1384773850440979
1629370427322,0.0486963614821434,-0.0179696399718523,-0.2169622033834457,0.1455300748348236
1629370427469,0.0547115430235862,-0.0312027689069509,-0.231563538312912,0.1618003994226455
1629370427536,0.0741152167320251,-0.0378891080617904,-0.2418896108865738,0.1865143626928329
1629370427648,0.1008862107992172,-0.0416406691074371,-0.2482101172208786,0.2148533165454864
1629370427786,0.1255006194114685,-0.0451106168329715,-0.2528300583362579,0.2426228523254394
1629370427835,0.1396635919809341,-0.0472924225032329,-0.2575558722019195,0.2640853226184845
1629370428020,0.1405176520347595,-0.0467627570033073,-0.2639564573764801,0.2801034152507782
1629370428092,0.1317420899868011,-0.0451739244163036,-0.2742260992527008,0.2925947606563568
1629370428253,0.1223885938525199,-0.044488076120615,-0.2876285016536712,0.3014963567256927
1629370428284,0.1218531131744384,-0.0443019084632396,-0.2996132671833038,0.3056135475635528
1629370428421,0.1315160393714904,-0.044132400304079,-0.3056897222995758,0.3042052090167999
1629370428639,0.143719345331192,-0.0463807210326194,-0.3056556582450866,0.298855572938919
1629370428815,0.1521254926919937,-0.0547574795782566,-0.3020751774311065,0.2918176651000976
1629370428907,0.1567052602767944,-0.0693634673953056,-0.2993331551551819,0.2843833565711975
1629370428961,0.15985968708992,-0.0865647494792938,-0.3016588091850281,0.2759575247764587
1629370429029,0.1604530662298202,-0.1039069592952728,-0.3118311166763305,0.2646703124046325
1629370429190,0.1534963250160217,-0.1222978755831718,-0.3290773928165436,0.2479436099529266
1629370429235,0.13591830432415,-0.1423415541648864,-0.3491039872169494,0.224790871143341
1629370429293,0.1111762672662735,-0.1625420898199081,-0.3691709041595459,0.1973697990179062
1629370429410,0.0885719507932663,-0.1818563789129257,-0.3900437653064728,0.1718241721391677
1629370429474,0.0778661593794822,-0.2014226764440536,-0.4114037454128265,0.1545026451349258
1629370429532,0.0814824551343917,-0.2218874990940094,-0.4285574555397033,0.1430493891239166
1629370429587,0.0921374037861824,-0.24272221326828,-0.4370686709880829,0.13021120429039
1629370429644,0.0979439243674278,-0.2645894587039947,-0.4396263360977173,0.1120661944150924
1629370429719,0.0906298011541366,-0.2895790040493011,-0.4437125027179718,0.091952383518219
1629370429899,0.0704530179500579,-0.3160666823387146,-0.4538186490535736,0.0770170986652374
1629370429954,0.0501698702573776,-0.3355247378349304,-0.4681771099567413,0.0792118906974792
1629370430035,0.0374061465263366,-0.3391156792640686,-0.4835143685340881,0.0889240056276321
1629370430232,0.0364177376031875,-0.3264573514461517,-0.494757741689682,0.101949855685234
1629370430316,0.0461855567991733,-0.308161199092865,-0.4969422519207001,0.1153815165162086
1629370430413,0.0631523504853248,-0.2927747368812561,-0.4881268739700317,0.1280148327350616
1629370430486,0.0838954001665115,-0.2801274359226227,-0.472147673368454,0.1384309530258178
1629370430545,0.1055499836802482,-0.2656959593296051,-0.4559193849563598,0.1428422927856445
1629370430800,0.1262849122285843,-0.2452375590801239,-0.4447065889835357,0.135597288608551
1629370430894,0.1440994143486023,-0.2164885550737381,-0.4389384388923645,0.1111545786261558
1629370430974,0.1565463691949844,-0.1808120310306549,-0.43579962849617,0.0667891129851341
1629370431050,0.1603331565856933,-0.1434337049722671,-0.4325225949287414,0.0094206985086202
1629370431115,0.1603331565856933,-0.1112134754657745,-0.427266925573349,0.0094206985086202
1629370431163,0.1603331565856933,-0.0863139182329177,-0.4188070595264435,0.0094206985086202
1629370431327,0.1603331565856933,-0.0659803971648216,-0.407442957162857,0.0094206985086202
1629370431420,0.1603331565856933,-0.0471511296927928,-0.391839325428009,0.0094206985086202
1629370431619,0.1603331565856933,-0.0303568206727504,-0.3738718628883362,0.0094206985086202
1629370431768,0.1603331565856933,-0.0185342468321323,-0.3577941656112671,0.0094206985086202
1629370431797,0.1603331565856933,-0.0149463536217808,-0.3494042754173279,0.0094206985086202
1629370432123,0.1603331565856933,-0.0193559620529413,-0.3511433899402618,0.0094206985086202
1629370432197,0.3215817213058471,-0.0287119206041097,-0.3602151274681091,0.0094206985086202
1629370432254,0.3905281126499176,-0.0400447621941566,-0.3715476095676422,0.0094206985086202
1629370432341,0.4343478381633758,-0.0524125397205352,-0.3819168210029602,-0.0892198979854583
1629370432519,0.4490286707878113,-0.0671952813863754,-0.3904299139976501,-0.0368135832250118
1629370432568,0.440826803445816,-0.0867753624916076,-0.3966459631919861,-0.0368135832250118
1629370432632,0.4197879731655121,-0.1124947443604469,-0.4009086787700653,-0.0368135832250118
1629370432704,0.3944799900054931,-0.1431735306978225,-0.4039695262908935,-0.0368135832250118
1629370432758,0.3703688085079193,-0.1741572767496109,-0.408253014087677,-0.0368135832250118
1629370432856,0.352615624666214,-0.2013633847236633,-0.4141220152378082,0.0451896972954273
1629370432925,0.343326061964035,-0.2241012901067733,-0.416808009147644,0.0736274197697639
1629370433026,0.3397217094898224,-0.244719922542572,-0.4128819704055786,0.0787839815020561
1629370433138,0.3367507755756378,-0.264907032251358,-0.4020267426967621,0.0718619748950004
1629370433217,0.3410524427890777,-0.2845505177974701,-0.3876444101333618,0.0779060795903205
1629370433280,0.3490262031555176,-0.3008572161197662,-0.3732596337795257,0.1003301888704299
1629370433438,0.3494351506233215,-0.3101563453674316,-0.3610257506370544,0.1257674843072891
1629370433626,0.3348845243453979,-0.3127129971981048,-0.3532836735248565,0.1257674843072891
1629370433698,0.3019158840179443,-0.3147023022174835,-0.3511427640914917,0.1257674843072891
1629370433790,0.2557958960533142,-0.3180956542491913,-0.3456139266490936,0.1336239278316497
1629370433843,0.211559385061264,-0.320616066455841,-0.3385969698429107,0.1351409703493118
1629370433904,0.1853148490190506,-0.3201328217983246,-0.3278190195560455,0.1351409703493118
1629370433966,0.183169886469841,-0.3173980414867401,-0.3136071860790252,0.1351409703493118
1629370434022,0.2010229229927063,-0.314257264137268,-0.297668844461441,0.1351409703493118
1629370434122,0.2317231446504593,-0.3101182878017425,-0.2796636819839477,0.1351409703493118
1629370434297,0.2616470158100128,-0.3027279078960418,-0.2861717343330383,0.0756207332015037
1629370434425,0.2616470158100128,-0.2937259972095489,-0.2907160520553589,0.0756207332015037
1629370434479,0.2616470158100128,-0.2887884080410003,-0.2992646396160126,0.0756207332015037
1629370434548,0.2616470158100128,-0.2887884080410003,-0.314516931772232,0.0756207332015037
1629370434657,0.2616470158100128,-0.2887884080410003,-0.3327350318431854,0.0756207332015037
1629370434819,0.2616470158100128,-0.2887884080410003,-0.3453680872917175,0.0756207332015037
1629370434866,0.2616470158100128,-0.2887884080410003,-0.3480543494224548,0.0756207332015037
1629370435007,0.2616470158100128,-0.1276092827320099,-0.3419120907783508,0.0756207332015037
1629370435133,0.2616470158100128,-0.1292672902345657,-0.3268982768058777,0.0756207332015037
1629370435228,0.2616470158100128,-0.1292672902345657,-0.3268982768058777,0.0756207332015037
1629370435333,0.2616470158100128,-0.1292672902345657,-0.3268982768058777,0.0756207332015037
1629370435409,0.2616470158100128,-0.1292672902345657,-0.3268982768058777,0.0756207332015037
1629370435468,0.2616470158100128,-0.1292672902345657,-0.3268982768058777,0.0756207332015037
1629370435551,0.2616470158100128,-0.1292672902345657,-0.3268982768058777,0.0756207332015037
1629370435628,0.2616470158100128,-0.1292672902345657,-0.3268982768058777,0.0756207332015037
1629370435696,0.2616470158100128,-0.1292672902345657,-0.3047942519187927,0.0756207332015037
1629370435793,0.2616470158100128,-0.1292672902345657,-0.2923990190029144,0.0756207332015037
1629370435983,0.2616470158100128,-0.1292672902345657,-0.2920714914798736,0.0756207332015037
1629370436094,0.2616470158100128,-0.1292672902345657,-0.301142930984497,0.0756207332015037
1629370436160,0.2616470158100128,-0.1179123371839523,-0.3121668696403503,0.0756207332015037
1629370436233,0.2616470158100128,-0.0679761618375778,-0.2728374004364013,0.0756207332015037
1629370436321,0.2616470158100128,-0.0362421572208404,-0.2390395551919937,0.0756207332015037
1629370436391,0.2616470158100128,-0.0080246906727552,-0.2237767726182937,0.0756207332015037
1629370436538,0.2616470158100128,0.0247575491666793,-0.2359088808298111,0.0756207332015037
1629370436595,0.2616470158100128,0.0243625212460756,-0.2720375955104828,0.0756207332015037
1629370436711,0.2616470158100128,0.0243052951991558,-0.3066422939300537,0.0756207332015037
1629370436753,0.2616470158100128,0.0275028031319379,-0.3372726738452911,0.0756207332015037
1629370436918,0.3329940140247345,0.0417644046247005,-0.3629015386104584,0.0756207332015037
1629370437062,0.3966620862483978,0.0765999257564544,-0.381569892168045,0.0756207332015037
1629370437137,0.3966620862483978,0.1295628994703292,-0.3836767375469208,0.0756207332015037
1629370437211,0.3966620862483978,0.186053067445755,-0.3522782921791076,0.0756207332015037
1629370437273,0.3966620862483978,0.186053067445755,-0.2812700271606445,0.0756207332015037
1629370437420,0.3966620862483978,0.186053067445755,-0.1826167404651641,0.0756207332015037
1629370437575,0.3966620862483978,0.186053067445755,-0.0725099816918373,0.0756207332015037
1629370437638,0.3966620862483978,0.2202046662569046,0.0351030342280864,0.0756207332015037
1629370437749,0.3966620862483978,0.2543032467365265,0.1411986052989959,0.0756207332015037
1629370437827,0.3966620862483978,0.2830188572406769,0.2280426174402237,0.0756207332015037
1629370437990,0.3966620862483978,0.3120701611042022,0.292096197605133,0.0756207332015037
1629370438088,0.3966620862483978,0.3435006439685821,0.3393050730228424,0.0756207332015037
1629370438197,0.5782507061958313,0.3734005689620971,0.3816578984260559,0.0756207332015037
1629370438254,0.68317711353302,0.3997762203216553,0.4270155429840088,0.0756207332015037
1629370438363,0.7517358660697937,0.425577312707901,0.4737292528152466,0.0756207332015037
1629370438426,0.7982276082038879,0.4553997814655304,0.5151227712631226,0.0756207332015037
1629370438570,0.8280073404312134,0.4872650504112243,0.5479375720024109,0.0756207332015037
1629370438647,0.8162451386451721,0.5128577947616577,0.5720624923706055,0.0756207332015037
1629370438907,0.7997263669967651,0.5249455571174622,0.5873393416404724,0.0756207332015037
1629370438952,0.7778922319412231,0.5250313878059387,0.5924440026283264,0.0756207332015037
1629370439138,0.7523318529129028,0.5140089988708496,0.5871738791465759,0.0756207332015037
1629370439233,0.7523318529129028,0.4973719120025635,0.572168231010437,0.0756207332015037
1629370439291,0.7523318529129028,0.4788372814655304,0.5468990206718445,0.0756207332015037
1629370439408,0.7523318529129028,0.4606444239616394,0.5113216638565063,0.0756207332015037
1629370439439,0.7523318529129028,0.4427384436130523,0.4693728387355804,0.0756207332015037
1629370439503,0.7523318529129028,0.4224665760993957,0.4518911242485046,0.0756207332015037
1629370439604,0.7523318529129028,0.3977506458759308,0.4401536881923675,0.0756207332015037
1629370439702,0.7280397415161133,0.3922387361526489,0.4274920523166656,0.0756207332015037
1629370439800,0.7101026177406311,0.3872725665569305,0.4033878147602081,0.0756207332015037
1629370439820,0.6924371719360352,0.3795337677001953,0.3623970746994018,0.0756207332015037
1629370440020,0.6686854958534241,0.358845591545105,0.3087134063243866,0.0756207332015037
1629370440087,0.6343209147453308,0.3138074576854706,0.2491064816713333,0.0756207332015037
1629370440258,0.6343209147453308,0.2394453883171081,0.1873600780963897,0.0756207332015037
1629370440323,0.6343209147453308,0.1242160126566886,0.0954272747039794,0.0756207332015037
1629370440412,0.6343209147453308,0.0184560976922512,0.0293084066361188,0.0756207332015037
1629370440459,0.6343209147453308,-0.0533386282622814,-0.0122163007035851,0.0756207332015037
1629370440590,0.6343209147453308,-0.0855101868510246,-0.0531604066491127,0.0756207332015037
1629370440777,0.240662395954132,-0.0899399146437645,-0.1077832877635955,0.5924089550971985
1629370440882,0.253201425075531,-0.0803652554750442,-0.1631161570549011,0.5830078721046448
1629370440932,0.2535722851753235,-0.0661446899175643,-0.1981672644615173,0.5673266053199768
1629370441028,0.2535722851753235,-0.0485924817621707,-0.2156665027141571,0.5568960905075073
1629370441160,0.2535722851753235,-0.0256835874170064,-0.2297467738389969,0.5590207576751709
1629370441213,0.2535722851753235,-0.0151112712919712,-0.24398934841156,0.5754825472831726
1629370441286,0.2342894375324249,-0.0077412743121385,-0.2573936879634857,0.6026629209518433
1629370441456,0.2340896427631378,-0.0037578507326543,-0.2680272161960602,0.6317757368087769
1629370441535,0.2399958968162536,-0.0015653340378776,-0.2760347425937652,0.6523637771606445
1629370441617,0.2406750321388244,-0.0001534111361252,-0.2835519015789032,0.6581666469573975
1629370441697,0.233313649892807,0.0007577426731586,-0.2924394011497497,0.6501044631004333
1629370441832,0.2211562097072601,0.0044989362359046,-0.3155065178871155,0.6338644623756409
1629370441880,0.2090786248445511,0.0085873212665319,-0.3519336879253387,0.6172531247138977
1629370442159,0.1918442845344543,0.0090905092656612,-0.3934275209903717,0.6002792119979858
1629370442260,0.1650315821170807,0.00224574143067,-0.4230297803878784,0.582249104976654
1629370442351,0.1331189721822738,-0.0108418483287096,-0.4268580079078674,0.5683481097221375
1629370442687,0.1043314114212989,-0.0245993565768003,-0.4096914827823639,0.564105749130249
1629370442734,0.0843918845057487,-0.0357830785214901,-0.3890901803970337,0.5671749711036682
1629370442877,0.083080917596817,-0.0469953492283821,-0.3765915632247925,0.5679128766059875
1629370442953,0.0798950269818306,-0.0620975196361541,-0.3727066218852997,0.5581502914428711
1629370443071,0.0746428668498992,-0.0802326574921608,-0.3731743693351745,0.535222053527832
1629370443133,0.0687996968626976,-0.0961775630712509,-0.3752925097942352,0.4995607435703277
1629370443228,0.0558304376900196,-0.1056042313575744,-0.3787847459316253,0.4528703689575195
1629370443329,0.0422558113932609,-0.1079135090112686,-0.3810963630676269,0.4015835225582123
1629370443424,0.0337673984467983,-0.1052100881934166,-0.3757789134979248,0.3595582544803619
1629370443497,0.0294163059443235,-0.1006531938910484,-0.3593471050262451,0.3387344479560852
1629370443549,0.0246514957398176,-0.0958349034190177,-0.3352257013320923,0.338720291852951
1629370443608,0.0209360942244529,-0.0885585993528366,-0.3108451664447784,0.3504877984523773
1629370443657,0.0231474079191684,-0.0754630491137504,-0.2928264141082763,0.3659266531467438
1629370443835,0.0313031412661075,-0.0571071803569793,-0.2844707369804382,0.3798224627971649
1629370443967,0.0381433926522731,-0.0388973392546176,-0.2870170474052429,0.387367844581604
1629370444024,0.036068208515644,-0.0265738926827907,-0.2989936769008636,0.3862196803092956
1629370444093,0.0244480166584253,-0.0206736512482166,-0.3148395717144012,0.3822624683380127
1629370444145,0.0104434266686439,-0.0183033626526594,-0.3273005187511444,0.3853765726089477
1629370444201,0.0025326253380626,-0.0179738495498895,-0.3334278464317322,0.3976053893566131
1629370444305,0.0022828618530184,-0.0211085509508848,-0.3355244696140289,0.4099203050136566
1629370444446,0.0032018427737057,-0.0299068130552768,-0.3373444974422455,0.4138785898685455
1629370444492,-0.0019973828457295,-0.0442264787852764,-0.3405842781066894,0.4099425077438354
1629370444564,-0.0152704389765858,-0.0622665099799633,-0.347064197063446,0.4043149352073669
1629370444690,-0.0321207866072654,-0.0823692306876182,-0.3607235550880432,0.3991468846797943
1629370444833,-0.0450376123189926,-0.1037486270070076,-0.381628006696701,0.3913761377334595
1629370444914,-0.0504979640245437,-0.1258813142776489,-0.4012455642223358,0.378770500421524
1629370444970,-0.0512171573936939,-0.1485707461833953,-0.4073187410831451,0.3796234428882599
1629370445046,-0.0511118099093437,-0.1713561117649078,-0.3949252665042877,0.3769604563713074
1629370445192,-0.0526725873351097,-0.1939732283353805,-0.3716131150722503,0.3713233768939972
1629370445454,-0.054085586220026,-0.2162708491086959,-0.349826455116272,0.3633427917957306
1629370445498,-0.0509911142289638,-0.2371992319822311,-0.337354451417923,0.352902889251709
1629370445633,-0.038322202861309,-0.2546378076076507,-0.3352269828319549,0.3350072205066681
1629370445803,-0.0169887635856866,-0.2655981481075287,-0.3397046029567718,0.3018756508827209
1629370445927,0.0054874322377145,-0.2682056427001953,-0.3447552919387817,0.2510223984718323
1629370446134,0.022082595154643,-0.2632665634155273,-0.3469993472099304,0.1906202137470245
1629370446234,0.0323027186095714,-0.2514724135398865,-0.3461637496948242,0.2280714809894561
1629370446344,0.0404111295938491,-0.2333750128746032,-0.3430073261260986,0.2507998049259186
1629370446429,0.0497896447777748,-0.2125297486782074,-0.3376096189022064,0.2623203992843628
1629370446493,0.0601284429430961,-0.1953406929969787,-0.3297398090362549,0.2905173301696777
1629370446543,0.0710791125893592,-0.1846866607666015,-0.3201240301132202,0.2905173301696777
1629370446603,0.0825017616152763,-0.1774352192878723,-0.3130441904067993,0.2905173301696777
1629370446664,0.0924435630440712,-0.170114517211914,-0.3134981989860534,0.2905173301696777
1629370446718,0.0980085507035255,-0.1634033471345901,-0.3236398100852966,0.3419124782085418
1629370446783,0.0991645976901054,-0.159322902560234,-0.3421974182128906,0.2828430235385895
1629370446831,0.0986468717455864,-0.1557220518589019,-0.36285200715065,0.240114688873291
1629370447065,0.0976584926247596,-0.1495518237352371,-0.3774390518665313,0.2168466001749038
1629370447131,0.0917177200317382,-0.1422210931777954,-0.3829333782196045,0.2070826441049575
1629370447251,0.0759336799383163,-0.1354470700025558,-0.382274717092514,0.2017363160848617
1629370447330,0.0519057549536228,-0.1267833262681961,-0.380314826965332,0.1953490078449249
1629370447414,0.0276171341538429,-0.1136814653873443,-0.3796108663082123,0.1891668289899826
1629370447500,0.0104830916970968,-0.1007100045680999,-0.3811596632003784,0.1401187181472778
1629370447612,0.0007452280842699,-0.095131404697895,-0.3872406184673309,0.1231367513537406
1629370447642,-0.0054565025493502,-0.0971972569823265,-0.3999279737472534,0.141743317246437
1629370447734,-0.0096646705642342,-0.1001509055495262,-0.4158760905265808,0.1549072265625
1629370447833,-0.0119086382910609,-0.1002406775951385,-0.4291509389877319,0.1600457578897476
1629370447958,-0.0123870875686407,-0.1017124950885772,-0.4361502826213836,0.158744603395462
1629370448017,-0.0131245804950594,-0.1093150451779365,-0.438664823770523,0.1446263194084167
1629370448142,-0.0153494486585259,-0.1226490885019302,-0.4406312108039856,0.1413295865058899
1629370448321,-0.0181328188627958,-0.1372784376144409,-0.4427936375141144,0.1448553800582885
1629370448415,-0.0196272525936365,-0.1501858830451965,-0.44345822930336,0.1490029841661453
1629370448470,-0.0187821332365274,-0.1605667173862457,-0.4423516392707824,0.150551438331604
1629370448587,-0.0164251308888196,-0.1686522811651229,-0.4411486387252807,0.1481328904628753
1629370448716,-0.0138277877122163,-0.1778988540172577,-0.4425549805164337,0.1426778882741928
1629370448800,-0.0122089441865682,-0.1945873647928238,-0.4483013749122619,0.1369457393884658
1629370448849,-0.0137678757309913,-0.2218697518110275,-0.4559858441352844,0.1329760700464248
1629370448915,-0.0211009252816438,-0.2545030117034912,-0.4594708383083343,0.127643808722496
1629370449010,-0.0341558679938316,-0.2833346724510193,-0.4527348577976227,0.1148431450128555
1629370449153,-0.0486119650304317,-0.3054141104221344,-0.4354144036769867,0.0932156592607498
1629370449244,-0.0600791089236736,-0.3262652158737182,-0.4155628085136413,0.0687356814742088
1629370449360,-0.0691169947385788,-0.3512637317180633,-0.4035804569721222,0.0497616343200206
1629370449438,-0.0778150409460067,-0.3767647445201874,-0.4035307168960571,0.0394391939043998
1629370449512,-0.0839010253548622,-0.3948444724082947,-0.4111520648002624,0.0355196557939052
1629370449571,-0.0844832137227058,-0.4005827009677887,-0.4188967943191528,0.0366512462496757
1629370449844,-0.0820484161376953,-0.394780695438385,-0.4219018518924713,0.0443781577050685
1629370449911,-0.0820659920573234,-0.3802689909934997,-0.4215405583381653,0.0597671456634998
1629370450019,-0.0862592458724975,-0.3608945608139038,-0.4220238924026489,0.0808961167931556
1629370450092,-0.0911305472254753,-0.3407362103462219,-0.4254421591758728,0.1045380309224128
1629370450155,-0.0936628803610801,-0.3199430406093597,-0.4310920536518097,0.1279075443744659
1629370450244,-0.0934425815939903,-0.2896850705146789,-0.4365228116512298,0.1507073044776916
1629370450339,-0.0898918807506561,-0.2406935542821884,-0.4414086937904358,0.1731239408254623
1629370450502,-0.0798679813742637,-0.1765890419483184,-0.4493898749351501,0.1945364028215408
1629370450594,-0.0615903809666633,-0.1124822944402694,-0.4642545878887176,0.2151462882757187
1629370450677,-0.040096741169691,-0.0600407682359218,-0.4866653680801391,0.2368122339248657
1629370450733,-0.0236856509000062,-0.0192835461348295,-0.5137854218482971,0.2605699300765991
1629370450823,-0.0179784540086984,0.0161929167807102,-0.5404698252677917,0.2840051352977752
1629370450968,-0.0231459643691778,0.0491782240569591,-0.5627990961074829,0.3026173412799835
1629370451153,-0.0365415550768375,0.0766378194093704,-0.580682635307312,0.3149356544017792
1629370451194,-0.0526133403182029,0.0947942286729812,-0.5972476005554199,0.3236314356327057
1629370451263,-0.0639817342162132,0.1041107922792434,-0.6147609353065491,0.3315217792987823
1629370451471,-0.0650267153978347,0.1080009192228317,-0.6311529278755188,0.3387177586555481
1629370451533,-0.0582537204027175,0.1096766367554664,-0.6366451382637024,0.34352508187294
1629370451646,-0.0506225153803825,0.1109276935458183,-0.621893584728241,0.3471218347549438
1629370451757,-0.0453852601349353,0.1121897101402282,-0.5894891023635864,0.3524128198623657
1629370451821,-0.0402299202978611,0.111019842326641,-0.5537148118019104,0.3609868884086609
1629370451885,-0.0320139788091182,0.1030844375491142,-0.5269895792007446,0.3726007640361786
1629370452015,-0.0241166967898607,0.0857766419649124,-0.5101598501205444,0.3867764174938202
1629370452102,-0.0240363962948322,0.0609083473682403,-0.495468258857727,0.4044346809387207
1629370452255,-0.03622792288661,0.0332395359873771,-0.4768303632736206,0.4256016314029693
1629370452309,-0.0560541935265064,0.0052905101329088,-0.4553665220737457,0.4479596316814422
1629370452368,-0.0716275051236152,-0.0224264245480299,-0.4362432360649109,0.4685745537281036
1629370452476,-0.0723877251148223,-0.0469072684645652,-0.4236654043197632,0.4864125847816467
1629370452553,-0.0564584285020828,-0.0618997439742088,-0.4174185693264007,0.5014706254005432
1629370452691,-0.0316866748034954,-0.064127542078495,-0.4142722487449646,0.5133342742919922
1629370452803,-0.008453351445496,-0.0577627532184124,-0.4118178188800812,0.5212251543998718
1629370452847,-0.0057493788190186,-0.0496419854462146,-0.4087041020393371,0.5317748785018921
1629370453113,-0.0073859081603586,-0.0422008708119392,-0.4046586453914642,0.5414937734603882
1629370453227,-0.0079613197594881,-0.0325800068676471,-0.3955546021461487,0.5513300895690918
1629370453293,-0.003544014878571,-0.0321458168327808,-0.4057017266750335,0.5614714622497559
1629370453364,0.0032326616346836,-0.0326053015887737,-0.4176549613475799,0.5708892941474915
1629370453428,0.0056439363397657,-0.0338826477527618,-0.4236207902431488,0.577681839466095
1629370453532,0.0011578440899029,-0.0355122983455657,-0.4203537702560425,0.5807528495788574
1629370453680,-0.0043821274302899,-0.0357117354869842,-0.4129523336887359,0.5790143013000488
1629370453753,0.0013413024134933,-0.0320139899849891,-0.4085646867752075,0.5704739093780518
1629370453878,0.0253747850656509,-0.0213927570730447,-0.4093385934829712,0.552147626876831
1629370453971,0.0638182163238525,-0.0040892297402024,-0.412028819322586,0.5234968662261963
1629370454078,0.0638182163238525,0.0140400137752294,-0.1591646671295166,0.5234968662261963
1629370454162,0.0638182163238525,0.0258997064083814,0.0523932427167892,0.5234968662261963
1629370454243,0.0638182163238525,0.0306503027677536,0.2221859544515609,0.5234968662261963
1629370454330,0.0638182163238525,0.0306503027677536,0.2767081558704376,0.5234968662261963
1629370454384,0.0638182163238525,0.0306503027677536,0.3427997231483459,0.5234968662261963
1629370454464,0.0638182163238525,0.0306503027677536,0.4236612021923065,0.5234968662261963
1629370454624,0.0638182163238525,0.0306503027677536,0.4236612021923065,0.5234968662261963
1629370454804,0.0638182163238525,0.0306503027677536,0.4236612021923065,0.5234968662261963
1629370454850,0.0638182163238525,0.0306503027677536,0.4236612021923065,0.5234968662261963
1629370454954,0.0638182163238525,0.0306503027677536,0.4236612021923065,0.5234968662261963
1629370455038,0.0638182163238525,0.0306503027677536,0.4236612021923065,0.5234968662261963
1629370455125,0.0638182163238525,0.0306503027677536,0.4236612021923065,0.5234968662261963
1629370455262,0.0638182163238525,0.0306503027677536,0.4236612021923065,0.5234968662261963
1629370455391,0.0638182163238525,0.0306503027677536,0.4236612021923065,0.5234968662261963
1629370455410,0.0638182163238525,0.0306503027677536,0.4236612021923065,0.5234968662261963
1629370455543,0.0638182163238525,0.0306503027677536,0.4236612021923065,0.5234968662261963
1629370455608,0.0638182163238525,0.0306503027677536,0.4236612021923065,0.5234968662261963
1629370455674,0.0638182163238525,0.0306503027677536,0.4236612021923065,0.5234968662261963
1629370455921,0.0638182163238525,0.0306503027677536,0.4236612021923065,0.5234968662261963
1629370456046,0.0638182163238525,0.0306503027677536,0.4236612021923065,0.5234968662261963
1629370456148,0.0638182163238525,0.0306503027677536,0.4236612021923065,0.5234968662261963
1629370456213,0.0638182163238525,0.0306503027677536,0.4236612021923065,0.5234968662261963
1629370456272,0.0638182163238525,0.0306503027677536,0.4236612021923065,0.5234968662261963
1629370456413,0.0638182163238525,0.0306503027677536,0.4236612021923065,0.5234968662261963
1629370456496,0.0638182163238525,0.0306503027677536,0.4236612021923065,0.5234968662261963
1629370456592,0.0638182163238525,0.0306503027677536,0.4236612021923065,0.5234968662261963
1629370456641,0.0638182163238525,0.0306503027677536,0.4236612021923065,0.5234968662261963
1629370456805,0.0638182163238525,0.0306503027677536,0.4236612021923065,0.5234968662261963
1629370456851,0.0638182163238525,0.0306503027677536,0.4236612021923065,0.5234968662261963
1629370457070,0.0638182163238525,0.0306503027677536,0.4236612021923065,0.5234968662261963
1629370457097,0.0638182163238525,0.0306503027677536,0.4236612021923065,0.5234968662261963
1629370457216,0.0638182163238525,0.0306503027677536,0.4236612021923065,0.5234968662261963
1629370457283,0.0638182163238525,0.0306503027677536,0.4236612021923065,0.5234968662261963
1629370457354,0.0638182163238525,0.0306503027677536,0.4236612021923065,0.5234968662261963
1629370457438,0.0638182163238525,0.0306503027677536,0.6524756550788879,0.5234968662261963
1629370457527,0.0638182163238525,0.0306503027677536,0.6445690393447876,0.5234968662261963
1629370457631,0.0638182163238525,0.0306503027677536,0.6450068354606628,0.5234968662261963
1629370457749,0.0638182163238525,0.0306503027677536,0.6550236344337463,0.5234968662261963
1629370457829,0.0638182163238525,0.0306503027677536,0.6797788143157959,0.5234968662261963
1629370458040,0.0638182163238525,0.0306503027677536,0.7158665657043457,0.5234968662261963
1629370458242,0.0638182163238525,0.0306503027677536,0.7493480443954468,0.5234968662261963
1629370458362,0.0638182163238525,0.0306503027677536,0.7493480443954468,0.5234968662261963
1629370458500,0.0638182163238525,0.0306503027677536,0.7493480443954468,0.5234968662261963
1629370458568,0.0638182163238525,0.0306503027677536,0.7518516778945923,0.5234968662261963
1629370458612,0.0638182163238525,0.0306503027677536,0.7640452980995178,0.5234968662261963
1629370458694,0.0638182163238525,0.0306503027677536,0.7797539830207825,0.5234968662261963
1629370458794,0.0638182163238525,0.0306503027677536,0.7797539830207825,0.5234968662261963
1629370458847,0.0638182163238525,0.0306503027677536,0.7797539830207825,0.5234968662261963
1629370458915,0.0638182163238525,0.0306503027677536,0.7797539830207825,0.5234968662261963
1629370458973,0.0638182163238525,0.0306503027677536,0.8036879301071167,0.5234968662261963
1629370459061,0.0638182163238525,0.0306503027677536,0.8336971402168274,0.5234968662261963
1629370459156,0.0638182163238525,0.0306503027677536,0.8700398802757263,0.5234968662261963
1629370459278,0.0638182163238525,0.0306503027677536,0.8700398802757263,0.5234968662261963
1629370459408,0.0638182163238525,0.0306503027677536,0.8700398802757263,0.5234968662261963
1629370459439,0.0638182163238525,0.0306503027677536,0.8700398802757263,0.5234968662261963
1629370459560,0.0638182163238525,0.0306503027677536,0.8700398802757263,0.5234968662261963
1629370459666,0.0638182163238525,0.0306503027677536,0.8700398802757263,0.5234968662261963
1629370459816,0.0638182163238525,0.0306503027677536,0.8700398802757263,0.5234968662261963
1629370459876,0.0638182163238525,0.0306503027677536,0.8700398802757263,0.5234968662261963
1629370459985,0.0638182163238525,0.0306503027677536,0.8700398802757263,0.5234968662261963
1629370460157,0.0638182163238525,0.0306503027677536,0.8700398802757263,0.5234968662261963
1629370460230,0.0638182163238525,0.0306503027677536,0.8700398802757263,0.5234968662261963
1629370460409,0.0638182163238525,0.0306503027677536,0.8700398802757263,0.5234968662261963
1629370460509,0.0638182163238525,0.0306503027677536,0.8700398802757263,0.5234968662261963
1629370460569,0.0638182163238525,0.0306503027677536,0.8700398802757263,0.5234968662261963
1629370460621,0.0638182163238525,0.0306503027677536,0.8700398802757263,0.5234968662261963
1629370460738,0.0638182163238525,0.0306503027677536,0.8700398802757263,0.5234968662261963
1629370460784,0.0638182163238525,0.0306503027677536,0.8700398802757263,0.5234968662261963
1629370460854,0.0638182163238525,0.0306503027677536,0.8700398802757263,0.5234968662261963
1629370460959,0.0638182163238525,0.0306503027677536,0.8700398802757263,0.5234968662261963
1629370461060,0.0638182163238525,0.0306503027677536,0.8700398802757263,0.5234968662261963
1629370461185,0.0638182163238525,0.0306503027677536,0.8700398802757263,0.5234968662261963
1629370461304,0.0638182163238525,0.0306503027677536,0.8700398802757263,0.5234968662261963
1629370461388,0.0638182163238525,0.0306503027677536,0.8700398802757263,0.5234968662261963
1629370461481,0.0638182163238525,0.0306503027677536,0.8700398802757263,0.5234968662261963
1629370461625,0.1810741424560547,0.1574687957763672,-0.0981963798403739,0.5234968662261963
1629370461660,0.1591985821723938,0.1612752377986908,-0.1142026335000991,0.5234968662261963
1629370461769,0.1360315382480621,0.1645338386297226,-0.1191602125763893,0.5234968662261963
1629370461906,0.1213024258613586,0.1625260114669799,-0.1064517274498939,0.5234968662261963
1629370462002,0.114918865263462,0.15728759765625,-0.0728369280695915,0.5234968662261963
1629370462062,0.1115342900156974,0.1537437587976455,-0.0242609549313783,0.1453472077846527
1629370462222,0.1101051419973373,0.1548551619052887,0.0251417253166437,0.1210657507181167
1629370462296,0.113332375884056,0.1609875261783599,0.0647515282034874,0.1100814789533615
1629370462408,0.1203575134277343,0.1693765819072723,0.0924815684556961,0.1204893440008163
1629370462522,0.1256745606660843,0.1769794076681137,0.1111593320965766,0.1460761576890945
1629370462597,0.1240206211805343,0.181842565536499,0.12326230853796,0.1744746416807174
1629370462691,0.1148188635706901,0.1831419616937637,0.1299335360527038,0.19744174182415
1629370462893,0.0989871770143508,0.1791912913322448,0.1438552439212799,0.2131696790456771
1629370463007,0.0764443427324295,0.1759827882051468,0.1605539619922638,0.2232693880796432
1629370463101,0.0562564134597778,0.1737613976001739,0.1838127374649047,0.2288233190774917
1629370463215,0.0493930913507938,0.1753147542476654,0.2116013914346695,0.2294694632291793
1629370463390,0.0590532645583152,0.1850570291280746,0.2391322553157806,0.2245327085256576
1629370463454,0.079562559723854,0.2034583836793899,0.2634252905845642,0.2178008407354354
1629370463532,0.1020852625370025,0.2242858409881591,0.2823869287967682,0.2137618064880371
1629370463589,0.1200338155031204,0.2390538603067398,0.2923767268657684,0.2209636569023132
1629370463685,0.1321117579936981,0.2447285056114196,0.2905687689781189,0.242815613746643
1629370463812,0.1380199790000915,0.2441394180059433,0.280019998550415,0.2717169523239136
1629370463904,0.1396623998880386,0.2428403347730636,0.267350286245346,0.2973086237907409
1629370464000,0.1407232880592346,0.2441053241491317,0.2566390633583069,0.3160890340805053
1629370464110,0.1467014700174331,0.2490777373313903,0.2474283725023269,0.3319799304008484
1629370464186,0.1602113842964172,0.2554227113723755,0.2394132018089294,0.3485462665557861
1629370464283,0.1779738515615463,0.2590804696083069,0.2339673340320587,0.3641952872276306
1629370464361,0.1932377964258194,0.2580976188182831,0.2297213822603225,0.3741552531719208
1629370464454,0.2015047818422317,0.2541104853153229,0.2200468182563781,0.3777035176753998
1629370464533,0.2028316259384155,0.2505669295787811,0.1994347274303436,0.3837413787841797
1629370464658,0.2001203149557113,0.2463427633047104,0.1692035645246505,0.3767541050910949
1629370464758,0.195618987083435,0.2362583875656128,0.1347826421260833,0.3705794215202331
1629370464854,0.1880235522985458,0.2168890833854675,0.0992150530219078,0.3643471300601959
1629370464982,0.1754157096147537,0.1908188313245773,0.0631550922989845,0.3535246849060058
1629370465031,0.1587508469820022,0.166142389178276,0.0320719555020332,0.3330997228622436
1629370465173,0.1406915038824081,0.1501806676387787,0.0175824463367462,0.3011462688446045
1629370465243,0.1237314715981483,0.1441439688205719,0.0233726538717746,0.2635606527328491
1629370465341,0.1060192212462425,0.1405637264251709,0.0392624288797378,0.2297658622264862
1629370465457,0.0867371931672096,0.1321295648813247,0.0524986758828163,0.2053300142288208
1629370465576,0.0683625936508178,0.1155353412032127,0.0576438084244728,0.1863789856433868
1629370465676,0.0551488362252712,0.095518410205841,0.0543751269578933,0.1656370460987091
1629370465759,0.0476134307682514,0.0815314799547195,0.0439736060798168,0.1416497826576233
1629370465836,0.0430230684578418,0.0774987041950225,0.0293241590261459,0.1200433745980262
1629370465957,0.0375279672443866,0.0785567462444305,0.0162306912243366,0.1302631646394729
1629370466037,0.0288210194557905,0.0761689618229866,0.0118686277419328,0.1349367350339889
1629370466150,0.0166234001517295,0.0667838752269744,0.0178561024367809,0.1413806229829788
1629370466306,0.0036988963838666,0.0528795011341571,0.0289654433727264,0.1517593115568161
1629370466471,-0.0019482617499306,0.0417522192001342,0.0397949032485485,0.1636382192373275
1629370466529,0.0073710423894226,0.0404549278318882,0.0479202084243297,0.1757398396730423
1629370466600,0.0330138616263866,0.0491192080080509,0.0504511483013629,0.1869014054536819
1629370466666,0.0678248181939125,0.0589616000652313,0.040932223200798,0.1965266466140747
1629370466883,0.1030133813619613,0.0600056089460849,0.0143893947824835,0.2026368677616119
1629370466919,0.1326421946287155,0.049950111657381,-0.0252532977610826,0.2026817798614502
1629370467014,0.1538807898759842,0.0343121625483036,-0.0649068281054496,0.1951365172863006
1629370467128,0.1664510667324066,0.0195149574428796,-0.0916469395160675,0.1825710535049438
1629370467210,0.1727840602397918,0.0072798342444002,-0.1024942025542259,0.170579195022583
1629370467303,0.177540436387062,-0.0034699582029134,-0.1027160882949829,0.1618957072496414
1629370467440,0.1851313561201095,-0.0116493981331586,-0.097739078104496,0.1550258994102478
1629370467511,0.1983191967010498,-0.0150676947087049,-0.091549202799797,0.1481995284557342
1629370467617,0.2171554565429687,-0.0138293309137225,-0.0876878499984741,0.1423506438732147
1629370467684,0.238489344716072,-0.0106956819072365,-0.0868172571063041,0.1390928626060485
1629370467748,0.2574255764484405,-0.0078816413879394,-0.0861552879214286,0.1370870769023895
1629370467930,0.2686145603656769,-0.0051845209673047,-0.0846587717533111,0.1332870572805404
1629370468092,0.2693753838539123,-0.0010728931520134,-0.0843765065073967,0.1259261220693588
1629370468181,0.2596254050731659,0.0058954004198312,-0.0867315381765365,0.1170525103807449
1629370468270,0.2424795180559158,0.0146426809951663,-0.088428184390068,0.110974796116352
1629370468351,0.2218793779611587,0.0226509012281894,-0.083343967795372,0.1114713326096534
1629370468414,0.203484907746315,0.0297135971486568,-0.0680152475833892,0.1194634288549423
1629370468486,0.1997025907039642,0.0370347127318382,-0.0437654256820678,0.1221448257565498
1629370468627,0.197517529129982,0.0440187789499759,-0.0102616846561431,0.1162512898445129
1629370468687,0.1940549463033676,0.0495162419974803,0.0338796526193618,0.0980510041117668
1629370468861,0.1887881308794021,0.0536284185945987,0.0870276391506195,0.0714865997433662
1629370468956,0.1844255775213241,0.0602722130715847,0.1432976871728897,0.0478404574096202
1629370469049,0.1822367906570434,0.0752395913004875,0.1954848319292068,0.0343580991029739
1629370469128,0.1778957247734069,0.1002166792750358,0.2403435856103897,0.0239908751100301
1629370469276,0.1644411236047744,0.1304616779088974,0.2776001989841461,0.0047562322579324
1629370469320,0.137981578707695,0.158993661403656,0.3063345849514007,-0.0224073100835084
1629370469472,0.1014106720685958,0.1798653304576873,0.325793445110321,-0.0394419021904468
1629370469516,0.0603784546256065,0.1914070844650268,0.3365368843078613,-0.0254960283637046
1629370469624,0.0603784546256065,0.1972193866968155,0.3417152166366577,-0.0254960283637046
1629370469707,0.0603784546256065,0.2048639804124832,0.3459120094776153,-0.0254960283637046
1629370469824,0.0603784546256065,0.2200496643781662,0.3502653539180755,-0.0254960283637046
1629370469981,0.0603784546256065,0.2416559755802154,0.3520243167877197,-0.0254960283637046
1629370470032,0.0603784546256065,0.2676573991775512,0.3486752212047577,-0.0254960283637046
1629370470174,0.0171703714877367,0.2996900677680969,0.3401513397693634,0.2061842978000641
1629370470225,0.0770288407802581,0.3380215466022491,0.3283492922782898,0.2424867302179336
1629370470313,0.1289246082305908,0.3779440522193908,0.314252108335495,0.254688560962677
1629370470550,0.1589900106191635,0.4131829440593719,0.2977840900421142,0.2454551458358764
1629370470669,0.1671332567930221,0.4395575523376465,0.2805359661579132,0.2227209508419037
1629370470748,0.1607003360986709,0.4561898410320282,0.2644483149051666,0.1952951401472091
1629370470807,0.1455547362565994,0.4651268422603607,0.2503904104232788,0.1702296137809753
1629370470864,0.1266998648643493,0.4706068634986877,0.2394804060459137,0.1532462686300277
1629370470936,0.1100387200713157,0.4770277142524719,0.2339400202035904,0.1479243636131286
1629370471072,0.0985813960433006,0.4846964180469513,0.235391154885292,0.1501636803150177
1629370471167,0.0906850323081016,0.4899550378322601,0.2403602004051208,0.1515188962221145
1629370471306,0.0828632712364196,0.4896091222763061,0.2414096444845199,0.1470089554786682
1629370471352,0.0805250108242034,0.4839581549167633,0.236871913075447,0.1429266780614853
1629370471496,0.0808460190892219,0.4758086502552032,0.2332228720188141,0.1335300058126449
1629370471555,0.0849513635039329,0.4652352035045624,0.2361443191766739,0.116234578192234
1629370471695,0.0865982100367546,0.4488047361373901,0.2417968213558197,0.0882809683680534
1629370471775,0.0773332566022872,0.423602819442749,0.2407193332910537,0.0510855540633201
1629370471850,0.0560838505625724,0.3907819986343384,0.2281045019626617,0.0131350988522171
1629370471989,0.0313744880259037,0.3542329967021942,0.206639751791954,-0.0122356917709112
1629370472050,0.0151347266510128,0.3182607591152191,0.1817587614059448,-0.0149413179606199
1629370472143,0.0128275686874985,0.2860479056835174,0.1563284993171692,0.0043863328173756
1629370472295,0.0238814670592546,0.2583456933498382,0.1310919523239135,0.0352237336337566
1629370472394,0.0431970991194248,0.2312327623367309,0.1077891215682029,0.0638556107878685
1629370472467,0.0622205100953578,0.198805496096611,0.0909021496772766,0.0823730677366256
1629370472607,0.075733333826065,0.1612357646226883,0.0858806371688842,0.0952511876821518
1629370472692,0.0874452292919159,0.1265774816274643,0.0976122543215751,0.1117536053061485
1629370472770,0.1046962216496467,0.1029993221163749,0.1243195608258247,0.133509561419487
1629370472885,0.127774640917778,0.0917960926890373,0.1536338627338409,0.1539953798055648
1629370473019,0.1472444385290146,0.0875849723815918,0.1709972620010376,0.1667838394641876
1629370473088,0.1547681391239166,0.0857836604118347,0.1707886755466461,0.1723117977380752
1629370473190,0.1504751741886139,0.084694005548954,0.1598097831010818,0.1757662296295166
1629370473275,0.1409304738044738,0.0841281935572624,0.1512190997600555,0.1825804114341735
1629370473383,0.1335295289754867,0.0833191648125648,0.1535144448280334,0.195297285914421
1629370473523,0.1334483623504638,0.0828837454319,0.1651763021945953,0.2122508883476257
1629370473625,0.141653299331665,0.0832428410649299,0.1782177984714508,0.2285317331552505
1629370473670,0.1548783183097839,0.0830808952450752,0.1859485954046249,0.2402956783771515
1629370473848,0.169645220041275,0.0813793092966079,0.1856492310762405,0.2480291724205017
1629370473877,0.1859955042600631,0.0845013484358787,0.1783816665410995,0.2539357841014862
1629370473934,0.2053928226232528,0.1063148379325866,0.1666711717844009,0.2566320300102234
1629370474160,0.22616608440876,0.1496481746435165,0.1519937813282013,0.2511756718158722
1629370474224,0.2425824403762817,0.1989087015390396,0.1328860521316528,0.2351216226816177
1629370474282,0.2506952583789825,0.2370225042104721,0.1075810641050338,0.2136460095643997
1629370474407,0.2538517415523529,0.2585228383541107,0.0792166888713836,0.1955221742391586
1629370474506,0.2585090100765228,0.2674726247787475,0.0551679879426956,0.1865969151258468
1629370474586,0.2675395905971527,0.2695488929748535,0.0416389890015125,0.1873431503772735
1629370474709,0.2796201109886169,0.2675915360450744,0.0370487459003925,0.1949323564767837
1629370474823,0.2937259376049042,0.2649330198764801,0.0325982384383678,0.2050932049751281
1629370474926,0.3077493607997894,0.2659910321235657,0.0206359066069126,0.2123528867959976
1629370474968,0.3167695999145508,0.272716075181961,0.0007438800530508,0.2126050591468811
1629370475090,0.31694096326828,0.2849838137626648,-0.0186572540551424,0.2044569700956344
1629370475207,0.3104790151119232,0.3034309148788452,-0.026170015335083,0.1879250854253769
1629370475342,0.3015154600143432,0.3270503580570221,-0.0190277993679046,0.1624522656202316
1629370475505,0.289323478937149,0.3482671976089477,-0.004457764327526,0.1297075152397155
1629370475560,0.2712242901325226,0.3545906543731689,0.0083275865763425,0.096534363925457
1629370475669,0.2494979947805404,0.33979532122612,0.0144862169399857,0.0736726149916648
1629370475762,0.2314970195293426,0.3092531561851501,0.015518189407885,0.0680860877037048
1629370475848,0.2222713232040405,0.2766408622264862,0.0181031338870525,0.0761374235153198
1629370475950,0.218253493309021,0.2535463273525238,0.0304238460958004,0.0884374231100082
1629370476058,0.2143605500459671,0.2435532808303833,0.0564470998942852,0.0984832644462585
1629370476159,0.2095739245414734,0.2443998306989669,0.0912108048796653,0.103779099881649
1629370476192,0.2046803683042526,0.2530763745307922,0.1245385408401489,0.1032660976052284
1629370476325,0.1979991942644119,0.2639311850070953,0.1486111730337143,0.0952249765396118
1629370476412,0.1879770904779434,0.2699298858642578,0.1616259515285492,0.0797278136014938
1629370476554,0.1765756160020828,0.2654152810573578,0.1659117639064788,0.0586192347109317
1629370476635,0.1664171367883682,0.2480459362268448,0.1638931035995483,0.035324964672327
1629370476738,0.1568271666765213,0.2184900045394897,0.1571778655052185,0.0143018197268247
1629370476830,0.1473720669746399,0.1811159551143646,0.1482903212308883,0.0008004233823157
1629370477016,0.1412572860717773,0.1464671641588211,0.1391341388225555,-0.0015479939756914
1629370477085,0.1406406015157699,0.1299483925104141,0.1296259462833404,0.0064988480880856
1629370477171,0.1407850682735443,0.1391278505325317,0.1180381998419761,0.0174611937254667
1629370477324,0.1339727789163589,0.1662346422672271,0.102902315557003,0.0225719735026359
1629370477405,0.1167344227433204,0.19563889503479,0.0838963761925697,0.0187825467437505
1629370477486,0.0932383835315704,0.2152468264102935,0.0611348561942577,0.0119960298761725
1629370477555,0.0703617855906486,0.2215096950531005,0.0329107828438282,0.0088972067460417
1629370477622,0.0510179325938224,0.2183087021112442,-0.0023377807810902,0.0083572268486022
1629370477760,0.032926607877016,0.2120358645915985,-0.0401143878698349,0.006984379608184
1629370477891,0.0147457644343376,0.2064861059188842,-0.0639852881431579,0.0082013588398695
1629370477975,0.0019354205578565,0.2017838358879089,-0.0589677207171916,0.0200629495084285
1629370478186,0.0037178248167037,0.1977489441633224,-0.0292674228549003,0.0440296381711959
1629370478301,0.0241432301700115,0.1947530508041381,0.0073439138941466,0.0739634707570076
1629370478393,0.0561457052826881,0.1914069205522537,0.0396171584725379,0.1038911715149879
1629370478483,0.0881272852420806,0.1853757202625274,0.0679693147540092,0.1302662193775177
1629370478564,0.1121960654854774,0.1754495501518249,0.0982215702533721,0.1491707116365432
1629370478659,0.126728355884552,0.1615040004253387,0.1326366066932678,0.1568438112735748
1629370478744,0.1353771239519119,0.1447185277938842,0.1681019514799118,0.1547167599201202
1629370478843,0.1421809494495391,0.1291343420743942,0.1991152912378311,0.1488586068153381
1629370478899,0.1485364884138107,0.1214863210916519,0.2228942662477493,0.1444835364818573
1629370478980,0.1531462669372558,0.1264834105968475,0.2401889115571975,0.1403353959321975
1629370479067,0.1537721306085586,0.1390039175748825,0.2553431391716003,0.1323151588439941
1629370479151,0.1508633643388748,0.1496125608682632,0.2725981175899505,0.1211041361093521
1629370479292,0.1482153385877609,0.1531296074390411,0.2919853329658508,0.1123530566692352
1629370479385,0.1488548517227172,0.1515132039785385,0.3072250187397003,0.1111871302127838
1629370479459,0.1511336714029312,0.1516063213348388,0.3114979267120361,0.1188607886433601
1629370479574,0.1500249952077865,0.1577914208173751,0.3032829761505127,0.1325918287038803
1629370479714,0.1415140032768249,0.1706413179636001,0.2887216806411743,0.1475529372692108
1629370479807,0.1257092207670211,0.1899397820234298,0.275804728269577,0.1581640541553497
1629370479916,0.1066741198301315,0.2164213955402374,0.2689038515090942,0.1624387204647064
1629370480022,0.0920113176107406,0.247797891497612,0.266313761472702,0.1632731258869171
1629370480112,0.0880748480558395,0.2776602208614349,0.2634904086589813,0.1657439619302749
1629370480235,0.0778780579566955,0.2985875904560089,0.2573546767234802,0.1748278141021728
1629370480329,0.07446900755167,0.3065885305404663,0.2484328746795654,0.1879682540893554
1629370480452,0.0766606330871582,0.3031525909900665,0.2387990057468414,0.2020903974771499
1629370480534,0.0819362476468086,0.2942546904087066,0.2287451475858688,0.2166579514741897
1629370480620,0.0899509042501449,0.2870950102806091,0.2149622589349746,0.233303502202034
1629370480687,0.1018020659685134,0.2847670912742615,0.1945722848176956,0.2532423436641693
1629370480839,0.1176737025380134,0.2875123918056488,0.1685776114463806,0.2744790017604828
1629370480909,0.1364800184965133,0.2949116826057434,0.1430190652608871,0.2915598452091217
1629370481007,0.1563150882720947,0.3048857152462005,0.1288606524467468,0.2961232960224151
1629370481089,0.1748314648866653,0.3054990768432617,0.1257967352867126,0.2828232049942016
1629370481172,0.1911574006080627,0.3068336546421051,0.1319220811128616,0.2527057826519012
1629370481256,0.1911574006080627,0.3033143579959869,0.1379600167274475,0.2527057826519012
1629370481410,0.1911574006080627,0.2885465919971466,0.1186522617936134,0.2527057826519012
1629370481518,0.1911574006080627,0.260494202375412,0.0962424203753471,0.2527057826519012
1629370481608,0.1911574006080627,0.2228399217128753,0.0770085081458091,0.2527057826519012
1629370481701,0.1911574006080627,0.1831903159618377,0.0646983832120895,0.2527057826519012
1629370481853,0.1911574006080627,0.1480103135108947,0.0591695830225944,0.2527057826519012
1629370481952,0.1911574006080627,0.1178994700312614,0.0580599531531333,0.1364994645118713
1629370482055,0.1112779453396797,0.0878978818655014,0.060268934816122,0.1626772880554199
1629370482143,0.1466331034898758,0.0538231432437896,0.0675026625394821,0.167975977063179
1629370482197,0.1708831787109375,0.0174222737550735,0.081481322646141,0.1534460633993148
1629370482325,0.1781660765409469,0.0134242624044418,0.1010309979319572,0.130559429526329
1629370482442,0.1705241054296493,0.0122107425704598,0.1209873333573341,0.1146628186106681
1629370482500,0.1521186977624893,0.0135685577988624,0.1302410960197448,0.1151011809706687
1629370482620,0.128002792596817,0.0048128408379852,0.1308627128601074,0.1309232264757156
1629370482743,0.1039058342576026,-0.0070817512460052,0.1259345263242721,0.1527834087610244
1629370482839,0.0838411971926689,-0.018715213984251,0.1210895925760269,0.1702603846788406
1629370482891,0.0691835805773735,-0.0265038404613733,0.1285523772239685,0.1790439188480377
1629370483092,0.0592169351875782,-0.0295530892908573,0.1293551325798034,0.1821468919515609
1629370483167,0.0535729527473449,-0.0280055589973926,0.123242013156414,0.1959360241889953
1629370483326,0.0487777218222618,-0.0191950052976608,0.1171820387244224,0.2168595939874649
1629370483427,0.0482681095600128,0.0014986930182203,0.1184053421020507,0.2437013536691665
1629370483513,0.0418291464447975,0.033275231719017,0.1275476217269897,0.2688493132591247
1629370483609,0.0212615020573139,0.0683367252349853,0.1393102407455444,0.2860346734523773
1629370483680,-0.0127413664013147,0.098308578133583,0.1484193801879882,0.2955943644046783
1629370483740,-0.0521124601364135,0.1196381971240043,0.1535158157348632,0.3025493621826172
1629370483842,-0.0867556557059288,0.1353829950094223,0.1555669456720352,0.3098790049552917
1629370484014,-0.1103768572211265,0.1500016152858734,0.1555320769548416,0.3160086572170257
1629370484121,-0.1198159605264663,0.164485827088356,0.1535584479570388,0.3177688717842102
1629370484215,-0.1144649162888526,0.1783305406570434,0.1492606997489929,0.3145376443862915
1629370484310,-0.0975547060370445,0.1966504603624344,0.1427776664495468,0.3096503615379333
1629370484416,-0.0758550614118576,0.2249011248350143,0.1367759555578231,0.309203952550888
1629370484542,-0.0548133701086044,0.2599160671234131,0.1356976926326751,0.3171865940093994
1629370484649,-0.0378158874809742,0.290838360786438,0.1401101201772689,0.3315595388412475
1629370484733,-0.0265933200716972,0.3094222545623779,0.1463174521923065,0.3435767590999603
1629370484828,-0.020705172792077,0.3158426880836487,0.1503494083881378,0.3430823683738708
1629370484893,-0.0161819253116846,0.3158251643180847,0.1532620340585708,0.3251064121723175
1629370484981,-0.0061312266625463,0.3155296146869659,0.1581709384918213,0.2953221201896667
1629370485075,0.0149093167856335,0.3209085464477539,0.1655329316854477,0.2683181464672088
1629370485167,0.0459816716611385,0.3346410393714905,0.1737523376941681,0.2566782236099243
1629370485290,0.0818672478199005,0.3551740944385528,0.1840903460979461,0.2603972256183624
1629370485351,0.1166092827916145,0.3787823617458343,0.1984185725450515,0.270044207572937
1629370485512,0.1475581377744674,0.4023618698120117,0.2159890085458755,0.2775111198425293
1629370485559,0.173487439751625,0.4237242341041565,0.2346505373716354,0.2792890965938568
1629370485656,0.1924721151590347,0.4400033950805664,0.253155916929245,0.2739217281341553
1629370485834,0.2016820609569549,0.4466256201267242,0.2699951529502868,0.260911077260971
1629370485871,0.201513260602951,0.4411686062812805,0.2822343111038208,0.2407999187707901
1629370486040,0.1962336748838424,0.4265070557594299,0.2870124578475952,0.2143566608428955
1629370486110,0.1920564621686935,0.4104221165180206,0.285852700471878,0.1818560361862182
1629370486180,0.1945491731166839,0.4013601541519165,0.281845360994339,0.1453034877777099
1629370486271,0.2049354165792465,0.4011055827140808,0.275953471660614,0.1135394424200058
1629370486477,0.2202442288398742,0.4037043750286102,0.2668692767620086,0.0996487736701965
1629370486565,0.2348716706037521,0.4025016129016876,0.2552191019058227,0.1091642305254936
1629370486680,0.2440991997718811,0.3943837881088257,0.2448447495698928,0.1340046375989914
1629370486759,0.2460904717445373,0.3810076117515564,0.2377970665693283,0.1604487746953964
1629370486850,0.2446225881576538,0.3651586771011352,0.2293218672275543,0.1793939918279647
1629370486970,0.2475382536649704,0.3472532629966736,0.2141318917274475,0.1894397884607315
1629370487016,0.2583076655864715,0.3271228671073913,0.1932029128074646,0.1944263875484466
1629370487155,0.2723439931869507,0.3073092401027679,0.1731795072555542,0.2028618156909942
1629370487190,0.2826873362064361,0.2946661114692688,0.1599018275737762,0.2218627631664276
1629370487279,0.2883222699165344,0.2968736588954925,0.154629111289978,0.2514289915561676
1629370487430,0.2926713824272156,0.3149136900901794,0.1550368815660476,0.2832097709178924
1629370487514,0.297005295753479,0.3439598381519317,0.1579464972019195,0.3084975183010101
1629370487611,0.2990326583385467,0.3768046498298645,0.162475124001503,0.3244263827800751
1629370487747,0.294918805360794,0.4074187874794006,0.1709146350622177,0.3331950306892395
1629370487774,0.2840995490550995,0.4321011304855346,0.1856639385223388,0.3373682200908661
1629370487918,0.2809842228889465,0.4492969512939453,0.2052832245826721,0.3527682423591614
1629370488019,0.2760911285877228,0.4591016769409179,0.2250555902719497,0.3624434769153595
1629370488106,0.2723501324653625,0.4628527164459228,0.2402097731828689,0.3629823327064514
1629370488240,0.2712144255638122,0.4620113372802734,0.2484690397977829,0.3552775382995605
1629370488303,0.2688346207141876,0.458718866109848,0.2494692355394363,0.3446846902370453
1629370488449,0.2565453350543976,0.4562516510486603,0.2442362159490585,0.338438868522644
1629370488511,0.2267873138189315,0.4570536911487579,0.2350640296936035,0.3403906226158142
1629370488639,0.1809747666120529,0.4601944386959076,0.2244835048913955,0.3452200889587402
1629370488770,0.1329351216554641,0.4610697627067566,0.2134153693914413,0.3416132032871246
1629370488872,0.0982397049665451,0.4607730209827423,0.2005950957536697,0.3181889951229095
1629370488943,0.0782075151801109,0.4543416202068329,0.1842257976531982,0.2706716060638428
1629370489048,0.0782075151801109,0.4227884411811828,0.1820408850908279,0.2706716060638428
1629370489115,0.0782075151801109,0.3839875757694244,0.1792858392000198,0.2706716060638428
1629370489320,0.0782075151801109,0.3421176671981811,0.1740430742502212,0.2706716060638428
1629370489424,0.0782075151801109,0.3006776571273803,0.1640620231628418,0.2706716060638428
1629370489480,0.0782075151801109,0.2639927864074707,0.1470579355955124,0.2706716060638428
1629370489549,0.0782075151801109,0.2396573275327682,0.1205833032727241,0.2706716060638428
1629370489617,0.0782075151801109,0.23082235455513,0.0833120867609977,0.2706716060638428
1629370489692,0.0782075151801109,0.2269747406244278,0.0386343449354171,0.2706716060638428
1629370489804,0.0782075151801109,0.2250051498413086,-0.0028370267245918,0.2706716060638428
1629370489919,0.0782075151801109,0.21871879696846,-0.0298072714358568,0.2706716060638428
1629370490052,0.0782075151801109,0.1983126699924469,0.0768176317214965,0.2706716060638428
1629370490145,0.0782075151801109,0.1967441588640213,0.1510534584522247,0.2706716060638428
1629370490259,0.0782075151801109,0.1728505790233612,0.1922320127487182,0.2706716060638428
1629370490347,0.0782075151801109,0.1731921285390854,0.2157894819974899,0.2706716060638428
1629370490432,0.0782075151801109,0.1643250286579132,0.2377935945987701,0.2706716060638428
1629370490558,0.0782075151801109,0.1552849560976028,0.2165029644966125,0.325478583574295
1629370490673,0.3866094946861267,0.1509340703487396,0.2056865990161895,0.3946271538734436
1629370490744,0.4146734178066253,0.152919203042984,0.2017317563295364,0.4371823966503143
1629370490823,0.428856611251831,0.1610007286071777,0.2024701833724975,0.453854888677597
1629370490972,0.4257884323596954,0.1719485968351364,0.2082030177116394,0.4526135325431824
1629370491051,0.4126001298427582,0.1775563210248947,0.2174084037542343,0.4417027831077575
1629370491170,0.3998893797397613,0.1775916665792465,0.2253047674894333,0.4259629845619201
1629370491294,0.3929601609706878,0.1769009381532669,0.227970689535141,0.4070913195610046
1629370491386,0.3889607787132263,0.1777661889791488,0.22589673101902,0.3873367309570312
1629370491521,0.3889607787132263,0.1819624602794647,0.2214374095201492,0.3873367309570312
1629370491607,0.3889607787132263,0.1889441460371017,0.2046806067228317,0.3873367309570312
1629370491700,0.3889607787132263,0.1790578812360763,0.1919870674610138,0.3873367309570312
1629370491859,0.3889607787132263,0.1815817356109619,0.1857999563217163,0.4010577201843261
1629370491936,0.3930284678936004,0.1819836944341659,0.1862646341323852,0.4180909991264343
1629370492025,0.3991171419620514,0.1892091184854507,0.1933848559856414,0.4260555505752563
1629370492076,0.4005345404148102,0.2011293768882751,0.2061319798231125,0.4152476787567138
1629370492191,0.3902986943721771,0.2140611410140991,0.2209184616804123,0.3820533156394958
1629370492317,0.3663058280944824,0.224050760269165,0.2327619940042495,0.3310192823410034
1629370492453,0.3356791138648987,0.2303496450185775,0.2389732152223587,0.2728551030158996
1629370492553,0.3158835172653198,0.2352424710988998,0.2394376546144485,0.2170403897762298
1629370492619,0.3158835172653198,0.2412888407707214,0.2350615710020065,0.2170403897762298
1629370492715,0.3158835172653198,0.2328738719224929,0.2276687026023864,0.2170403897762298
1629370492829,0.3158835172653198,0.2406140714883804,0.2195565849542617,0.2170403897762298
1629370492917,0.3158835172653198,0.2565290927886963,0.2130575776100158,0.2170403897762298
1629370493036,0.2502819895744324,0.2696253359317779,0.2103481143712997,0.2170403897762298
1629370493119,0.211795374751091,0.277805745601654,0.2103661149740219,0.1337161511182785
1629370493207,0.1922484040260315,0.2862120568752289,0.20988230407238,0.1729060411453247
1629370493395,0.1929086297750473,0.3030852973461151,0.2060956358909607,0.2026742547750473
1629370493478,0.2045833319425583,0.3247625827789306,0.1969911158084869,0.2239305824041366
1629370493552,0.2045833319425583,0.3400487899780273,0.1822433322668075,0.2497197985649109
1629370493634,0.2045833319425583,0.342940479516983,0.1628646552562713,0.2497197985649109
1629370493740,0.2045833319425583,0.3322235941886902,0.1410864144563675,0.2497197985649109
1629370493846,0.2045833319425583,0.3118230700492859,0.1199700012803077,0.2497197985649109
1629370493898,0.2045833319425583,0.2877719104290008,0.1010602191090583,0.2497197985649109
1629370494039,0.2045833319425583,0.2647923827171325,0.0841643214225769,0.2497197985649109
1629370494116,0.2045833319425583,0.2446032762527465,0.0702143162488937,0.2497197985649109
1629370494241,0.177056223154068,0.2351673394441604,0.0614752545952796,0.2497197985649109
1629370494356,0.150968313217163,0.2356525659561157,0.0584269165992736,0.2642799317836761
1629370494453,0.1392323076725006,0.2302608489990234,0.0575028955936431,0.2904316186904907
1629370494515,0.1535043567419052,0.2216987907886505,0.0537034198641777,0.3192149996757507
1629370494626,0.1535043567419052,0.2103781402111053,0.0455971583724021,0.3411791622638702
1629370494774,0.1535043567419052,0.1921963393688202,0.0354811288416385,0.3411791622638702
1629370494835,0.1535043567419052,0.1591804474592209,0.0338428020477294,0.3411791622638702
1629370494941,0.1535043567419052,0.1034690141677856,0.0303014572709798,0.3411791622638702
1629370495002,0.1535043567419052,0.0217076633125543,0.0313393138349056,0.3411791622638702
1629370495139,0.1535043567419052,-0.0770498514175415,0.0347688347101211,0.3411791622638702
1629370495212,0.1535043567419052,-0.1658920496702194,0.039394274353981,0.3411791622638702
1629370495313,0.1535043567419052,-0.2134396284818649,0.0441156551241874,0.3411791622638702
1629370495442,0.1535043567419052,-0.2134396284818649,0.0468911975622177,0.3411791622638702
1629370495524,0.1535043567419052,-0.2134396284818649,0.044674314558506,0.3411791622638702
1629370495727,0.1535043567419052,-0.2134396284818649,0.037122543901205,0.3411791622638702
1629370495840,0.1535043567419052,-0.2134396284818649,0.0271334592252969,0.3411791622638702
1629370495907,0.1953282654285431,0.1972869485616684,0.0186401959508657,0.2284086197614669
1629370496021,0.1801667511463165,0.2005683928728103,0.0125766610726714,0.1684423685073852
1629370496125,0.1777076423168182,0.2046752572059631,0.0056983004324138,0.1181821376085281
1629370496193,0.1747902035713195,0.2073761522769928,-0.0042072390206158,0.0857405066490173
1629370496301,0.1647682338953018,0.2109165042638778,-0.0134367002174258,0.0670373439788818
1629370496411,0.1647682338953018,0.2167776226997375,-0.0190288461744785,0.0670373439788818
1629370496502,0.1647682338953018,0.2235932350158691,-0.0096196113154292,0.0670373439788818
1629370496587,0.1647682338953018,0.2331066280603408,0.0123291872441768,0.0670373439788818
1629370496704,0.1647682338953018,0.2526573836803436,0.0458501689136028,0.0670373439788818
1629370496763,0.1647682338953018,0.2526573836803436,0.0885260477662086,0.0670373439788818
1629370496853,0.1647682338953018,0.2526573836803436,0.140276700258255,0.0670373439788818
1629370496972,0.1647682338953018,0.2526573836803436,0.2057773172855377,0.0670373439788818
1629370497108,0.1395528316497802,0.2556712627410888,0.2842607796192169,0.0208782795816659
1629370497143,0.1212903261184692,0.261005163192749,0.3005960583686828,-0.0527032874524593
1629370497275,0.1203076615929603,0.2689195573329925,0.3188991546630859,-0.1386266350746154
1629370497459,0.1318939179182052,0.2779022455215454,0.3383899331092834,-0.1926085948944091
1629370497507,0.1318939179182052,0.2863756418228149,0.3597814738750458,-0.1926085948944091
1629370497586,0.1318939179182052,0.2958617508411407,0.3854336440563202,-0.1926085948944091
1629370497686,0.1318939179182052,0.3090352118015289,0.4174163937568664,-0.1926085948944091
1629370497842,0.1318939179182052,0.2830285727977752,0.4556166529655456,-0.1926085948944091
1629370498007,0.1318939179182052,0.2657769620418548,0.4984499812126159,-0.1926085948944091
1629370498084,0.1318939179182052,0.2521681189537048,0.5439648628234863,-0.1926085948944091
1629370498218,0.1318939179182052,0.2274997979402542,0.5891250967979431,-0.1926085948944091
1629370498317,0.1318939179182052,0.1580693572759628,0.5602757930755615,-0.1926085948944091
1629370498408,0.1318939179182052,0.1484381705522537,0.5153887271881104,-0.1926085948944091
1629370498463,0.1318939179182052,0.1389522701501846,0.4523112177848816,-0.1926085948944091
1629370498585,0.1318939179182052,0.132505714893341,0.3487204015254974,-0.1926085948944091
1629370498663,0.1318939179182052,0.127013087272644,0.1430047154426574,-0.1926085948944091
1629370498752,0.1318939179182052,0.127013087272644,0.1456402838230133,-0.1926085948944091
1629370498845,0.1318939179182052,0.127013087272644,0.1343573629856109,-0.1926085948944091
1629370498915,0.1318939179182052,0.127013087272644,0.1121644154191017,-0.1926085948944091
1629370498981,0.1318939179182052,0.127013087272644,0.0845907032489776,-0.1926085948944091
1629370499070,0.1318939179182052,0.127013087272644,0.0610020235180854,-0.1926085948944091
1629370499174,0.1318939179182052,0.127013087272644,0.050466313958168,-0.1926085948944091
1629370499254,0.1318939179182052,0.1356061995029449,0.0535031706094741,-0.1926085948944091
1629370499472,0.1318939179182052,0.1317821741104126,0.060679517686367,-0.1926085948944091
1629370499546,0.1318939179182052,0.1171681657433509,0.0616114996373653,-0.1926085948944091
1629370499631,0.1318939179182052,0.09833325445652,0.0531573481857776,-0.1926085948944091
1629370499732,0.1318939179182052,0.0847828015685081,0.0410410650074481,-0.1926085948944091
1629370499827,0.1318939179182052,0.0847828015685081,0.022988636046648,-0.1926085948944091
1629370499941,0.1318939179182052,0.0847828015685081,-0.0001619941467652,-0.1926085948944091
1629370500015,0.1318939179182052,0.0847828015685081,-0.0251616723835468,-0.1926085948944091
1629370500120,0.1318939179182052,0.0847828015685081,-0.0463250912725925,-0.1926085948944091
1629370500233,0.1318939179182052,0.0847828015685081,-0.0573829561471939,-0.1926085948944091
1629370500383,0.1318939179182052,0.0847828015685081,-0.0548764504492282,-0.1926085948944091
1629370500462,0.1318939179182052,0.0847828015685081,-0.0439668111503124,-0.1926085948944091
1629370500580,0.1318939179182052,0.0847828015685081,-0.0321515128016471,-0.1926085948944091
1629370500659,0.1318939179182052,0.0847828015685081,-0.0249312333762645,-0.1926085948944091
1629370500835,0.1318939179182052,0.0847828015685081,-0.0239950753748416,-0.1926085948944091
1629370500980,0.1318939179182052,0.0847828015685081,-0.0278909802436828,-0.1926085948944091
1629370501078,0.1318939179182052,0.0847828015685081,-0.0323651693761348,0.3319897651672363
1629370501174,0.3582521378993988,0.1012373566627502,-0.0324072539806366,0.3348417580127716
1629370501241,0.3582521378993988,0.1357825845479965,-0.0261859614402055,0.3348417580127716
1629370501316,0.3582521378993988,0.1697799116373062,-0.0152295054867863,0.3348417580127716
1629370501372,0.3582521378993988,0.1697799116373062,0.0003881893935613,0.3348417580127716
1629370501443,0.3582521378993988,0.1697799116373062,0.0110295796766877,0.3348417580127716
1629370501527,0.3582521378993988,0.1697799116373062,0.0192989651113748,0.342064619064331
1629370501634,0.3582521378993988,0.1697799116373062,0.0236314833164215,0.342064619064331
1629370501752,0.3582521378993988,0.1697799116373062,0.0219133142381906,0.342064619064331
1629370501829,0.3582521378993988,0.1697799116373062,0.0147644486278295,0.342064619064331
1629370501926,0.3582521378993988,0.1697799116373062,0.0090727591887116,0.342064619064331
1629370502088,0.3582521378993988,0.1697799116373062,0.0127455843612551,0.342064619064331
1629370502156,0.3582521378993988,0.1697799116373062,0.0260104034096002,0.342064619064331
1629370502235,0.3582521378993988,0.1820868551731109,0.038360446691513,0.342064619064331
1629370502406,0.3582521378993988,0.2065196931362152,0.0384636931121349,0.342064619064331
1629370502538,0.3582521378993988,0.2065196931362152,0.0243939757347106,0.342064619064331
1629370502640,0.3582521378993988,0.2065196931362152,0.0243939757347106,0.342064619064331
1629370502721,0.3582521378993988,0.2065196931362152,0.0243939757347106,0.342064619064331
1629370502786,0.3582521378993988,0.2065196931362152,0.0243939757347106,0.342064619064331
1629370502850,0.3582521378993988,0.2065196931362152,0.0243939757347106,0.342064619064331
1629370503024,0.3582521378993988,0.2065196931362152,0.0243939757347106,0.342064619064331
1629370503131,0.3582521378993988,0.2065196931362152,0.0243939757347106,0.342064619064331
1629370503218,0.3582521378993988,0.2065196931362152,0.0243939757347106,0.342064619064331
1629370503326,0.3582521378993988,0.2065196931362152,0.0243939757347106,0.342064619064331
1629370503479,0.3582521378993988,0.2065196931362152,0.0243939757347106,0.342064619064331
1629370503535,0.3582521378993988,0.2065196931362152,0.0243939757347106,0.342064619064331
1629370503617,0.3582521378993988,0.2065196931362152,0.0243939757347106,0.342064619064331
1629370503686,0.3582521378993988,0.2065196931362152,0.0243939757347106,0.342064619064331
1629370503745,0.3582521378993988,0.2065196931362152,0.0243939757347106,0.342064619064331
1629370503817,0.3582521378993988,0.2065196931362152,0.0243939757347106,0.342064619064331
1629370503942,0.3582521378993988,0.2065196931362152,0.0243939757347106,0.342064619064331
1629370504036,0.3582521378993988,0.2065196931362152,0.0243939757347106,0.342064619064331
1629370504165,0.3582521378993988,0.2065196931362152,0.0243939757347106,0.342064619064331
1629370504221,0.3582521378993988,0.2065196931362152,0.0243939757347106,0.342064619064331
1629370504317,0.3582521378993988,0.2065196931362152,0.0243939757347106,0.342064619064331
1629370504413,0.3582521378993988,0.2065196931362152,0.0243939757347106,0.342064619064331
1629370504588,0.3582521378993988,0.2065196931362152,0.0243939757347106,0.342064619064331
1629370504712,0.3582521378993988,0.2065196931362152,0.0243939757347106,0.342064619064331
1629370504771,0.3582521378993988,0.2065196931362152,0.402015209197998,0.342064619064331
1629370504880,0.3582521378993988,0.424276739358902,0.4161957502365112,0.342064619064331
1629370504963,0.3582521378993988,0.3956896960735321,0.4408566355705261,0.342064619064331
1629370505045,0.3582521378993988,0.3654135763645172,0.4594217836856842,0.342064619064331
1629370505254,0.3582521378993988,0.3374682068824768,0.4594217836856842,0.342064619064331
1629370505352,0.3582521378993988,0.3164180815219879,0.4601248502731323,0.342064619064331
1629370505448,0.3582521378993988,0.30428546667099,0.4601248502731323,0.342064619064331
1629370505512,0.3582521378993988,0.2995044291019439,0.476243644952774,0.342064619064331
1629370505708,0.3582521378993988,0.2973443865776062,0.4954146146774292,0.342064619064331
1629370505789,0.3582521378993988,0.2933236062526703,0.5128757953643799,0.8106350302696228
1629370505896,0.3582521378993988,0.2861444354057312,0.528825044631958,0.8322846293449402
1629370505952,0.3582521378993988,0.277281105518341,0.5443463325500488,0.8488936424255371
1629370506019,0.3582521378993988,0.2684581875801086,0.564007580280304,0.8597353100776672
1629370506103,0.3582521378993988,0.2378195226192474,0.5786869525909424,0.8642416596412659
1629370506210,0.3582521378993988,0.2099093645811081,0.5865403413772583,0.8659026622772217
1629370506292,0.3582521378993988,0.1865618079900741,0.5873721241950989,0.8738353252410889
1629370506398,0.3582521378993988,0.1687252521514892,0.5816940069198608,0.8870998024940491
1629370506499,0.3582521378993988,0.1591976583003997,0.5844860076904297,0.9014304876327516
1629370506634,0.3582521378993988,0.1598070412874221,0.5869253873825073,0.9014304876327516
1629370506718,0.3582521378993988,0.1627407371997833,0.5869253873825073,0.9014304876327516
1629370506872,0.3582521378993988,0.1650958657264709,0.5974268317222595,0.9014304876327516
1629370506884,0.3582521378993988,0.1627173721790313,0.5974268317222595,0.9014304876327516
1629370507027,0.3582521378993988,0.1533911228179931,0.598534345626831,0.9014304876327516
1629370507081,0.3582521378993988,0.1391071528196334,0.5933383107185364,0.9014304876327516
1629370507233,0.3582521378993988,0.1253618150949478,0.5834034085273743,0.9055527448654176
1629370507327,0.3582521378993988,0.1166757270693779,0.5662996172904968,0.9045666456222534
1629370507417,0.3582521378993988,0.1581840366125106,0.5346671938896179,0.9045666456222534
1629370507480,0.3582521378993988,0.2041831612586975,0.4428038001060486,0.9045666456222534
1629370507685,0.3582521378993988,0.2382772415876388,0.3507002294063568,0.9045666456222534
1629370507754,0.3582521378993988,0.2570861279964447,0.2778758406639099,0.9045666456222534
1629370507862,0.3582521378993988,0.2639109194278717,0.2243069261312484,0.9045666456222534
1629370507923,0.3582521378993988,0.2622582614421844,0.1753112375736236,0.8432344198226929
1629370508045,0.3582521378993988,0.2533660531044006,0.1725343316793441,0.8743537664413452
1629370508118,0.3582521378993988,0.237566739320755,0.1724587082862854,0.909250795841217
1629370508225,0.3582521378993988,0.2198829054832458,0.1745665520429611,0.933022141456604
1629370508343,0.3582521378993988,0.2112940102815628,0.1787685751914978,0.9418830871582032
1629370508482,0.5416626334190369,0.2100687325000763,0.1808412373065948,0.9394310712814332
1629370508538,0.5106790661811829,0.2120644599199295,0.176419511437416,0.929912567138672
1629370508634,0.4854802191257477,0.2132724672555923,0.1657273918390274,0.9150931239128112
1629370508717,0.4734155535697937,0.2115681618452072,0.1560288667678833,0.8963639736175537
1629370508947,0.4751679301261902,0.2090156525373459,0.155508890748024,0.8750625252723694
1629370508997,0.4839290976524353,0.1944971680641174,0.1651621162891388,0.8525247573852539
1629370509168,0.4928452670574188,0.1810153871774673,0.1769574582576751,0.829607367515564
1629370509219,0.4995901882648468,0.1738880574703216,0.1927018761634826,0.804469108581543
1629370509293,0.5056764483451843,0.1715493500232696,0.2095593363046646,0.7783501744270325
1629370509381,0.5127421617507935,0.170617401599884,0.226422905921936,0.7530932426452637
1629370509526,0.5219646692276001,0.170564129948616,0.2412769943475723,0.7227715253829956
1629370509580,0.5329443216323853,0.1718100160360336,0.2514073848724365,0.6798474192619324
1629370509677,0.5399651527404785,0.1731626391410827,0.2542473673820495,0.6230868697166443
1629370509787,0.5513486862182617,0.171537771821022,0.2488266676664352,0.5623623728752136
1629370509896,0.567090630531311,0.1645661443471908,0.2371085733175277,0.5148381590843201
1629370509988,0.5862506031990051,0.1536001712083816,0.2248342335224151,0.4946106970310211
1629370510139,0.6049852967262268,0.1444694995880127,0.2168144434690475,0.5057601928710938
1629370510292,0.6194560527801514,0.1428598910570144,0.2121780812740326,0.5423701405525208
1629370510328,0.6286982297897339,0.1481329947710037,0.2051265239715576,0.5898682475090027
1629370510472,0.6335817575454712,0.1520897448062896,0.1897822022438049,0.6347222924232483
1629370510532,0.6354468464851379,0.1462282389402389,0.1651615798473358,0.6694333553314209
1629370510603,0.6362876892089844,0.1301912069320678,0.1334948688745498,0.6936243176460266
1629370510691,0.6383974552154541,0.1123004630208015,0.0971148461103439,0.7114598155021667
1629370510734,0.6430427432060242,0.1034758985042572,0.0570192225277423,0.7343559265136719
1629370510874,0.6468923687934875,0.100949689745903,0.0130527252331376,0.7581076622009277
1629370510989,0.648521900177002,0.1034398525953292,-0.0342286303639411,0.7823528051376343
1629370511047,0.6471702456474304,0.108303926885128,-0.0801981166005134,0.8073928356170654
1629370511108,0.6425474286079407,0.1148180440068245,-0.1179450303316116,0.8334208130836487
1629370511283,0.6345219612121582,0.1240072548389434,-0.1366198062896728,0.8590092658996582
1629370511410,0.6218357086181641,0.1365476548671722,-0.1452739387750625,0.8804024457931519
1629370511492,0.6053151488304138,0.1498030126094818,-0.152627483010292,0.8926658034324646
1629370511552,0.5906551480293274,0.1561135202646255,-0.1630337983369827,0.8906163573265076
1629370511656,0.5840261578559875,0.14699487388134,-0.170277327299118,0.8697468042373657
1629370511886,0.584655225276947,0.1217370480298996,-0.1684751957654953,0.8283599019050598
1629370511979,0.584655225276947,0.0916677713394165,-0.1601335853338241,0.8283599019050598
1629370512061,0.584655225276947,0.0916677713394165,-0.1495423167943954,0.8283599019050598
1629370512122,0.584655225276947,0.0916677713394165,-0.1603622436523437,0.8283599019050598
1629370512179,0.584655225276947,0.0916677713394165,-0.1799601912498474,0.8283599019050598
1629370512273,0.584655225276947,0.0916677713394165,-0.1900696903467178,0.8283599019050598
1629370512388,0.584655225276947,0.0916677713394165,-0.1789557188749313,0.8283599019050598
1629370512507,0.584655225276947,0.0916677713394165,-0.1482891589403152,0.8283599019050598
1629370512553,0.584655225276947,0.0916677713394165,-0.1071365997195243,0.8283599019050598
1629370512680,0.584655225276947,0.0916677713394165,-0.0561012364923954,0.8283599019050598
1629370512853,0.584655225276947,0.0916677713394165,-0.0063726445659995,0.8283599019050598
1629370512980,0.584655225276947,0.0916677713394165,0.0603930167853832,0.8283599019050598
1629370513114,0.584655225276947,0.0916677713394165,0.1325851678848266,0.8283599019050598
1629370513177,0.584655225276947,0.0916677713394165,0.1942708641290664,0.8283599019050598
1629370513241,0.584655225276947,0.0916677713394165,0.1942708641290664,0.8283599019050598
1629370513291,0.584655225276947,0.0916677713394165,0.1942708641290664,0.8283599019050598
1629370513425,0.584655225276947,0.0916677713394165,0.1942708641290664,0.8283599019050598
1629370513535,0.584655225276947,0.0916677713394165,0.2138746827840805,0.8283599019050598
1629370513649,0.584655225276947,0.0916677713394165,0.24076808989048,0.8283599019050598
1629370513775,0.584655225276947,0.0916677713394165,0.2733301520347595,0.8283599019050598
1629370513921,0.584655225276947,0.0916677713394165,0.3083708584308624,0.8283599019050598
1629370513996,0.584655225276947,0.0916677713394165,0.3435238301753998,0.8283599019050598
1629370514140,0.584655225276947,0.0916677713394165,0.3793533444404602,0.8283599019050598
1629370514213,0.584655225276947,0.0916677713394165,0.419685035943985,0.8283599019050598
1629370514248,0.584655225276947,0.0916677713394165,0.4675686359405517,0.8283599019050598
1629370514372,0.584655225276947,0.0916677713394165,0.4461188912391662,0.8283599019050598
1629370514440,0.584655225276947,0.0916677713394165,0.4003490209579468,0.8283599019050598
1629370514521,0.584655225276947,0.0916677713394165,0.3068014085292816,0.8283599019050598
1629370514600,0.584655225276947,0.0916677713394165,0.1400794386863708,0.8283599019050598
1629370514792,0.584655225276947,0.0916677713394165,0.1195968091487884,0.8283599019050598
1629370514822,0.584655225276947,0.0916677713394165,0.10720956325531,0.8283599019050598
1629370514941,0.584655225276947,0.0916677713394165,0.1073088273406028,0.8283599019050598
1629370515057,0.584655225276947,0.0916677713394165,0.1098072975873947,0.8283599019050598
1629370515149,0.584655225276947,0.0916677713394165,0.1042366027832031,0.8283599019050598
1629370515291,0.584655225276947,0.0916677713394165,0.0902874842286109,0.8283599019050598
1629370515343,0.584655225276947,0.0916677713394165,0.0755774155259132,0.8283599019050598
1629370515410,0.584655225276947,0.0916677713394165,0.0657653585076332,0.8283599019050598
1629370515557,0.584655225276947,0.0916677713394165,0.0593966208398342,0.8283599019050598
1629370515657,0.584655225276947,0.0916677713394165,0.0548391602933406,0.8283599019050598
1629370515706,0.584655225276947,0.0916677713394165,0.0550668388605117,0.8283599019050598
1629370515842,0.584655225276947,0.0916677713394165,0.0606100857257843,0.8283599019050598
1629370515924,0.584655225276947,0.0916677713394165,0.0681756138801574,0.8283599019050598
1629370516061,0.584655225276947,0.0916677713394165,0.0769713073968887,0.8283599019050598
1629370516233,0.584655225276947,0.0916677713394165,0.085988774895668,0.8283599019050598
1629370516295,0.584655225276947,0.0916677713394165,0.0923475325107574,0.8283599019050598
1629370516382,0.584655225276947,0.0916677713394165,0.0914455130696296,0.8283599019050598
1629370516436,0.584655225276947,0.0038073821924626,0.0817078500986099,0.8283599019050598
1629370516525,0.584655225276947,0.0487020500004291,0.0696314573287963,0.8283599019050598
1629370516623,0.584655225276947,0.0875004231929779,0.0655239894986152,0.8283599019050598
1629370516804,0.584655225276947,0.1104936599731445,0.0722270309925079,0.8283599019050598
1629370516892,0.584655225276947,0.1168235391378402,0.0826310962438583,0.8283599019050598
1629370516954,0.584655225276947,0.1140673607587814,0.0880924388766288,0.8283599019050598
1629370517047,0.584655225276947,0.1100277230143547,0.0876036211848259,0.8283599019050598
1629370517126,0.584655225276947,0.1056550741195678,0.0820036605000495,0.8283599019050598
1629370517238,0.584655225276947,0.1007626578211784,0.0685462728142738,0.8283599019050598
1629370517359,0.584655225276947,0.1012882962822914,0.0428122282028198,0.8283599019050598
1629370517441,0.584655225276947,0.1167076081037521,0.0041175410151481,0.8283599019050598
1629370517558,0.584655225276947,0.1463159918785095,-0.0411804728209972,0.8283599019050598
1629370517693,0.584655225276947,0.1934191286563873,-0.0835763439536094,0.8283599019050598
1629370517765,0.584655225276947,0.2301642298698425,-0.1138456389307975,0.8283599019050598
1629370517858,-0.0018763245316222,0.251939058303833,-0.1277164369821548,0.0110507346689701
1629370518092,0.011858963407576,0.258989542722702,-0.129019558429718,-0.0152893867343664
1629370518228,0.0477440990507602,0.2530705332756042,-0.1289558112621307,-0.0408685952425003
1629370518315,0.08842334151268,0.2386461049318313,-0.1384651809930801,-0.0576518252491951
1629370518395,0.1250506490468979,0.2242555916309356,-0.1599742472171783,-0.0604042708873748
1629370518471,0.1567879617214203,0.2177310436964035,-0.1629087924957275,-0.0466998107731342
1629370518542,0.1845120042562484,0.2199365198612213,-0.1813756376504898,-0.0193567909300327
1629370518613,0.2076102644205093,0.2259683012962341,-0.1921076029539108,0.0129872430115938
1629370518676,0.2235983908176422,0.2317342162132263,-0.1960766017436981,0.0409040451049804
1629370518811,0.2295890003442764,0.2353575825691223,-0.1930539011955261,0.0605753660202026
1629370518841,0.2257943302392959,0.234109491109848,-0.180434450507164,0.0746230855584144
1629370519023,0.2157606780529022,0.2214565128087997,-0.1592287719249725,0.0868467092514038
1629370519069,0.2240386009216308,0.1924383044242859,-0.1367475390434265,0.0894473195075988
1629370519225,0.2366791665554046,0.1491580605506897,-0.1220266371965408,0.093197263777256
1629370519293,0.254290372133255,0.1005952060222625,-0.1188062950968742,0.0996659100055694
1629370519348,0.2739316523075104,0.0579119734466075,-0.1202791184186935,0.1114287227392196
1629370519457,0.2903368473052978,0.0415066666901111,-0.1236544325947761,0.1301243007183075
1629370519591,0.299936980009079,0.0387895256280899,-0.127767726778984,0.1549780368804931
1629370519676,0.3029614090919494,0.0461769364774227,-0.1279510855674743,0.182939663529396
1629370519800,0.3004890084266662,0.0556703954935073,-0.1228983700275421,0.2102535814046859
1629370519892,0.2914757430553436,0.0583522357046604,-0.1153820306062698,0.2320674061775207
1629370519988,0.2722272872924804,0.0491248182952404,-0.1084838062524795,0.2433579117059707
1629370520171,0.2374163269996643,0.0288637746125459,-0.1018391475081443,0.2422066777944564
1629370520220,0.2374163269996643,0.0040807961486279,-0.0925957038998603,0.2422066777944564
1629370520295,0.2374163269996643,-0.0186470113694667,-0.0825270041823387,0.2422066777944564
1629370520469,0.2374163269996643,-0.0418328344821929,-0.0113703357055783,0.2422066777944564
1629370520616,0.2374163269996643,-0.0756455361843109,0.0365712791681289,0.2422066777944564
1629370520691,0.2374163269996643,-0.0615009069442749,0.0839733704924583,0.2422066777944564
1629370520760,0.2374163269996643,0.0429711453616619,0.1391919106245041,0.2422066777944564
1629370520805,0.2374163269996643,0.1878511160612106,0.1834323704242706,0.2422066777944564
1629370520898,0.2374163269996643,0.3070800304412842,0.2398467361927032,0.2422066777944564
1629370521044,0.2374163269996643,0.3070800304412842,0.2398467361927032,0.2422066777944564
1629370521105,0.2374163269996643,0.3070800304412842,0.2398467361927032,0.2422066777944564
1629370521294,0.2374163269996643,0.2669257819652557,0.2398467361927032,0.2422066777944564
1629370521323,0.2374163269996643,0.2334549874067306,0.2398467361927032,0.2422066777944564
1629370521436,0.2374163269996643,0.2113683074712753,0.2398467361927032,0.2422066777944564
1629370521564,0.2374163269996643,0.1981711983680725,0.2398467361927032,0.2422066777944564
1629370521631,0.2374163269996643,0.1904710084199905,0.248431846499443,0.2422066777944564
1629370521752,0.2374163269996643,0.187047854065895,0.2790210247039795,0.2422066777944564
1629370521843,0.2374163269996643,0.1880359053611755,0.3203166425228119,0.2422066777944564
1629370521957,0.1757872402667999,0.1907920092344284,0.3742654621601105,0.2422066777944564
1629370522020,0.1739235520362854,0.2060091346502304,0.4211900234222412,0.2422066777944564
1629370522168,0.1649893224239349,0.2066921144723892,0.4481087327003479,0.2422066777944564
1629370522284,0.1498594433069229,0.1853538453578949,0.4543996751308441,0.2422066777944564
1629370522391,0.1311220824718475,0.1465929895639419,0.4287371635437011,0.2422066777944564
1629370522437,0.1118056327104568,0.1084818989038467,0.4052730500698089,0.2422066777944564
1629370522559,0.0949598252773284,0.120045505464077,0.3867927491664886,0.2422066777944564
1629370522622,0.0815998986363411,0.132279023528099,0.3700353503227234,-0.0669438391923904
1629370522724,0.07131377607584,0.1526029556989669,0.3531299829483032,-0.0333809591829776
1629370522999,0.0647466406226158,0.171582743525505,0.3376191854476928,0.0006536012515425
1629370523074,0.0618532449007034,0.1827802658081054,0.3256442844867706,0.0212700460106134
1629370523162,0.0606768913567066,0.1867949813604354,0.3167392015457153,0.0250937920063734
1629370523227,0.0487149953842163,0.1873849779367447,0.3104599416255951,0.018991619348526
1629370523297,0.0345036126673221,0.1870628893375396,0.2929143905639648,0.0145503832027316
1629370523356,0.0190399903804063,0.185226559638977,0.2627626657485962,0.0174179468303918
1629370523508,0.0135846296325325,0.1824517399072647,0.2246141880750656,0.0254061631858348
1629370523607,0.0303967744112014,0.1821570396423339,0.1888923794031143,0.0344976410269737
1629370523656,0.0673771649599075,0.1886118501424789,0.1664762943983078,0.0422615818679332
1629370523758,0.1084640175104141,0.2009345293045044,0.1594139486551284,0.0483962744474411
1629370523856,0.1168084144592285,0.2135494649410247,0.1589382290840149,0.0542430281639099
1629370523946,0.1290334910154342,0.2214993983507156,0.1550303846597671,0.0646241828799247
1629370524159,0.1434335261583328,0.2259787023067474,0.1461305171251297,0.0759938657283783
1629370524206,0.1590847969055175,0.2307105809450149,0.1398433446884155,0.0837516635656356
1629370524289,0.1760507076978683,0.2265521138906479,0.1429229378700256,0.0841527208685875
1629370524378,0.1934356242418289,0.2234414368867874,0.14655202627182,0.0775376930832862
1629370524447,0.2107596397399902,0.2247036248445511,0.1478375792503357,0.0708168372511863
1629370524577,0.2301172912120819,0.2311688810586929,0.1461161226034164,0.0735812559723854
1629370524755,0.2576347589492798,0.2405193448066711,0.1443035155534744,0.0890770182013511
1629370524843,0.2988356947898865,0.2247034609317779,0.1461803466081619,0.1090742051601409
1629370524960,0.3525503575801849,0.2142815738916397,0.1449852436780929,0.1236970350146293
1629370525054,0.3525503575801849,0.2148826867341995,0.1334470808506012,0.1236970350146293
1629370525123,0.3525503575801849,0.2222395837306976,0.1106952875852584,0.1236970350146293
1629370525260,0.3525503575801849,0.2250480055809021,0.0832752287387847,0.1236970350146293
1629370525376,0.3525503575801849,0.2146403640508651,0.0638089627027511,0.1236970350146293
1629370525456,0.3525503575801849,0.1931990087032318,0.0601691715419292,0.1236970350146293
1629370525550,0.3525503575801849,0.1701586544513702,0.0677512288093566,0.1236970350146293
1629370525616,0.3525503575801849,0.1494223624467849,0.0767253711819648,0.1236970350146293
1629370525683,0.3525503575801849,0.1256671547889709,0.0801519751548767,0.1236970350146293
1629370525793,0.3525503575801849,0.1293617039918899,0.0753789767622947,0.1236970350146293
1629370525907,0.3525503575801849,0.1411280184984207,0.0821295902132988,0.1236970350146293
1629370526042,0.3525503575801849,0.1658026576042175,0.0883594006299972,0.1236970350146293
1629370526093,0.3525503575801849,0.1979404836893081,0.0924059897661209,0.1236970350146293
1629370526208,0.3525503575801849,0.2263199836015701,0.095898188650608,0.1236970350146293
1629370526301,0.3525503575801849,0.2594950199127197,0.1000487580895423,0.1236970350146293
1629370526434,0.3525503575801849,0.2764360606670379,0.1070111840963363,0.1236970350146293
1629370526528,0.3525503575801849,0.2795960605144501,0.1212146207690239,0.1236970350146293
1629370526575,0.3525503575801849,0.2775186598300934,0.1371844261884689,0.1236970350146293
1629370526723,0.3525503575801849,0.27857705950737,0.1483574509620666,0.1236970350146293
1629370526784,0.3525503575801849,0.285138726234436,0.1504439115524292,0.1236970350146293
1629370526939,0.3525503575801849,0.2924902141094208,0.1450586467981338,0.1236970350146293
1629370527002,0.3525503575801849,0.2959896922111511,0.1391216516494751,0.1236970350146293
1629370527143,0.3525503575801849,0.2957894802093506,0.1375080645084381,0.1236970350146293
1629370527224,0.1896128803491592,0.295003741979599,0.1389157027006149,0.0434373132884502
1629370527324,0.1736510992050171,0.293694257736206,0.1380850672721862,0.0913724079728126
1629370527441,0.152893990278244,0.2875207960605621,0.1318358182907104,0.1353703439235687
1629370527489,0.1318598240613937,0.2736531496047973,0.1218234896659851,0.1661717146635055
1629370527583,0.1318598240613937,0.2560001015663147,0.1123334690928459,0.1661717146635055
1629370527751,0.1318598240613937,0.2439617216587066,0.106697991490364,0.1661717146635055
1629370527851,0.1318598240613937,0.2479022145271301,0.1073636263608932,0.1661717146635055
1629370527940,0.1318598240613937,0.2709420919418335,0.1151258796453476,0.1661717146635055
1629370528129,0.1318598240613937,0.3076193630695343,0.129237413406372,0.1661717146635055
1629370528185,0.1318598240613937,0.3509095311164856,0.1508621722459793,0.1661717146635055
1629370528275,0.1318598240613937,0.3995064496994018,0.1825499087572097,0.1661717146635055
1629370528369,0.1318598240613937,0.4525533020496368,0.1867359280586242,0.1661717146635055
1629370528475,0.1136177331209182,0.5026872754096985,0.194890484213829,0.1880093067884445
1629370528553,0.097363457083702,0.5396010279655457,0.2046880573034286,0.2184692025184631
1629370528619,0.0734055712819099,0.5587800145149231,0.2183912396430969,0.2553177773952484
1629370528742,0.0734055712819099,0.5644370317459106,0.2148272395133972,0.2553177773952484
1629370528823,0.0734055712819099,0.564345121383667,0.2056084722280502,0.2553177773952484
1629370528958,0.0734055712819099,0.5634082555770874,0.2006114572286605,0.2553177773952484
1629370529040,0.0734055712819099,0.5632121562957764,0.2058679908514022,0.2553177773952484
1629370529174,0.0734055712819099,0.5635372996330261,0.2207095324993133,0.2553177773952484
1629370529226,0.1694415360689163,0.5633167624473572,0.238419622182846,-0.0036622676998376
1629370529410,0.157153308391571,0.5596233606338501,0.2506163418292999,-0.0059352605603635
1629370529448,0.1523674875497818,0.5495332479476929,0.2508834600448608,0.0037439705338329
1629370529612,0.1497421264648437,0.5310072302818298,0.2359085232019424,0.0187614653259515
1629370529659,0.1420812755823135,0.5023292899131775,0.2027682065963745,0.0347603969275951
1629370529757,0.129891961812973,0.4596371650695801,0.1482955068349838,0.052954938262701
1629370529846,0.129891961812973,0.3992210030555725,0.1362693756818771,0.052954938262701
1629370529945,0.129891961812973,0.3260537981986999,0.133633553981781,0.052954938262701
1629370530039,0.129891961812973,0.2585487365722656,0.133633553981781,0.052954938262701
1629370530159,0.129891961812973,0.2255705296993255,0.1218859255313873,0.052954938262701
1629370530234,0.129891961812973,0.217821791768074,0.127439796924591,0.052954938262701
1629370530416,0.129891961812973,0.2241515964269638,0.1421337276697158,0.052954938262701
1629370530506,0.1199819445610046,0.2339260131120681,0.1577409356832504,0.0550127141177654
1629370530622,0.1081911772489547,0.2393809854984283,0.1660993546247482,0.0602934993803501
1629370530685,0.099107950925827,0.2331110686063766,0.1605133861303329,0.072537250816822
1629370530790,0.0954354777932167,0.2103903293609619,0.1380985975265503,0.0934705138206482
1629370530849,0.0932171791791915,0.1731356084346771,0.1010902896523475,0.1168546751141548
1629370530995,0.0932171791791915,0.1283134520053863,0.0563303753733634,0.1168546751141548
1629370531041,0.0932171791791915,0.0837267190217971,0.0168858878314495,0.1168546751141548
1629370531202,0.0932171791791915,0.0697589218616485,0.0485667772591114,0.1168546751141548
1629370531293,0.0932171791791915,0.0970659255981445,0.0904871448874473,0.1168546751141548
1629370531387,0.0932171791791915,0.156245157122612,0.1217243671417236,0.1168546751141548
1629370531458,0.0932171791791915,0.2229243516921997,0.1334121823310852,0.1168546751141548
1629370531618,0.0932171791791915,0.2761746048927307,0.1483820527791977,0.1168546751141548
1629370531665,0.0932171791791915,0.2782725095748901,0.1601343601942062,0.1168546751141548
1629370531822,0.0932171791791915,0.2699630558490753,0.1610424816608429,0.1168546751141548
1629370531902,0.0932171791791915,0.254769891500473,0.1524344235658645,0.1168546751141548
1629370532026,0.0932171791791915,0.2342930734157562,0.1410918533802032,0.1168546751141548
1629370532126,0.0932171791791915,0.2119422405958175,0.1348621994256973,0.1168546751141548
1629370532160,0.0932171791791915,0.1942666321992874,0.1375931650400161,0.1168546751141548
1629370532343,0.0932171791791915,0.186976209282875,0.1484667062759399,0.1168546751141548
1629370532414,0.0932171791791915,0.1913606226444244,0.1610788404941558,0.1168546751141548
1629370532523,0.0932171791791915,0.2033270001411438,0.1687714457511901,0.1168546751141548
1629370532622,0.0932171791791915,0.2168066501617431,0.1693106144666671,0.1168546751141548
1629370532697,0.0932171791791915,0.2324602603912353,0.1643647104501724,0.1168546751141548
1629370532803,0.0932171791791915,0.2415622472763061,0.1599155664443969,0.1168546751141548
1629370532941,0.0932171791791915,0.2447713315486908,0.1569399088621139,0.1168546751141548
1629370533007,0.0932171791791915,0.2444754242897033,0.1527744978666305,0.1168546751141548
1629370533123,0.0932171791791915,0.2423174977302551,0.1437760591506958,0.1168546751141548
1629370533298,0.0932171791791915,0.2323822379112243,0.127257227897644,0.1168546751141548
1629370533315,0.0932171791791915,0.2384388744831085,0.1325511932373047,0.1168546751141548
1629370533436,0.0932171791791915,0.2253473997116089,0.1353602558374405,0.1168546751141548
1629370533562,0.0932171791791915,0.2204754799604416,0.1563387215137481,0.1168546751141548
1629370533648,0.0932171791791915,0.2194030135869979,0.1814508885145187,0.1168546751141548
1629370533807,0.0932171791791915,0.2202005088329315,0.2004975974559784,0.1168546751141548
1629370533927,0.0932171791791915,0.2180565595626831,0.2070384919643402,0.1168546751141548
1629370534032,0.0932171791791915,0.2080749869346618,0.2016473114490509,0.1168546751141548
1629370534147,0.0932171791791915,0.1894292682409286,0.1899043619632721,0.1168546751141548
1629370534215,0.0932171791791915,0.1729664355516433,0.1908261477947235,0.1168546751141548
1629370534277,0.0932171791791915,0.1538484096527099,0.1983481347560882,0.1168546751141548
1629370534347,0.0932171791791915,0.1333739012479782,0.2093423008918762,0.1168546751141548
1629370534491,0.0932171791791915,0.1088286563754081,0.2211872786283493,0.1168546751141548
1629370534566,0.0932171791791915,0.0774499848484993,0.2333486229181289,0.1168546751141548
1629370534659,0.0932171791791915,0.0418591573834419,0.2486039698123932,0.1168546751141548
1629370534742,0.0932171791791915,0.0107247689738869,0.2685538828372955,0.1168546751141548
1629370534801,0.0932171791791915,-0.005393523722887,0.2892928123474121,0.1168546751141548
1629370534890,0.0932171791791915,-0.0017901401733979,0.3019916117191314,0.1168546751141548
1629370535023,0.0932171791791915,0.0173483621329069,0.2976223826408386,0.1168546751141548
1629370535153,0.0932171791791915,0.0424252785742282,0.2704028189182281,0.1168546751141548
1629370535242,0.0932171791791915,0.0241527371108531,0.2038712501525879,0.1168546751141548
1629370535409,0.0932171791791915,-0.0008899284875951,0.1437760442495346,0.1168546751141548
1629370535490,0.0932171791791915,-0.0202789846807718,0.090871013700962,0.1168546751141548
1629370535557,0.0932171791791915,-0.0188827458769083,0.0500777252018451,0.1168546751141548
1629370535738,0.0932171791791915,0.0212124288082122,0.0178840924054384,0.1168546751141548
1629370535770,0.0932171791791915,0.067374363541603,0.014733899384737,0.1168546751141548
1629370535850,0.0932171791791915,0.1089247390627861,0.0375215522944927,0.1168546751141548
1629370535928,0.0932171791791915,0.1402076184749603,0.0686716884374618,0.1168546751141548
1629370536023,0.0932171791791915,0.1633283048868179,0.0920182764530181,0.1168546751141548
1629370536123,0.0932171791791915,0.1804114282131195,0.10348991304636,0.1168546751141548
1629370536257,0.0932171791791915,0.1897290349006652,0.107765294611454,0.1168546751141548
1629370536402,0.0932171791791915,0.1897290349006652,0.107765294611454,0.1168546751141548
1629370536460,0.0932171791791915,0.1897290349006652,0.107765294611454,0.1168546751141548
1629370536568,0.0932171791791915,0.1897290349006652,0.107765294611454,0.1168546751141548
1629370536647,0.0932171791791915,0.1897290349006652,0.107765294611454,0.1168546751141548
1629370536724,0.0932171791791915,0.2107996940612793,0.1030121520161628,0.1168546751141548
1629370536907,0.0932171791791915,0.232033371925354,0.100825235247612,0.1168546751141548
1629370536973,0.0932171791791915,0.2538332939147949,0.1115153580904007,0.1168546751141548
1629370537046,0.0932171791791915,0.2753622531890869,0.1375863999128341,0.1168546751141548
1629370537179,0.0932171791791915,0.2928493618965149,0.1706439405679702,0.1168546751141548
1629370537246,0.0932171791791915,0.3018743693828583,0.1981602013111114,0.1168546751141548
1629370537385,0.0932171791791915,0.3027046918869018,0.2085988819599151,0.1168546751141548
1629370537505,0.0932171791791915,0.3027046918869018,0.2191700935363769,0.1168546751141548
1629370537573,0.0932171791791915,0.3027046918869018,0.1890358626842498,0.1168546751141548
1629370537691,0.0932171791791915,0.3027046918869018,0.1415178179740905,0.1168546751141548
1629370537768,0.0932171791791915,0.3027046918869018,0.1415178179740905,0.1168546751141548
1629370537849,0.0932171791791915,0.3027046918869018,0.1415178179740905,0.1168546751141548
1629370537941,0.0932171791791915,0.3027046918869018,0.1415178179740905,0.1168546751141548
1629370538094,0.0932171791791915,0.3027046918869018,0.1415178179740905,0.1168546751141548
1629370538193,0.0932171791791915,0.3027046918869018,0.1415178179740905,0.1168546751141548
1629370538290,0.0932171791791915,0.3027046918869018,0.1415178179740905,0.1168546751141548
1629370538394,0.0932171791791915,0.3027046918869018,0.1415178179740905,0.1168546751141548
1629370538481,0.0932171791791915,0.3027046918869018,0.1415178179740905,0.1168546751141548
1629370538590,0.0932171791791915,0.3027046918869018,0.1415178179740905,0.1168546751141548
1629370538700,0.0932171791791915,0.3027046918869018,0.1415178179740905,0.1168546751141548
1629370538806,0.0932171791791915,0.3027046918869018,0.1415178179740905,0.1168546751141548
1629370538902,0.0932171791791915,0.3027046918869018,0.1411885172128677,0.1168546751141548
1629370538992,0.0932171791791915,0.3027046918869018,0.1475899368524551,0.1168546751141548
1629370539108,0.0932171791791915,0.3027046918869018,0.2161899656057357,0.1168546751141548
1629370539207,0.0932171791791915,0.3027046918869018,0.2910102903842926,0.1168546751141548
1629370539375,0.0932171791791915,0.3027046918869018,0.2871474623680115,0.1168546751141548
1629370539421,0.0932171791791915,0.3027046918869018,0.2770463228225708,0.1168546751141548
1629370539503,-0.0225121155381202,0.3027046918869018,0.2667956948280334,0.1168546751141548
1629370539597,-0.027654618024826,0.3027046918869018,0.2551180422306061,0.1168546751141548
1629370539691,-0.0335544534027576,0.2389686852693557,0.2393633127212524,0.1168546751141548
1629370539808,-0.0397696010768413,0.2389077842235565,0.2209178358316421,-0.1511125862598419
1629370539930,-0.0397696010768413,0.2287274748086929,0.2036841362714767,-0.1511125862598419
1629370540008,-0.0397696010768413,0.2115884125232696,0.1899925768375396,-0.1511125862598419
1629370540091,-0.0397696010768413,0.1957424879074096,0.1819341033697128,-0.1511125862598419
1629370540209,-0.0397696010768413,0.1856012791395187,0.1836514323949813,-0.1511125862598419
1629370540301,-0.0397696010768413,0.1797244250774383,0.1836514323949813,-0.1511125862598419
1629370540409,-0.0397696010768413,0.174651950597763,0.1863428950309753,-0.1511125862598419
1629370540559,-0.0397696010768413,0.169029876589775,0.1757395565509796,-0.1511125862598419
1629370540589,-0.0397696010768413,0.1632691770792007,0.1549099385738372,-0.1511125862598419
1629370540775,-0.0498421937227249,0.1589935570955276,0.1319785267114639,-0.1511125862598419
1629370540804,-0.0574445575475692,0.1584030240774154,0.1133256033062934,-0.1511125862598419
1629370540939,-0.0604780726134777,0.1467206180095672,0.0974956601858139,-0.1511125862598419
1629370541042,-0.0604780726134777,0.1417850106954574,0.072638601064682,-0.1511125862598419
1629370541126,-0.0604780726134777,0.1358978599309921,0.0569494999945163,-0.1511125862598419
1629370541364,-0.0604780726134777,0.1249575018882751,0.0532927848398685,-0.1511125862598419
1629370541477,-0.0604780726134777,0.1117609515786171,0.0601152740418911,-0.1511125862598419
1629370541567,-0.0604780726134777,0.1042733490467071,0.0718564093112945,-0.1511125862598419
1629370541667,-0.0604780726134777,0.1058399453759193,0.0814475193619728,-0.1511125862598419
1629370541731,-0.0604780726134777,0.0868780761957168,0.077930711209774,-0.1511125862598419
1629370541832,-0.0604780726134777,0.0664058700203895,0.0433908589184284,-0.1511125862598419
1629370541940,-0.0604780726134777,0.0508822724223136,0.0243308786302804,-0.1511125862598419
1629370542060,-0.1746542304754257,0.0487373284995555,0.008258388377726,-0.1511125862598419
1629370542136,-0.1390953510999679,0.0611961930990219,0.0022890993859618,-0.1511125862598419
1629370542191,-0.0800912082195282,0.0823574960231781,0.0055914833210408,-0.1511125862598419
1629370542267,-0.0192354563623666,0.1040015667676925,0.0111211529001593,-0.1511125862598419
1629370542360,0.0279736686497926,0.1184420809149742,0.0125623513013124,-0.1511125862598419
1629370542574,0.0551855266094207,0.1336398869752884,0.0096520101651549,0.3227647840976715
1629370542678,0.0551855266094207,0.1426311433315277,0.0081524895504117,0.3227647840976715
1629370542767,0.0551855266094207,0.1449522078037262,0.0110283941030502,0.3227647840976715
1629370542845,0.0551855266094207,0.1422037929296493,0.0073771956376731,0.3227647840976715
1629370542909,0.0551855266094207,0.1388584673404693,0.0027624890208244,0.3227647840976715
1629370543012,0.0551855266094207,0.13846255838871,-0.0043716630898416,0.3227647840976715
1629370543174,0.0551855266094207,0.1404869854450225,-0.0133954361081123,0.3227647840976715
1629370543251,0.0697894990444183,0.154585063457489,-0.0193111207336187,0.3227647840976715
1629370543323,0.0974451228976249,0.1639244109392166,-0.0151101592928171,0.3227647840976715
1629370543417,0.135560542345047,0.1684668213129043,0.0007716956315562,0.3227647840976715
1629370543508,0.1786292046308517,0.171313926577568,0.0206488259136676,0.3227647840976715
1629370543591,0.2168075889348983,0.1750626564025879,0.0330685526132583,0.3227647840976715
1629370543704,0.2168075889348983,0.1789423823356628,0.0315972827374935,0.3227647840976715
1629370543780,0.2168075889348983,0.1809606552124023,0.0207381732761859,0.3227647840976715
1629370543899,0.2168075889348983,0.1793615221977234,0.0207381732761859,0.3227647840976715
1629370544019,0.2168075889348983,0.1734433323144912,0.0207381732761859,0.3227647840976715
1629370544107,0.2168075889348983,0.165507435798645,0.0207381732761859,0.3227647840976715
1629370544218,0.2168075889348983,0.1581723839044571,0.0207381732761859,0.3227647840976715
1629370544324,0.2168075889348983,0.1515991389751434,0.0207381732761859,0.3227647840976715
1629370544491,0.2168075889348983,0.1425666213035583,0.0207381732761859,0.3227647840976715
1629370544558,0.2168075889348983,0.1294570118188858,0.0500651486217975,0.3227647840976715
1629370544636,0.2168075889348983,0.1146775931119918,0.0323849357664585,0.3227647840976715
1629370544699,0.2168075889348983,0.1026837602257728,0.0102542899549007,0.3227647840976715
1629370544802,0.2168075889348983,0.0933748930692672,-0.0117013184353709,0.3227647840976715
1629370544908,0.2168075889348983,0.0820873752236366,-0.0317572057247161,0.3227647840976715
1629370545073,0.2168075889348983,0.0642971396446228,-0.0507516413927078,0.3227647840976715
1629370545124,0.2168075889348983,0.0380808562040329,-0.070310465991497,0.3227647840976715
1629370545217,-0.1795801371335983,0.0051062782295048,-0.0916287302970886,0.0551946945488452
1629370545317,-0.2109947800636291,-0.0309876576066017,-0.1152548491954803,0.0421378277242183
1629370545422,-0.236316978931427,-0.0632171407341957,-0.1402194648981094,0.0315232910215854
1629370545524,-0.2540470659732818,-0.0843192115426063,-0.1640312671661377,0.0287975259125232
1629370545659,-0.2634793221950531,-0.0952327921986579,-0.1848134547472,0.0325781144201755
1629370545760,-0.2621765732765198,-0.1031394600868225,-0.2257779985666275,0.0404635705053806
1629370545886,-0.2490183413028717,-0.112808957695961,-0.2736943960189819,0.0537376850843429
1629370545985,-0.2275852560997009,-0.1226472854614257,-0.325452446937561,0.0717725455760955
1629370546065,-0.2016675025224685,-0.1301251798868179,-0.372584193944931,0.0895841866731643
1629370546139,-0.1736660301685333,-0.1352474093437194,-0.4014337062835693,0.1019397377967834
1629370546259,-0.1447520703077316,-0.1380178928375244,-0.4036195576190948,0.1075925827026367
1629370546341,-0.1171022877097129,-0.1364224702119827,-0.3882320523262024,0.1093067973852157
1629370546411,-0.0918479114770889,-0.1298883259296417,-0.3724622428417206,0.1174236461520195
1629370546503,-0.0713840126991272,-0.1218880414962768,-0.3656824231147766,0.1239921599626541
1629370546689,-0.0537808500230312,-0.1150780171155929,-0.365173876285553,0.128530204296112
1629370546736,-0.0370901450514793,-0.1083042249083519,-0.3608142137527466,0.1305368095636367
1629370546831,-0.0216115564107894,-0.0990508943796157,-0.3445858657360077,0.1296424567699432
1629370546959,-0.0090397410094738,-0.0878589004278183,-0.3181274235248565,0.1267906427383422
1629370546987,0.0004309546493459,-0.0780545473098754,-0.2907027900218963,0.1253733932971954
1629370547143,0.0093065341934561,-0.0714163184165954,-0.2693365514278412,0.1320257931947708
1629370547273,0.0203502662479877,-0.0671995654702186,-0.2534407079219818,0.1500752568244934
1629370547377,0.0339800007641315,-0.0642627328634262,-0.2380914241075515,0.1730551719665527
1629370547438,0.048353835940361,-0.0620071738958358,-0.2212076634168625,0.1898078620433807
1629370547504,0.0598302856087684,-0.0614952445030212,-0.2074636965990066,0.1961465626955032
1629370547657,0.0656283646821975,-0.0645879879593849,-0.2050875276327133,0.19610196352005
1629370547704,0.0661509484052658,-0.0734731033444404,-0.218079000711441,0.1945751309394836
1629370547909,0.0650055184960365,-0.0887114629149437,-0.2415528893470764,0.1909394711256027
1629370547985,0.0678886994719505,-0.1087893322110176,-0.2636378407478332,0.1813930422067642
1629370548051,0.0773286074399948,-0.1297556161880493,-0.2755083739757538,0.1658253520727157
1629370548143,0.0901374667882919,-0.146991416811943,-0.2785248756408691,0.1494008153676986
1629370548222,0.1005312576889991,-0.1575232297182083,-0.2807237803936004,0.1398839950561523
1629370548358,0.1059714257717132,-0.1633474379777908,-0.2878719568252563,0.141139268875122
1629370548472,0.1080670207738876,-0.1689876616001129,-0.3004289269447326,0.1489281356334686
1629370548540,0.1100217029452323,-0.1760054677724838,-0.3149634003639221,0.1542348563671112
1629370548651,0.1126046851277351,-0.1803382188081741,-0.3282416462898254,0.1481598615646362
1629370548810,0.115373708307743,-0.1770408749580383,-0.3415713906288147,0.1279368847608566
1629370548857,0.1174003779888153,-0.1674018204212188,-0.3596743941307068,0.0984936580061912
1629370548968,0.1179271414875984,-0.1584526449441909,-0.3846868574619293,0.0696678832173347
1629370549111,0.1172600239515304,-0.1560545116662979,-0.4105413556098938,0.0466223135590553
1629370549168,0.1161878407001495,-0.1604221761226654,-0.4245612025260925,0.0265705026686191
1629370549277,0.1136114448308944,-0.1671544462442398,-0.4183700978755951,0.0053428341634571
1629370549360,0.106402114033699,-0.1571939587593078,-0.3949540555477142,-0.0153466267511248
1629370549431,0.0912161469459533,-0.1416436284780502,-0.3618543148040771,-0.0315437167882919
1629370549523,0.0679614469408989,-0.123378038406372,-0.3630368709564209,-0.042208332568407
1629370549640,0.0533092133700847,-0.1075272634625434,-0.3643454313278198,-0.0326543189585208
1629370549810,0.0425439924001693,-0.0982325226068496,-0.3639757931232452,-0.0263569802045822
1629370549842,0.0403827503323555,-0.0958802923560142,-0.3624512851238251,-0.0280712209641933
1629370550001,0.0467943809926509,-0.099326491355896,-0.3606303334236145,-0.0386530607938766
1629370550125,0.0577777437865734,-0.1098992452025413,-0.3573404550552368,-0.0535141415894031
1629370550173,0.0684446841478347,-0.1339236795902252,-0.293425053358078,-0.068566545844078
1629370550265,0.0726790949702262,-0.0782997086644172,-0.2371748387813568,-0.0883655846118927
1629370550394,0.0660421103239059,-0.0277896039187908,-0.1882066279649734,-0.1243294328451156
1629370550477,0.0480997785925865,0.0108759617432951,-0.1507971137762069,-0.184024691581726
1629370550642,0.0215925145894289,0.0440340265631675,-0.1269033104181289,-0.2637774050235748
1629370550726,-0.0110820829868316,0.0914585664868354,-0.1134134605526924,-0.1502545326948166
1629370550819,-0.0110820829868316,0.1603317260742187,-0.1082722172141075,0.0168348923325538
1629370550914,-0.0110820829868316,0.1603317260742187,-0.114334151148796,0.1668400019407272
1629370551010,-0.0110820829868316,0.1603317260742187,-0.1377511769533157,0.269864559173584
1629370551101,-0.0110820829868316,0.1603317260742187,-0.1564110815525055,0.3508728146553039
1629370551186,-0.0110820829868316,0.1603317260742187,-0.1755584478378296,0.3508728146553039
1629370551383,-0.0110820829868316,0.1603317260742187,-0.1890776753425598,0.3508728146553039
1629370551489,-0.0110820829868316,0.112259142100811,-0.1933450549840927,0.3508728146553039
1629370551567,-0.0110820829868316,0.0795237869024276,-0.1902928799390792,0.3500413298606872
1629370551646,-0.0110820829868316,0.0589929036796093,-0.1855899840593338,0.3462976217269897
1629370551715,-0.0110820829868316,0.0506672821938991,-0.2001886814832687,0.3396620154380798
1629370551778,-0.0110820829868316,0.0268168449401855,-0.2175318449735641,0.3396620154380798
1629370551900,-0.0110820829868316,-0.0078408159315586,-0.2324569374322891,0.3396620154380798
1629370552026,-0.0110820829868316,-0.0363086611032485,-0.2363718152046203,0.3396620154380798
1629370552103,-0.0110820829868316,-0.0544464997947216,-0.2272664606571197,0.3396620154380798
1629370552212,-0.0110820829868316,-0.0544464997947216,-0.2259529829025268,0.3539296388626098
1629370552335,-0.0110820829868316,-0.0544464997947216,-0.2270735055208206,0.3518474698066711
1629370552415,-0.0110820829868316,-0.0544464997947216,-0.2291257977485656,0.33455890417099
1629370552485,-0.0110820829868316,-0.0544464997947216,-0.2256441712379455,0.33455890417099
1629370552559,-0.0110820829868316,-0.0544464997947216,-0.2132041603326797,0.33455890417099
1629370552729,-0.0110820829868316,-0.0544464997947216,-0.1942720264196396,0.33455890417099
1629370552791,-0.0110820829868316,-0.0544464997947216,-0.1905794292688369,0.33455890417099
1629370552950,-0.0110820829868316,-0.0312605388462543,-0.1974120438098907,0.33455890417099
1629370553028,-0.0110820829868316,0.0435425676405429,-0.2140335589647293,0.33455890417099
1629370553122,-0.0110820829868316,0.0775502398610115,-0.2348848134279251,0.33455890417099
1629370553222,-0.0110820829868316,0.0801331847906112,-0.2512243092060089,0.33455890417099
1629370553341,-0.0110820829868316,0.0591266378760337,-0.259086936712265,0.33455890417099
1629370553474,-0.1498490422964096,0.0487378388643264,-0.2604154646396637,0.2464051246643066
1629370553551,-0.1347472220659256,0.0437386259436607,-0.2583248913288116,0.2252454310655594
1629370553662,-0.126189723610878,0.0455260016024112,-0.256505936384201,0.198639839887619
1629370553739,-0.1204231455922126,0.0595519244670867,-0.2348751276731491,0.1766030937433242
1629370553834,-0.114824503660202,0.0852862820029258,-0.2239460498094558,0.1626073867082595
1629370554024,-0.1093406304717063,0.1135204210877418,-0.2239965200424194,0.1539905071258545
1629370554060,-0.1039481312036514,0.1334500461816787,-0.2320790737867355,0.1462601125240326
1629370554168,-0.0989723578095436,0.1399954110383987,-0.2444574534893036,0.135161817073822
1629370554263,-0.0950576066970825,0.1367695927619934,-0.2572541236877441,0.1204787045717239
1629370554364,-0.0927281603217125,0.1317583620548248,-0.2638373672962188,0.1064267456531524
1629370554469,-0.0933735147118568,0.1314546465873718,-0.2657473087310791,0.0973022878170013
1629370554581,-0.0984591171145439,0.1343168169260025,-0.26333087682724,0.0924341157078743
1629370554686,-0.1005759015679359,0.1435343474149704,-0.2592097520828247,0.0780779644846916
1629370554752,-0.1072252765297889,0.1533779203891754,-0.2550946176052093,0.0529124923050403
1629370554816,-0.1156299263238906,0.1595667600631714,-0.2502291202545166,0.0184329804033041
1629370554904,-0.1207811534404754,0.1617426127195358,-0.2444066852331161,-0.0130176739767193
1629370554991,-0.1184409037232399,0.1613872945308685,-0.2390846461057663,-0.0285051017999649
1629370555196,-0.1070521846413612,0.1612480282783508,-0.2318382114171981,-0.0272758603096008
1629370555319,-0.0908753871917724,0.1640134155750274,-0.216672196984291,-0.0201739501208066
1629370555363,-0.0772161111235618,0.1692729592323303,-0.1921928822994232,-0.0185356270521879
1629370555441,-0.0708451271057128,0.174442246556282,-0.1640899181365966,-0.0258866995573043
1629370555511,-0.0709496140480041,0.1795098036527633,-0.1401921063661575,-0.0353839285671711
1629370555703,-0.0719892829656601,0.187719851732254,-0.1222107410430908,-0.0347656533122062
1629370555828,-0.0732901394367218,0.1935821026563644,-0.1047594919800758,-0.0313329026103019
1629370555906,-0.0738789066672325,0.2022982090711593,-0.0864687040448188,-0.0257352590560913
1629370555973,-0.0716271847486496,0.2080088853836059,-0.0699546113610267,-0.0243294704705476
1629370556177,-0.0632230266928672,0.2092219740152359,-0.0555228516459465,-0.0283743292093276
1629370556252,-0.047332514077425,0.2094250619411468,-0.0405280888080596,-0.0314298719167709
1629370556329,-0.0255992785096168,0.2136086970567703,-0.0224307440221309,-0.0248397048562765
1629370556445,-0.0024316881317645,0.2250398248434066,-0.0021677387412637,-0.0068958145566284
1629370556513,0.0167977530509233,0.245246410369873,0.0170751567929983,0.015270534902811
1629370556578,0.0267506465315818,0.2744778990745544,0.0330410823225975,0.0291266832500696
1629370556691,0.02176552452147,0.307812750339508,0.042466539889574,0.0249391533434391
1629370556777,-0.0006240198854357,0.3332650065422058,0.0378408133983612,0.003300542011857
1629370556893,-0.0006240198854357,0.3332650065422058,0.0233940612524747,0.003300542011857
1629370557009,-0.0006240198854357,0.3332650065422058,0.0255157556384801,0.003300542011857
1629370557128,-0.0006240198854357,0.3332650065422058,0.070741981267929,0.003300542011857
1629370557157,-0.0006240198854357,0.3332650065422058,0.1639894545078277,0.003300542011857
1629370557367,-0.0006240198854357,0.3332650065422058,0.2162788361310959,0.003300542011857
1629370557399,-0.0006240198854357,0.3332650065422058,0.2537181973457336,0.003300542011857
1629370557527,-0.0006240198854357,0.3332650065422058,0.2688986957073211,0.2492635697126388
1629370557618,-0.0006240198854357,0.3332650065422058,0.2630795836448669,0.2628872394561767
1629370557707,0.0425160191953182,0.2518295645713806,0.2432124465703964,0.2793577313423157
