timestamp,TP9,AF7,AF8,TP10
1629370423024,0.4058056473731994,0.5686575174331665,0.8000342845916748,-0.2974244356155395
1629370423201,0.3805488049983978,0.2965124249458313,0.7837628722190857,1.2151223421096802
1629370423232,0.3659803867340088,0.2896467447280884,0.7505890727043152,1.2151223421096802
1629370423284,0.3769298493862152,0.2747958600521087,0.6851611733436584,1.2151223421096802
1629370423409,0.3769298493862152,0.2568116188049316,0.5671651363372803,1.2151223421096802
1629370423664,0.3769298493862152,0.2384569644927978,0.3803806006908417,1.2151223421096802
1629370423735,0.4335802495479584,0.2224843949079513,0.1374083757400512,1.2151223421096802
1629370423805,0.5079118609428406,0.2095672935247421,-0.095775581896305,1.164761662483215
1629370423856,0.586694598197937,0.1163622140884399,-0.2414715588092804,1.1432063579559326
1629370423927,0.6416736841201782,0.0863130092620849,-0.2945984005928039,1.128663182258606
1629370424037,0.6783833503723145,0.0897645354270935,-0.29507577419281,1.111008882522583
1629370424141,0.7009466290473938,0.0953746363520622,-0.2799857258796692,1.088794231414795
1629370424272,0.73238205909729,0.091995745897293,-0.2698164582252502,1.064878225326538
1629370424311,0.7481112480163574,0.0710688233375549,-0.2758994698524475,1.0167826414108276
1629370424453,0.7670654058456421,0.032805148512125,-0.2990672886371612,0.9597023725509644
1629370424516,0.7859170436859131,-0.0097986189648509,-0.3260334730148315,0.913952648639679
1629370424566,0.8127461075782776,-0.0475754141807556,-0.3361020088195801,0.8651060461997986
1629370424766,0.8422722220420837,-0.058047953993082,-0.3185142874717712,0.8651060461997986
1629370424830,0.8705876469612122,-0.0145608419552445,-0.2165069878101349,0.8651060461997986
1629370424921,0.8705876469612122,0.0736599266529083,-0.0336449742317199,0.8651060461997986
1629370424999,0.8705876469612122,0.1691375076770782,0.1594079732894897,0.8651060461997986
1629370425096,0.8876966238021851,0.2416518777608871,0.3088903427124023,0.8651060461997986
1629370425239,0.8912830948829651,0.2823083102703094,0.3988491892814636,0.8642874360084534
1629370425418,0.873826801776886,0.2967751026153564,0.4379242658615112,0.8329938650131226
1629370425481,0.8485544323921204,0.2966574132442474,0.4446366429328918,0.7802481055259705
1629370425545,0.8172280788421631,0.294020414352417,0.4384568929672241,0.719801664352417
1629370425622,0.8172280788421631,0.2941674888134002,0.4308247864246368,0.719801664352417
1629370425760,0.8172280788421631,0.2927680015563965,0.4252089262008667,0.719801664352417
1629370425802,0.8172280788421631,0.2904911041259765,0.4232156574726105,0.719801664352417
1629370425974,0.8172280788421631,0.2871762812137604,0.4249381124973297,0.719801664352417
1629370426091,0.8172280788421631,0.2825944125652313,0.4303031265735626,0.719801664352417
1629370426197,0.1959762573242187,0.2789990305900574,0.4375446140766144,0.719801664352417
1629370426248,0.2307360768318176,0.2678350806236267,0.4436615705490112,0.719801664352417
1629370426436,0.248950570821762,0.236734852194786,0.4329384267330169,0.719801664352417
1629370426534,0.2428959459066391,0.1711319684982299,0.3858157694339752,0.3862276673316955
1629370426586,0.2204876244068145,0.0660336464643478,0.2867654860019684,0.3220972716808319
1629370426692,0.195298284292221,-0.0657599568367004,0.1332272738218307,0.2631520330905914
1629370426754,0.1784775555133819,-0.1881145238876342,-0.0464090965688228,0.2090424448251724
1629370426857,0.17274771630764,-0.2623391151428222,-0.1894631832838058,0.1710011661052703
1629370427057,0.2048067301511764,-0.2856520116329193,-0.2523747384548187,0.1725024431943893
1629370427176,0.2883017063140869,-0.2812480032444,-0.2687891125679016,0.2191077172756195
1629370427270,0.4063871204853058,-0.2668471932411194,-0.2751368284225464,0.2995592951774597
1629370427318,0.5217288732528687,-0.2369831502437591,-0.2747430503368377,0.3829797208309173
1629370427455,0.6229009628295898,-0.2000899016857147,-0.2664691209793091,0.4427893757820129
1629370427528,0.689764142036438,-0.1680451482534408,-0.2502103745937347,0.4701228737831116
1629370427635,0.7264043092727661,-0.1480943858623504,-0.2350383847951889,0.4692897498607635
1629370427787,0.740570604801178,-0.136543408036232,-0.2308998107910156,0.4347424209117889
1629370427817,0.7437700033187866,-0.1212680414319038,-0.2454203218221664,0.4104096889495849
1629370428020,0.7411255836486816,-0.1012603938579559,-0.274702787399292,0.3974428176879883
1629370428090,0.7379505634307861,-0.0815515294671058,-0.3025733530521393,0.3921608626842499
1629370428252,0.7373953461647034,-0.067017562687397,-0.3272027671337127,0.390446662902832
1629370428297,0.7388899922370911,-0.0568895898759365,-0.3536917269229889,0.3951911628246307
1629370428421,0.7410478591918945,-0.0459717251360416,-0.3833234906196594,0.4065454304218292
1629370428614,0.7420390844345093,-0.0308422464877367,-0.4079604148864746,0.4172713756561279
1629370428813,0.7348096966743469,-0.0201504752039909,-0.42523854970932,0.41712486743927
1629370428908,0.7117916941642761,-0.0204352382570505,-0.4340764880180359,0.3997285366058349
1629370428954,0.665477454662323,-0.0374815203249454,-0.4360901415348053,0.3579561412334442
1629370429026,0.590701699256897,-0.0688813254237175,-0.4387046694755554,0.2914945185184479
1629370429191,0.4923239052295685,-0.1078869476914405,-0.4513061344623565,0.2155604809522628
1629370429236,0.3918050825595855,-0.1443150043487548,-0.4894033670425415,0.1531877070665359
1629370429287,0.3101264536380768,-0.1696558445692062,-0.5539677739143372,0.1249712854623794
1629370429396,0.2572927176952362,-0.1917212456464767,-0.6366460919380188,0.1254878491163253
1629370429467,0.2227510511875152,-0.226379707455635,-0.7099583148956299,0.1352316290140152
1629370429527,0.2046618461608886,-0.2771910727024078,-0.7538663744926453,0.1409440785646438
1629370429584,0.1944780051708221,-0.333689421415329,-0.7771866321563721,0.139815866947174
1629370429637,0.1800750494003296,-0.3796637952327728,-0.7788838148117065,0.1324600577354431
1629370429721,0.1610986739397049,-0.4158737063407898,-0.7375016808509827,0.1157442107796669
1629370429898,0.1386680454015731,-0.4584189057350158,-0.6532215476036072,0.0883392989635467
1629370429948,0.1363294571638107,-0.5179861783981323,-0.5427570939064026,0.0816209986805915
1629370430032,0.1333676427602768,-0.4369651079177856,-0.3790597319602966,0.0729887187480926
1629370430225,0.1210938543081283,-0.1190788894891738,-0.1553610563278198,0.0589689053595066
1629370430313,0.0803115591406822,0.2919268608093261,0.1409770548343658,0.0317546725273132
1629370430407,0.0015754987252876,0.6154299974441528,0.4207854568958282,-0.0164159070700407
1629370430483,-0.1141518652439117,0.835767924785614,0.6327003836631775,-0.0917877331376075
1629370430540,-0.2352623492479324,0.9686334133148192,0.7781285047531128,-0.1797199696302414
1629370430802,-0.3265698850154876,1.0458120107650757,0.8748494982719421,-0.2693987488746643
1629370430895,-0.3963569104671478,1.0918608903884888,0.939851939678192,-0.3723081350326538
1629370430969,-0.4820558130741119,1.121880292892456,0.9833335280418396,-0.4976318180561065
1629370431045,-0.5865642428398132,1.1397511959075928,1.005724310874939,-0.6220088601112366
1629370431111,-0.5865642428398132,1.1499077081680298,1.015325903892517,-0.6220088601112366
1629370431161,-0.5865642428398132,1.1542609930038452,1.0193471908569336,-0.6220088601112366
1629370431329,-0.5865642428398132,1.1557731628417969,1.0207959413528442,-0.6220088601112366
1629370431424,-0.5865642428398132,1.1562236547470093,1.019850492477417,-0.6220088601112366
1629370431609,-0.5865642428398132,1.1566311120986938,1.017515778541565,-0.6220088601112366
1629370431751,-0.5865642428398132,1.1541101932525637,1.012305736541748,-0.6220088601112366
1629370431798,-0.5865642428398132,1.1421533823013306,1.00057053565979,-0.6220088601112366
1629370432115,-0.5865642428398132,1.1043347120285034,0.9707402586936952,-0.6220088601112366
1629370432195,0.3996374011039734,1.0262093544006348,0.9111408591270448,-0.6220088601112366
1629370432251,0.5224426984786987,0.9026666879653932,0.8191280961036682,-0.6220088601112366
1629370432336,0.5986725091934204,0.7510415315628052,0.7010893821716309,1.1364964246749878
1629370432518,0.628395676612854,0.5904118418693542,0.5631872415542603,1.249429702758789
1629370432568,0.6237660050392151,0.4297792613506317,0.4039332568645477,1.249429702758789
1629370432629,0.6002060770988464,0.263133704662323,0.2207523882389068,1.249429702758789
1629370432698,0.5734133124351501,0.1205155774950981,0.0708057656884193,1.249429702758789
1629370432753,0.5512320399284363,0.0176899712532758,-0.0103450752794742,1.249429702758789
1629370432858,0.5288859605789185,0.0003540917823556,-0.0367854684591293,1.215129256248474
1629370432924,0.5055864453315735,0.0687193423509597,-0.0365094505250453,1.1979687213897705
1629370433035,0.4813113808631897,0.1768798977136612,-0.0231549870222806,1.1877036094665527
1629370433135,0.4572559595108032,0.2718886435031891,-0.0111316163092851,1.1748632192611694
1629370433214,0.4390927851200104,0.3351121246814728,0.0007589905289933,1.1932119131088257
1629370433277,0.452995240688324,0.3776052296161651,0.0332279838621616,1.2316375970840454
1629370433437,0.4626268744468689,0.396324098110199,0.0980604365468025,1.2589930295944214
1629370433617,0.4448901116847992,0.4103176891803741,0.2623293399810791,1.2589930295944214
1629370433690,0.3869723975658417,0.4224063158035278,0.5531505942344666,1.2589930295944214
1629370433783,0.2933763861656189,0.4355476796627044,0.564164936542511,1.1702708005905151
1629370433841,0.1829119473695755,0.4558451771736145,0.5770311951637268,1.039622783660889
1629370433902,0.089205153286457,0.4848339259624481,0.5967913269996643,1.039622783660889
1629370433964,0.0367145426571369,0.5207900404930115,0.6250566840171814,1.039622783660889
1629370434019,0.0012630211422219,0.5588371753692627,0.6604557037353516,1.039622783660889
1629370434123,-0.0631041824817657,0.6029037237167358,0.7007648348808289,1.039622783660889
1629370434300,-0.1386107355356216,0.6431915163993835,0.7702769637107849,1.0522023439407349
1629370434429,-0.1386107355356216,0.6621289253234863,0.814247727394104,1.0522023439407349
1629370434474,-0.1386107355356216,0.644411563873291,0.8340964317321777,1.0522023439407349
1629370434545,-0.1386107355356216,0.644411563873291,0.8448945879936218,1.0522023439407349
1629370434658,-0.1386107355356216,0.644411563873291,0.8529953956604004,1.0522023439407349
1629370434819,-0.1386107355356216,0.644411563873291,0.8574517965316772,1.0522023439407349
1629370434865,-0.1386107355356216,0.644411563873291,0.8544480800628662,1.0522023439407349
1629370435009,-0.1386107355356216,0.3014482259750366,0.8366149067878723,1.0522023439407349
1629370435134,-0.1386107355356216,0.8246861696243286,0.7869022488594055,1.0522023439407349
1629370435228,-0.1386107355356216,0.8246861696243286,0.7869022488594055,1.0522023439407349
1629370435333,-0.1386107355356216,0.8246861696243286,0.7869022488594055,1.0522023439407349
1629370435410,-0.1386107355356216,0.8246861696243286,0.7869022488594055,1.0522023439407349
1629370435465,-0.1386107355356216,0.8246861696243286,0.7869022488594055,1.0522023439407349
1629370435546,-0.1386107355356216,0.8246861696243286,0.7869022488594055,1.0522023439407349
1629370435618,-0.1386107355356216,0.8246861696243286,0.7869022488594055,1.0522023439407349
1629370435687,-0.1386107355356216,0.8246861696243286,0.7644190192222595,1.0522023439407349
1629370435805,-0.1386107355356216,0.8246861696243286,0.7568357586860657,1.0522023439407349
1629370435980,-0.1386107355356216,0.8246861696243286,0.7845780253410339,1.0522023439407349
1629370436077,-0.1386107355356216,0.8246861696243286,0.8382661938667297,1.0522023439407349
1629370436155,-0.1386107355356216,0.9084501266479492,0.9129812121391296,1.0522023439407349
1629370436231,-0.1386107355356216,0.9493639469146729,0.9651841521263124,1.0522023439407349
1629370436313,-0.1386107355356216,0.9685181379318236,0.951279640197754,1.0522023439407349
1629370436393,-0.1386107355356216,0.9099696278572084,0.8611621260643005,1.0522023439407349
1629370436536,-0.1386107355356216,0.2863025665283203,0.3083108067512512,1.0522023439407349
1629370436592,-0.1386107355356216,0.2225286662578582,0.2283638715744018,1.0522023439407349
1629370436713,-0.1386107355356216,0.1974416375160217,0.1676124483346939,1.0522023439407349
1629370436749,-0.1386107355356216,0.2297114729881286,0.1264533251523971,1.0522023439407349
1629370436932,0.6679471135139465,0.308401346206665,0.0992649868130683,1.0522023439407349
1629370437051,0.7607770562171936,0.3908857703208923,0.0838681906461715,1.0522023439407349
1629370437128,0.7607770562171936,0.4597327411174774,0.0794421732425689,1.0522023439407349
1629370437213,0.7607770562171936,0.5056082010269165,0.0792567506432533,1.0522023439407349
1629370437273,0.7607770562171936,0.5056082010269165,0.0793278589844703,1.0522023439407349
1629370437419,0.7607770562171936,0.5056082010269165,0.0709160342812538,1.0522023439407349
1629370437579,0.7607770562171936,0.5056082010269165,0.0541310831904411,1.0522023439407349
1629370437639,0.7607770562171936,0.492283284664154,0.0334233790636062,1.0522023439407349
1629370437743,0.7607770562171936,0.4590015709400177,-0.1624466478824615,1.0522023439407349
1629370437826,0.7607770562171936,0.4440569877624511,-0.2127926498651504,1.0522023439407349
1629370437991,0.7607770562171936,0.4449125826358795,-0.2157200872898101,1.0522023439407349
1629370438095,0.7607770562171936,0.4521903395652771,-0.2228478193283081,1.0522023439407349
1629370438198,0.8254920244216919,0.4597735106945038,-0.2357861697673797,1.0522023439407349
1629370438249,0.8546067476272583,0.4633234441280365,-0.2512666285037994,1.0522023439407349
1629370438357,0.8384144902229309,0.4491002261638641,-0.2728573977947235,1.0522023439407349
1629370438423,0.7652296423912048,0.4030181467533111,-0.3010514974594116,1.0522023439407349
1629370438569,0.6054607033729553,0.3299702405929565,-0.3276720345020294,1.0522023439407349
1629370438647,0.5618375539779663,0.2624887526035309,-0.3145762383937835,1.0522023439407349
1629370438905,0.5501126646995544,0.2931209504604339,-0.1824381798505783,1.0522023439407349
1629370438951,0.5662790536880493,0.4807823002338409,0.0151988742873072,1.0522023439407349
1629370439140,0.5986031889915466,0.6405690908432007,0.188937708735466,1.0522023439407349
1629370439231,0.5986031889915466,0.7388285398483276,0.2962105572223663,1.0522023439407349
1629370439287,0.5986031889915466,0.8048486709594727,0.3567048907279968,1.0522023439407349
1629370439403,0.5986031889915466,0.8378350138664246,0.4073256552219391,1.0522023439407349
1629370439441,0.5986031889915466,0.8689799308776855,0.5073835253715515,1.0522023439407349
1629370439499,0.5986031889915466,0.9306426048278807,0.5352527499198914,1.0522023439407349
1629370439592,0.5986031889915466,1.0127475261688232,0.5662469267845154,1.0522023439407349
1629370439702,0.5416481494903564,1.0392900705337524,0.6004601716995239,1.0522023439407349
1629370439797,0.4940561354160309,1.0675148963928225,0.6376898288726807,1.0522023439407349
1629370439816,0.4881818890571594,1.098535656929016,0.6778802275657654,1.0522023439407349
1629370440017,0.5262458920478821,1.1334408521652222,0.7219438552856445,1.0522023439407349
1629370440074,0.5898762345314026,1.1714388132095337,0.7692630887031555,1.0522023439407349
1629370440255,0.5898762345314026,1.208347201347351,0.8150240182876587,1.0522023439407349
1629370440321,0.5898762345314026,1.18596351146698,0.7825748324394226,1.0522023439407349
1629370440412,0.5898762345314026,1.1355100870132446,0.7105099558830261,1.0522023439407349
1629370440457,0.5898762345314026,1.053328037261963,0.5986639261245728,1.0522023439407349
1629370440588,0.5898762345314026,0.9566217064857484,0.4787698984146118,1.0522023439407349
1629370440778,0.4949591159820556,0.8684659600257874,0.3754365742206573,0.1063888147473335
1629370440870,0.5199386477470398,0.8123046159744263,0.2475662529468536,0.0390600338578224
1629370440931,0.5768139362335205,0.7454381585121155,-0.4609022140502929,-0.0170536916702985
1629370441023,0.5768139362335205,0.5560322999954224,-0.4795444905757904,-0.0668843835592269
1629370441161,0.5768139362335205,-0.2404299080371856,-0.5002263784408569,-0.1038263589143753
1629370441213,0.5768139362335205,-0.236413225531578,-0.519707441329956,-0.1208058148622512
1629370441285,0.5578641891479492,-0.2379422634840011,-0.5407817959785461,-0.1244039759039878
1629370441456,0.5326644778251648,-0.2518093585968017,-0.5596196055412292,-0.1261713802814483
1629370441534,0.5045199394226074,-0.2656071782112121,-0.5713956356048584,-0.1302809864282608
1629370441614,0.4721094667911529,-0.2658446729183197,-0.5686195492744446,-0.1382638216018676
1629370441693,0.4391482472419739,-0.2423023879528045,-0.5505257844924927,-0.1360322386026382
1629370441832,0.4156399369239807,-0.2078493237495422,-0.5461513996124268,-0.1097489893436431
1629370441881,0.379300445318222,-0.1648403406143188,-0.5369656085968018,-0.0742635205388069
1629370442160,0.3930252194404602,-0.1342508196830749,-0.5392690896987915,0.0209056492894887
1629370442265,0.4256458580493927,-0.1167047321796417,-0.547478973865509,0.1331038177013397
1629370442357,0.4444260001182556,-0.1029538288712501,-0.5548672676086426,0.2189542800188064
1629370442690,0.4248780310153961,-0.0908383503556251,-0.5557445883750916,0.2680189311504364
1629370442742,0.3521117568016052,-0.0801316425204277,-0.5576050281524658,0.2898200154304504
1629370442879,0.3240448832511902,-0.0745510160923004,-0.5639169216156006,0.2976431548595428
1629370442953,0.294950008392334,-0.0694564878940582,-0.5677653551101685,0.2998800277709961
1629370443069,0.267323762178421,-0.065518207848072,-0.5667917728424072,0.3024159967899322
1629370443134,0.2271593809127807,-0.0538033731281757,-0.5453864932060242,0.3078131377696991
1629370443222,0.1959609538316726,-0.0304947346448898,-0.5023675560951233,0.3242279887199402
1629370443325,0.1718536615371704,-0.009722676128149,-0.457955926656723,0.3542879223823547
1629370443420,0.1571801453828811,-0.0011801733635365,-0.4281770586967468,0.386503130197525
1629370443490,0.1483967155218124,-0.0151119921356439,-0.4216686189174652,0.4060789346694946
1629370443546,0.1326279491186142,-0.0410406067967414,-0.4290677607059479,0.4073807001113891
1629370443605,0.0945127457380294,-0.0581488274037838,-0.434521734714508,0.3828518390655517
1629370443653,0.0233635250478982,-0.0506757721304893,-0.4297395646572113,0.3302008211612701
1629370443835,-0.0851182788610458,-0.0288620796054601,-0.4240600764751434,0.2548936605453491
1629370443948,-0.2203642278909683,-0.0043869847431778,-0.4232407212257385,0.1787863969802856
1629370444019,-0.3320354521274566,0.0242408253252506,-0.4275153279304504,0.1245787441730499
1629370444089,-0.376653105020523,0.0566665716469287,-0.4298877716064453,0.1010292917490005
1629370444141,-0.3499820828437805,0.0847442969679832,-0.4249327182769775,0.1035666465759277
1629370444197,-0.2813176810741424,0.1040364503860473,-0.414336085319519,0.121841549873352
1629370444306,-0.2066686302423477,0.1227307915687561,-0.4012379348278045,0.1454793810844421
1629370444446,-0.155444785952568,0.1429061442613601,-0.3966407775878906,0.1811903864145279
1629370444493,-0.1237309053540229,0.1669977158308029,-0.4041472673416137,0.2180322706699371
1629370444561,-0.0966147109866142,0.1952402889728546,-0.4145175516605377,0.2408502995967865
1629370444686,-0.0608465038239955,0.2161581218242645,-0.4235584437847137,0.2428793907165527
1629370444837,-0.0183745939284563,0.2261768281459808,-0.4256109297275543,0.2319099605083465
1629370444895,0.0200706180185079,0.2248714715242386,-0.4264003932476043,0.2215218991041183
1629370444964,0.0609743669629097,0.2123735696077346,-0.4240072071552276,0.237426608800888
1629370445046,0.1270388513803482,0.1871224790811538,-0.4143491089344024,0.258843719959259
1629370445193,0.2494366317987442,0.1556417346000671,-0.3828108012676239,0.2837835252285003
1629370445453,0.4062254428863525,0.1221288815140724,-0.3365437984466553,0.3083005249500274
1629370445499,0.5442853569984436,0.0834984555840492,-0.288586676120758,0.3364112377166748
1629370445629,0.6385891437530518,0.0410408712923526,-0.2515386641025543,0.3684424459934234
1629370445789,0.6948687434196472,0.0034224321134388,-0.2317515164613723,0.4011486172676086
1629370445927,0.7241466045379639,-0.0249024797230958,-0.2269816398620605,0.4308648705482483
1629370446130,0.7377972602844238,-0.0519834160804748,-0.2297295480966568,0.4542510509490967
1629370446223,0.7429192066192627,-0.0883414596319198,-0.2390066981315612,0.5115602612495422
1629370446337,0.7458767890930176,-0.146604910492897,-0.2567498087882995,0.5174006819725037
1629370446426,0.7476894855499268,-0.2323125898838043,-0.2808951437473297,0.4908331632614136
1629370446489,0.7495633959770203,-0.3226529955863952,-0.3074726462364197,0.4836612343788147
1629370446539,0.7537797093391418,-0.3855337500572204,-0.3345341682434082,0.4836612343788147
1629370446600,0.7615048289299011,-0.4170490801334381,-0.3553808629512787,0.4836612343788147
1629370446661,0.7677767276763916,-0.4313161969184875,-0.3702403306961059,0.4836612343788147
1629370446712,0.7631303071975708,-0.4280035197734833,-0.3782746791839599,0.5827081203460693
1629370446779,0.7353619337081909,-0.4118086099624634,-0.3862066566944122,0.5348452925682068
1629370446826,0.6726781725883484,-0.389786958694458,-0.3997754752635956,0.4883258938789367
1629370447063,0.5824251174926758,-0.3685789704322815,-0.4229318797588348,0.4510073661804199
1629370447127,0.4987472593784332,-0.3479531109333038,-0.4547958970069885,0.4388377070426941
1629370447246,0.4509461224079132,-0.3173905313014984,-0.4771024584770202,0.4620080292224884
1629370447345,0.4452533423900604,-0.2808210849761963,-0.4699558019638061,0.5049471855163574
1629370447407,0.4586782157421112,-0.2483742088079452,-0.4288168549537658,0.5400729775428772
1629370447502,0.472904235124588,-0.2236802279949188,-0.3690955638885498,0.5361868143081665
1629370447610,0.4744365215301513,-0.2021616697311401,-0.3081714212894439,0.5224980711936951
1629370447642,0.4693540632724762,-0.176395833492279,-0.2640982568264007,0.5020791888237
1629370447733,0.4602589011192322,-0.1538689583539962,-0.2396539449691772,0.4780594110488891
1629370447818,0.4466627240180969,-0.1302046179771423,-0.2254146784543991,0.4518088102340698
1629370447955,0.4309042096138,-0.1006414517760276,-0.2171935588121414,0.4258672595024109
1629370448016,0.4210985004901886,-0.0678870677947998,-0.2165871560573578,0.3933347463607788
1629370448140,0.4253864288330078,-0.0372544452548027,-0.2222146987915039,0.3680533170700073
1629370448320,0.4355453550815582,-0.015876330435276,-0.237266331911087,0.3529419898986816
1629370448416,0.4458806216716766,-0.0005056060617789,-0.2549537420272827,0.3489730358123779
1629370448466,0.4450843632221222,0.0171335469931364,-0.2641289532184601,0.3583484292030334
1629370448587,0.4240337312221527,0.0329574719071388,-0.2517160475254059,0.3756479024887085
1629370448714,0.3799790143966675,0.0342698730528354,-0.2258024364709854,0.3861046731472015
1629370448794,0.3156475722789764,0.015148302540183,-0.2019407153129577,0.3818828761577606
1629370448846,0.2574223279953003,-0.0158700495958328,-0.1983694732189178,0.3676486313343048
1629370448913,0.2342638373374939,-0.050489667803049,-0.2154534608125686,0.3535434603691101
1629370449008,0.2495829463005066,-0.0832297429442405,-0.2465320527553558,0.3487888872623443
1629370449151,0.2744320034980774,-0.1130422353744506,-0.2804522514343261,0.3485251069068908
1629370449241,0.2919176518917084,-0.13041752576828,-0.2992946803569793,0.3501574993133545
1629370449353,0.2979605495929718,-0.1416821777820587,-0.2973595261573791,0.3552426695823669
1629370449426,0.2891840636730194,-0.1540917009115219,-0.2773366570472717,0.3593923151493072
1629370449504,0.2607389986515045,-0.161536619067192,-0.2482609152793884,0.3621801137924194
1629370449566,0.2148121148347854,-0.1487443596124649,-0.2235074788331985,0.3665793240070343
1629370449845,0.1671898365020752,-0.112703338265419,-0.2078742086887359,0.3735853433609009
1629370449924,0.1368031501770019,-0.069894790649414,-0.1982884556055069,0.3774495720863342
1629370450014,0.1349477767944336,-0.048072800040245,-0.1990469247102737,0.3721300959587097
1629370450088,0.1537023037672042,-0.0503839626908302,-0.2131857126951217,0.3554451465606689
1629370450151,0.1949924379587173,-0.0582657270133495,-0.2320697158575058,0.3345296084880829
1629370450242,0.2675793170928955,-0.0534793063998222,-0.2497394979000091,0.3223774135112762
1629370450338,0.3521952331066131,-0.041307371109724,-0.2491447031497955,0.3277877569198608
1629370450504,0.4220472276210785,-0.0174353569746017,-0.2238694876432418,0.340091735124588
1629370450594,0.4628190696239471,0.0161127634346485,-0.1816828995943069,0.3439562320709228
1629370450675,0.479710191488266,0.049990177154541,-0.1368227750062942,0.3447190225124359
1629370450729,0.4806502759456634,0.0734568163752555,-0.1073312908411026,0.3391256928443908
1629370450823,0.4753867387771606,0.0880360454320907,-0.1011217236518859,0.3298819065093994
1629370450985,0.4706688225269317,0.0953678861260414,-0.115651324391365,0.3245309591293335
1629370451154,0.4731376767158508,0.0975954607129097,-0.1399777829647064,0.3236528038978576
1629370451186,0.4874522686004638,0.0908375084400177,-0.1651141196489334,0.3232023119926452
1629370451264,0.5111953020095825,0.0752795115113258,-0.1820546835660934,0.3192658424377441
1629370451471,0.5354154706001282,0.0531731210649013,-0.1956782788038253,0.3126983344554901
1629370451533,0.5496926307678223,0.0337175466120243,-0.206875130534172,0.3021534383296966
1629370451637,0.5491107702255249,0.022211916744709,-0.2172948271036148,0.2822424471378326
1629370451747,0.53202223777771,0.0168538521975278,-0.2322190999984741,0.2405188530683517
1629370451818,0.4918340146541595,0.0149450246244668,-0.2536778450012207,0.1677024364471435
1629370451880,0.4206513464450836,0.0174507666379213,-0.2870807945728302,0.0597346909344196
1629370452000,0.3249973952770233,0.0129514494910836,-0.3302947282791137,-0.0594338402152061
1629370452096,0.2298379689455032,-0.0086850961670279,-0.3678411245346069,-0.1350254118442535
1629370452256,0.161002978682518,-0.046516690403223,-0.3848183453083038,-0.1545893549919128
1629370452305,0.1301125586032867,-0.0863432064652443,-0.3786850869655609,-0.14108507335186
1629370452365,0.1229336857795715,-0.1210315898060798,-0.3605318069458008,-0.1249080970883369
1629370452474,0.1257404237985611,-0.1511169523000717,-0.3440650105476379,-0.1211999803781509
1629370452550,0.1226642131805419,-0.1893880814313888,-0.3311085999011993,-0.1264029443264007
1629370452690,0.0939780995249748,-0.2433667182922363,-0.3211294114589691,-0.1348762512207031
1629370452804,0.0320927910506725,-0.3111326694488525,-0.3188935816287994,-0.1381643265485763
1629370452848,-0.0506783910095691,-0.2814688682556152,-0.2630417346954345,-0.1446248888969421
1629370453099,-0.14494688808918,-0.0219454430043697,-0.1135443821549415,-0.1513727307319641
1629370453214,-0.2168232500553131,0.3966874182224273,0.231613889336586,-0.1620784699916839
1629370453285,-0.254346638917923,0.4209356904029846,0.2584969103336334,-0.1649959832429886
1629370453352,-0.2722135484218597,0.4458833932876587,0.2871503233909607,-0.1617534607648849
1629370453426,-0.2705678939819336,0.4717907905578613,0.3170116245746612,-0.1510547399520874
1629370453532,-0.2608506977558136,0.4998849928379059,0.3467536568641662,-0.1434250026941299
1629370453671,-0.2374278008937835,0.5332746505737305,0.3736070394515991,-0.1533480733633041
1629370453759,-0.2075765132904052,0.5742807388305664,0.399131715297699,-0.1905587762594223
1629370453877,-0.1778261512517929,0.6232147216796875,0.4291039407253265,-0.2394753694534301
1629370453954,-0.1534841060638427,0.6798537969589233,0.4703719615936279,-0.2546001374721527
1629370454070,-0.1534841060638427,0.7454060912132263,0.472016841173172,-0.2546001374721527
1629370454162,-0.1534841060638427,0.8231179714202881,0.4739404916763305,-0.2546001374721527
1629370454236,-0.1534841060638427,0.9183990955352784,0.4792990982532501,-0.2546001374721527
1629370454326,-0.1534841060638427,0.9183990955352784,0.5395148992538452,-0.2546001374721527
1629370454380,-0.1534841060638427,0.9183990955352784,0.590549647808075,-0.2546001374721527
1629370454463,-0.1534841060638427,0.9183990955352784,0.5980176329612732,-0.2546001374721527
1629370454624,-0.1534841060638427,0.9183990955352784,0.5980176329612732,-0.2546001374721527
1629370454803,-0.1534841060638427,0.9183990955352784,0.5980176329612732,-0.2546001374721527
1629370454833,-0.1534841060638427,0.9183990955352784,0.5980176329612732,-0.2546001374721527
1629370454949,-0.1534841060638427,0.9183990955352784,0.5980176329612732,-0.2546001374721527
1629370455034,-0.1534841060638427,0.9183990955352784,0.5980176329612732,-0.2546001374721527
1629370455120,-0.1534841060638427,0.9183990955352784,0.5980176329612732,-0.2546001374721527
1629370455259,-0.1534841060638427,0.9183990955352784,0.5980176329612732,-0.2546001374721527
1629370455386,-0.1534841060638427,0.9183990955352784,0.5980176329612732,-0.2546001374721527
1629370455402,-0.1534841060638427,0.9183990955352784,0.5980176329612732,-0.2546001374721527
1629370455542,-0.1534841060638427,0.9183990955352784,0.5980176329612732,-0.2546001374721527
1629370455599,-0.1534841060638427,0.9183990955352784,0.5980176329612732,-0.2546001374721527
1629370455673,-0.1534841060638427,0.9183990955352784,0.5980176329612732,-0.2546001374721527
1629370455921,-0.1534841060638427,0.9183990955352784,0.5980176329612732,-0.2546001374721527
1629370456035,-0.1534841060638427,0.9183990955352784,0.5980176329612732,-0.2546001374721527
1629370456147,-0.1534841060638427,0.9183990955352784,0.5980176329612732,-0.2546001374721527
1629370456205,-0.1534841060638427,0.9183990955352784,0.5980176329612732,-0.2546001374721527
1629370456269,-0.1534841060638427,0.9183990955352784,0.5980176329612732,-0.2546001374721527
1629370456407,-0.1534841060638427,0.9183990955352784,0.5980176329612732,-0.2546001374721527
1629370456484,-0.1534841060638427,0.9183990955352784,0.5980176329612732,-0.2546001374721527
1629370456588,-0.1534841060638427,0.9183990955352784,0.5980176329612732,-0.2546001374721527
1629370456638,-0.1534841060638427,0.9183990955352784,0.5980176329612732,-0.2546001374721527
1629370456805,-0.1534841060638427,0.9183990955352784,0.5980176329612732,-0.2546001374721527
1629370456851,-0.1534841060638427,0.9183990955352784,0.5980176329612732,-0.2546001374721527
1629370457065,-0.1534841060638427,0.9183990955352784,0.5980176329612732,-0.2546001374721527
1629370457093,-0.1534841060638427,0.9183990955352784,0.5980176329612732,-0.2546001374721527
1629370457206,-0.1534841060638427,0.9183990955352784,0.5980176329612732,-0.2546001374721527
1629370457279,-0.1534841060638427,0.9183990955352784,0.5980176329612732,-0.2546001374721527
1629370457352,-0.1534841060638427,0.9183990955352784,0.5980176329612732,-0.2546001374721527
1629370457440,-0.1534841060638427,0.9183990955352784,0.4885042011737823,-0.2546001374721527
1629370457524,-0.1534841060638427,0.9183990955352784,0.4684812724590301,-0.2546001374721527
1629370457616,-0.1534841060638427,0.9183990955352784,0.4338897168636322,-0.2546001374721527
1629370457748,-0.1534841060638427,0.9183990955352784,0.4036852419376373,-0.2546001374721527
1629370457828,-0.1534841060638427,0.9183990955352784,0.3747259974479675,-0.2546001374721527
1629370458041,-0.1534841060638427,0.9183990955352784,0.364193707704544,-0.2546001374721527
1629370458232,-0.1534841060638427,0.9183990955352784,0.4079717695713043,-0.2546001374721527
1629370458358,-0.1534841060638427,0.9183990955352784,0.4079717695713043,-0.2546001374721527
1629370458471,-0.1534841060638427,0.9183990955352784,0.4079717695713043,-0.2546001374721527
1629370458562,-0.1534841060638427,0.9183990955352784,0.4216655790805816,-0.2546001374721527
1629370458610,-0.1534841060638427,0.9183990955352784,0.4331059157848358,-0.2546001374721527
1629370458688,-0.1534841060638427,0.9183990955352784,0.3872429728507995,-0.2546001374721527
1629370458792,-0.1534841060638427,0.9183990955352784,0.3872429728507995,-0.2546001374721527
1629370458845,-0.1534841060638427,0.9183990955352784,0.3872429728507995,-0.2546001374721527
1629370458912,-0.1534841060638427,0.9183990955352784,0.3872429728507995,-0.2546001374721527
1629370458973,-0.1534841060638427,0.9183990955352784,0.344572901725769,-0.2546001374721527
1629370459062,-0.1534841060638427,0.9183990955352784,0.337645411491394,-0.2546001374721527
1629370459159,-0.1534841060638427,0.9183990955352784,0.3659416437149048,-0.2546001374721527
1629370459270,-0.1534841060638427,0.9183990955352784,0.3659416437149048,-0.2546001374721527
1629370459406,-0.1534841060638427,0.9183990955352784,0.3659416437149048,-0.2546001374721527
1629370459434,-0.1534841060638427,0.9183990955352784,0.3659416437149048,-0.2546001374721527
1629370459560,-0.1534841060638427,0.9183990955352784,0.3659416437149048,-0.2546001374721527
1629370459666,-0.1534841060638427,0.9183990955352784,0.3659416437149048,-0.2546001374721527
1629370459817,-0.1534841060638427,0.9183990955352784,0.3659416437149048,-0.2546001374721527
1629370459871,-0.1534841060638427,0.9183990955352784,0.3659416437149048,-0.2546001374721527
1629370459978,-0.1534841060638427,0.9183990955352784,0.3659416437149048,-0.2546001374721527
1629370460143,-0.1534841060638427,0.9183990955352784,0.3659416437149048,-0.2546001374721527
1629370460221,-0.1534841060638427,0.9183990955352784,0.3659416437149048,-0.2546001374721527
1629370460402,-0.1534841060638427,0.9183990955352784,0.3659416437149048,-0.2546001374721527
1629370460503,-0.1534841060638427,0.9183990955352784,0.3659416437149048,-0.2546001374721527
1629370460568,-0.1534841060638427,0.9183990955352784,0.3659416437149048,-0.2546001374721527
1629370460617,-0.1534841060638427,0.9183990955352784,0.3659416437149048,-0.2546001374721527
1629370460739,-0.1534841060638427,0.9183990955352784,0.3659416437149048,-0.2546001374721527
1629370460784,-0.1534841060638427,0.9183990955352784,0.3659416437149048,-0.2546001374721527
1629370460846,-0.1534841060638427,0.9183990955352784,0.3659416437149048,-0.2546001374721527
1629370460958,-0.1534841060638427,0.9183990955352784,0.3659416437149048,-0.2546001374721527
1629370461064,-0.1534841060638427,0.9183990955352784,0.3659416437149048,-0.2546001374721527
1629370461183,-0.1534841060638427,0.9183990955352784,0.3659416437149048,-0.2546001374721527
1629370461301,-0.1534841060638427,0.9183990955352784,0.3659416437149048,-0.2546001374721527
1629370461404,-0.1534841060638427,0.9183990955352784,0.3659416437149048,-0.2546001374721527
1629370461488,-0.1534841060638427,0.9183990955352784,0.3659416437149048,-0.2546001374721527
1629370461626,0.9119089841842652,0.4367388486862182,0.232552632689476,-0.2546001374721527
1629370461654,0.8304005861282349,0.3565781116485595,0.2180610299110412,-0.2546001374721527
1629370461754,0.7587214112281799,0.2934223711490631,0.194719910621643,-0.2546001374721527
1629370461908,0.6982611417770386,0.2445338815450668,0.1775482147932052,-0.2546001374721527
1629370462001,0.6473292708396912,0.2074635326862335,0.170557752251625,-0.2546001374721527
1629370462070,0.6060889959335327,0.1760353296995163,0.1703433990478515,-0.1457862555980682
1629370462225,0.5746880769729614,0.1428391933441162,0.1690386682748794,-0.1422913521528244
1629370462292,0.5505082607269287,0.1087794154882431,0.1588493883609771,-0.1506476253271103
1629370462408,0.529880940914154,0.0758688449859619,0.1367739289999008,-0.1610545367002487
1629370462522,0.507875919342041,0.0461201705038547,0.1083886250853538,-0.1698746234178543
1629370462597,0.4827902615070343,0.0204556249082088,0.0793711394071579,-0.1795691698789596
1629370462692,0.4572571218013763,-0.001729643321596,0.0529725477099418,-0.1961995214223861
1629370462891,0.3008389770984649,-0.1792925894260406,0.0082847829908132,-0.2162418961524963
1629370463001,0.1230109483003616,-0.3555691242218017,-0.0334561429917812,-0.2374980747699737
1629370463096,-0.0018736761994659,-0.4293783009052276,-0.0801336094737052,-0.2567945122718811
1629370463203,-0.0277721192687749,-0.4043926894664764,-0.1294747740030288,-0.2697944641113281
1629370463367,0.0142508605495095,-0.3286906778812408,-0.1723271012306213,-0.2695910632610321
1629370463449,0.07177734375,-0.2336669415235519,-0.1972360163927078,-0.2759812474250793
1629370463521,0.1107250452041626,-0.1568605899810791,-0.2177537977695465,-0.2717564105987549
1629370463584,0.124358519911766,-0.1155692562460899,-0.2448707520961761,-0.2749716341495514
1629370463681,0.1165173426270484,-0.106505386531353,-0.2813525795936584,-0.2864485383033752
1629370463802,0.1138355135917663,-0.1063055247068405,-0.3120411932468414,-0.2222134917974472
1629370463894,0.1689953953027725,-0.1065800487995147,-0.3165477216243744,-0.029130095615983
1629370463987,0.3113651871681213,-0.0998416468501091,-0.2869139611721039,0.2453300207853317
1629370464097,0.4934052228927612,-0.0858478620648384,-0.238013282418251,0.4981707036495209
1629370464182,0.6486597061157227,-0.0726508870720863,-0.1930492669343948,0.6813980340957642
1629370464278,0.7526021003723145,-0.0605352185666561,-0.1607237458229065,0.796270489692688
1629370464355,0.8051895499229431,-0.0493639223277568,-0.1422632932662964,0.8531599044799805
1629370464454,0.8255866765975952,-0.0308875907212495,-0.1340334713459015,0.8820686340332031
1629370464532,0.833687424659729,-0.0097214160487055,-0.1284829378128051,0.9132273197174072
1629370464658,0.8351596593856812,-0.0035521551035344,-0.1216904520988464,0.916056990623474
1629370464760,0.8302718997001648,-0.0303750019520521,-0.1171375140547752,0.9181810021400452
1629370464851,0.8217137455940247,-0.0880279093980789,-0.1212999299168586,0.9195117950439452
1629370464982,0.8136258125305176,-0.1581254601478576,-0.1341695785522461,0.9194422960281372
1629370465030,0.8089832663536072,-0.215504914522171,-0.1529108881950378,0.9187808632850648
1629370465174,0.8082191348075867,-0.2382442504167556,-0.1740022450685501,0.9184147715568542
1629370465234,0.8062127232551575,-0.2438364923000335,-0.2029314786195755,0.9127249121665956
1629370465359,0.7919988036155701,-0.2393265962600708,-0.2421370148658752,0.8914848566055298
1629370465456,0.748372495174408,-0.233406662940979,-0.2891538143157959,0.834477961063385
1629370465557,0.6569557785987854,-0.2285737991333007,-0.3402084410190582,0.7165328860282898
1629370465676,0.5096105933189392,-0.2231243848800659,-0.3863982856273651,0.5152180790901184
1629370465754,0.323105126619339,-0.2246997058391571,-0.4241405129432678,0.1990490555763244
1629370465848,0.1764660626649856,-0.2420115172863006,-0.4495286345481872,-0.2486858367919922
1629370465957,0.1301923841238021,-0.2823407053947449,-0.4633792340755462,-0.2683531045913696
1629370466034,0.1294820010662078,-0.3414453864097595,-0.4725988507270813,-0.284045398235321
1629370466146,0.1298965215682983,-0.3963158428668976,-0.4831495285034179,-0.3149946928024292
1629370466291,0.133557841181755,-0.4206201732158661,-0.4917888343334198,-0.3310518264770508
1629370466470,0.142783060669899,-0.4210935235023498,-0.4941973984241485,-0.3272857666015625
1629370466525,0.160620167851448,-0.4225107729434967,-0.4851410984992981,-0.3052865266799927
1629370466596,0.1797790378332138,-0.4271157383918762,-0.4709640145301819,-0.276349276304245
1629370466661,0.1891121864318847,-0.4349544048309326,-0.464810162782669,-0.2448504418134689
1629370466884,0.1905242800712585,-0.4313951134681701,-0.4565236568450928,-0.2012522667646408
1629370466916,0.186214417219162,-0.4269858002662658,-0.4384753108024597,-0.1531353443861007
1629370467009,0.1834305524826049,-0.4273220896720886,-0.4012001156806946,-0.1100986674427986
1629370467118,0.1846106648445129,-0.4437255859375,-0.3557066619396209,-0.0792021229863166
1629370467204,0.1871065646409988,-0.4748511016368866,-0.3130600154399872,-0.0624824725091457
1629370467298,0.1862921118736267,-0.5069628953933716,-0.2862996459007263,-0.0521358102560043
1629370467434,0.1691825538873672,-0.5179000496864319,-0.2769847512245178,-0.0488823913037776
1629370467505,0.1340011656284332,-0.5131416320800781,-0.2781833112239837,-0.0430784709751606
1629370467610,0.0889541059732437,-0.5063904523849487,-0.285685122013092,-0.034582145512104
1629370467682,0.0478563606739044,-0.5061788558959961,-0.2991945445537567,-0.0267557725310325
1629370467749,0.0200361758470535,-0.5101987719535828,-0.3158020973205566,-0.0210464559495449
1629370467930,0.0153544275090098,-0.4989981353282928,-0.3358978927135467,-0.0201860629022121
1629370468072,0.0279779862612485,-0.4443107843399048,-0.3601575791835785,-0.026432329788804
1629370468177,0.0480821654200553,-0.359903484582901,-0.3853534758090973,-0.0378694534301757
1629370468261,0.0688674598932266,-0.2747122049331665,-0.4037444293498993,-0.0550024732947349
1629370468344,0.0842119231820106,-0.2194714248180389,-0.4230684340000152,-0.0861164480447769
1629370468403,0.0941524654626846,-0.1946755349636078,-0.4478459656238556,-0.1285601407289505
1629370468476,0.0968253538012504,-0.1923671662807464,-0.4901275932788849,-0.1655514985322952
1629370468607,0.0949573367834091,-0.1831733286380767,-0.5299608707427979,-0.1897437125444412
1629370468689,0.0930405929684639,-0.1116243749856948,-0.4857538044452667,-0.1937319934368133
1629370468861,0.0838643759489059,0.0590499155223369,-0.2351077795028686,-0.1862211674451828
1629370468955,0.0760138407349586,0.2663048207759857,0.0785071551799774,-0.1651692986488342
1629370469049,0.0773676931858062,0.439956784248352,0.3192223012447357,-0.1452413648366928
1629370469123,0.0954076051712036,0.5566024780273438,0.4732980132102966,-0.1306775510311126
1629370469274,0.1307763159275055,0.620122492313385,0.5565141439437866,-0.1303596496582031
1629370469321,0.1696547865867614,0.647512674331665,0.5905433893203735,-0.1553707122802734
1629370469474,0.1927469819784164,0.655386209487915,0.600646436214447,-0.2032610327005386
1629370469509,0.184596374630928,0.6527737975120544,0.6049292087554932,-0.2414472848176956
1629370469625,0.184596374630928,0.6449587345123291,0.610241711139679,-0.2414472848176956
1629370469707,0.184596374630928,0.6348251700401306,0.615922749042511,-0.2414472848176956
1629370469824,0.184596374630928,0.6262860894203186,0.6219587326049805,-0.2414472848176956
1629370469981,0.184596374630928,0.6212234497070312,0.626936674118042,-0.2414472848176956
1629370470031,0.184596374630928,0.6187970638275146,0.6298184990882874,-0.2414472848176956
1629370470174,0.2537284791469574,0.6149682402610779,0.6290328502655029,0.0842069685459137
1629370470223,0.2285278141498565,0.6004096269607544,0.620980441570282,0.038238525390625
1629370470308,0.2087859064340591,0.5562403202056885,0.5907289385795593,-0.0158632602542638
1629370470538,0.2019455283880233,0.4606627225875854,0.5163561701774597,-0.0659628957509994
1629370470663,0.2139154970645904,0.2946279644966125,0.3825036883354187,-0.1052029877901077
1629370470743,0.2289280146360397,0.046568613499403,0.1868909895420074,-0.1373961865901947
1629370470802,0.2334140092134475,-0.2695943117141723,-0.0383796878159046,-0.1595228761434555
1629370470858,0.2247829288244247,-0.5944846868515015,-0.2053702175617218,-0.1677225530147552
1629370470933,0.2137168496847152,-0.8346551060676575,-0.2697921395301819,-0.1598299890756607
1629370471072,0.2129529267549514,-0.9395928382873536,-0.2905085682868957,-0.1395697593688964
1629370471167,0.2202861756086349,-0.979152262210846,-0.3151220977306366,-0.1250444650650024
1629370471305,0.2345244288444519,-1.0008312463760376,-0.3363239169120788,-0.1198859065771102
1629370471352,0.2463046610355377,-1.02595853805542,-0.3495555520057678,-0.1434484124183654
1629370471495,0.2535967826843261,-1.0393610000610352,-0.3490862548351288,-0.1727270931005478
1629370471556,0.252776950597763,-1.016478180885315,-0.3401407599449157,-0.1989617347717285
1629370471684,0.2451415956020355,-0.9598234295845032,-0.3356190621852875,-0.2187967449426651
1629370471777,0.2373641431331634,-0.8992844223976135,-0.343761682510376,-0.2326016128063202
1629370471847,0.2369818240404129,-0.8402203917503357,-0.3657269477844238,-0.2414076775312423
1629370471988,0.2469278126955032,-0.7877299189567566,-0.3935991525650024,-0.2476677894592285
1629370472035,0.2567946016788482,-0.7335138320922852,-0.422105610370636,-0.2525536715984344
1629370472143,0.2634052038192749,-0.6725115180015564,-0.4358105659484863,-0.2511436641216278
1629370472286,0.2656952738761902,-0.618610680103302,-0.432257205247879,-0.2515890896320343
1629370472382,0.2638039588928222,-0.5859950184822083,-0.4206132590770721,-0.2646238505840301
1629370472456,0.2584371268749237,-0.5638012290000916,-0.4116737842559814,-0.2980760335922241
1629370472609,0.2467644214630127,-0.5386211276054382,-0.4053622484207153,-0.351981520652771
1629370472692,0.2308309674263,-0.5043116807937622,-0.3993596732616424,-0.4005934298038482
1629370472768,0.2019611448049545,-0.4664496779441833,-0.4048781096935272,-0.4242844879627228
1629370472886,0.1606561839580536,-0.4360360205173492,-0.4318934679031372,-0.4232085049152374
1629370473018,0.1171429231762886,-0.4259333610534668,-0.4761683642864227,-0.4144332408905029
1629370473083,0.0864046737551689,-0.4346790015697479,-0.5244302749633789,-0.4049436151981354
1629370473193,0.0715104267001152,-0.4550506174564361,-0.5542557835578918,-0.3898287713527679
1629370473274,0.0618061013519763,-0.4765761792659759,-0.5551260113716125,-0.3667958378791809
1629370473382,0.0399626567959785,-0.4958094954490661,-0.5391042232513428,-0.3409095108509063
1629370473525,-0.0092371748760342,-0.5040850043296814,-0.5231849551200867,-0.3166327178478241
1629370473625,-0.0837408453226089,-0.5051689147949219,-0.5088104009628296,-0.2906619906425476
1629370473672,-0.1705396473407745,-0.5114294290542603,-0.4971959590911865,-0.2596997618675232
1629370473846,-0.2405554354190826,-0.5235413908958435,-0.4849578142166137,-0.2175123691558838
1629370473877,-0.266775369644165,-0.5314585566520691,-0.4734777808189392,-0.1684564799070358
1629370473957,-0.2504468560218811,-0.5353361964225769,-0.4655750095844269,-0.1185903847217559
1629370474143,-0.1943479478359222,-0.5385971069335938,-0.4615324735641479,-0.0664239674806594
1629370474223,-0.1240852028131485,-0.541650652885437,-0.4545799791812897,-0.0125669846311211
1629370474285,-0.0435960292816162,-0.5415636301040649,-0.4391195178031921,0.0347503423690795
1629370474394,0.0264590643346309,-0.5248446464538574,-0.421856552362442,0.0641310513019561
1629370474520,0.0762126296758651,-0.4858158826828003,-0.4084563255310058,0.0763764008879661
1629370474580,0.1107459068298339,-0.4395333528518677,-0.3993516564369201,0.0742986872792244
1629370474692,0.1308480948209762,-0.4014412760734558,-0.3908491134643554,0.0648331493139267
1629370474824,0.1541663408279419,-0.3786352276802063,-0.3858930170536041,0.0542276725172996
1629370474926,0.1903037875890731,-0.3648324012756347,-0.3873084783554077,0.0462788864970207
1629370474964,0.2313539683818817,-0.3562130033969879,-0.3961420059204101,0.0397883020341396
1629370475090,0.2628485858440399,-0.3550474345684051,-0.4104479253292084,0.0306754726916551
1629370475206,0.280425876379013,-0.3605632781982422,-0.430939108133316,0.0139072565361857
1629370475343,0.2867102324962616,-0.3701440095901489,-0.457822322845459,-0.0143067631870508
1629370475505,0.2892668843269348,-0.3757959604263305,-0.4907623529434204,-0.0520962961018085
1629370475548,0.2840490937232971,-0.3760673105716705,-0.5245371460914612,-0.0975024923682212
1629370475662,0.2644494473934173,-0.3741655647754669,-0.5636977553367615,-0.1581996381282806
1629370475750,0.2372243851423263,-0.3726665377616882,-0.6194076538085938,-0.2416109144687652
1629370475846,0.2054584175348281,-0.378487229347229,-0.6957605481147766,-0.353158175945282
1629370475950,0.1752752214670181,-0.3959317207336426,-0.7777390480041504,-0.4627689123153686
1629370476058,0.1583615392446518,-0.4242352545261383,-0.8544008135795593,-0.5354564189910889
1629370476158,0.1492518931627273,-0.4531467258930206,-0.9131135940551758,-0.5489296317100525
1629370476191,0.1448154300451278,-0.4699773490428924,-0.9510623216629028,-0.5292273759841919
1629370476319,0.130913108587265,-0.470120757818222,-0.9695180654525756,-0.5037730932235718
1629370476412,0.0974481478333473,-0.4650394320487976,-0.9751838445663452,-0.4878969490528106
1629370476553,0.0489927344024181,-0.4679196774959564,-0.9693169593811036,-0.4802562892436981
1629370476635,0.0054470207542181,-0.4754265248775482,-0.9501241445541382,-0.4773374199867248
1629370476742,-0.0218821950256824,-0.4777403771877289,-0.9177331328392028,-0.4764380753040313
1629370476830,-0.036478865891695,-0.4685733616352081,-0.877190351486206,-0.4751169085502624
1629370477016,-0.0472363531589508,-0.4468569159507751,-0.8292481899261475,-0.4595082402229309
1629370477083,-0.045101661235094,-0.4217846691608429,-0.7806920409202576,-0.4318719804286957
1629370477166,-0.0384814068675041,-0.3990292847156524,-0.7397105693817139,-0.389787882566452
1629370477320,-0.0398717559874057,-0.3876781463623047,-0.712473452091217,-0.3452129960060119
1629370477396,-0.0522992610931396,-0.3745532631874084,-0.6913567185401917,-0.3053235411643982
1629370477483,-0.0684999823570251,-0.3538250625133514,-0.6648247241973877,-0.2741619348526001
1629370477549,-0.0928411409258842,-0.3282586634159088,-0.6278938055038452,-0.2591690719127655
1629370477619,-0.1168514788150787,-0.3080112934112549,-0.588355541229248,-0.2581138014793396
1629370477760,-0.1293670088052749,-0.296076089143753,-0.5559226274490356,-0.2613075077533722
1629370477891,-0.1276714652776718,-0.2906891107559204,-0.5344103574752808,-0.2596601545810699
1629370477975,-0.108629859983921,-0.2867295742034912,-0.5221909284591675,-0.2500993013381958
1629370478179,-0.0745474025607109,-0.2765916585922241,-0.5173203349113464,-0.2358825802803039
1629370478297,-0.0406125895678997,-0.2604250907897949,-0.5201780796051025,-0.2214314639568328
1629370478388,-0.0135133247822523,-0.2456428110599517,-0.5228163003921509,-0.2070486098527908
1629370478477,0.0050065666437149,-0.2338084280490875,-0.5176703333854675,-0.1889443546533584
1629370478559,0.0071535655297338,-0.2313299924135208,-0.5035903453826904,-0.1734245717525482
1629370478655,-0.0078724604099988,-0.2366541773080825,-0.4862037003040313,-0.1626531928777694
1629370478734,-0.031587678939104,-0.2514768540859222,-0.4714357554912567,-0.1633434295654297
1629370478840,-0.0607844702899456,-0.2706477344036102,-0.458248496055603,-0.1719836145639419
1629370478895,-0.0856763571500778,-0.28712859749794,-0.4470569789409637,-0.1827477514743805
1629370478971,-0.1008946970105171,-0.2995122075080871,-0.4443807601928711,-0.1934897154569625
1629370479067,-0.1002075597643852,-0.3106446266174316,-0.4517079889774322,-0.1971143186092376
1629370479146,-0.0876304134726524,-0.3202055394649505,-0.4659156203269958,-0.1870610117912292
1629370479291,-0.0794069617986679,-0.3288966417312622,-0.4874519407749176,-0.1686398088932037
1629370479385,-0.0826863572001457,-0.3318793475627899,-0.5141397714614868,-0.1498309820890426
1629370479453,-0.1037902310490608,-0.3290190696716308,-0.538304328918457,-0.138178601861
1629370479574,-0.1425814181566238,-0.3270312547683716,-0.5526522397994995,-0.1329851299524307
1629370479714,-0.1901594549417495,-0.3314162492752075,-0.5556979775428772,-0.1334508806467056
1629370479810,-0.2391673028469085,-0.3368931412696838,-0.5623545050621033,-0.1375762373208999
1629370479910,-0.2776868343353271,-0.3411086797714233,-0.5848950147628784,-0.1454366147518158
1629370480017,-0.2766635715961456,-0.3402120769023895,-0.6272563934326172,-0.157015711069107
1629370480102,-0.2171460837125778,-0.3343173563480377,-0.6873931884765625,-0.171800747513771
1629370480226,-0.1963895410299301,-0.320625364780426,-0.7471985220909119,-0.1722256988286972
1629370480337,-0.1703826189041137,-0.2961877286434173,-0.7305105328559875,-0.1736237108707428
1629370480438,-0.1458965539932251,-0.2266141474246978,-0.588508665561676,-0.1753095090389251
1629370480525,-0.1282485425472259,-0.0606120377779006,-0.1976764798164367,-0.1768772602081298
1629370480616,-0.1280468106269836,0.179137572646141,0.2107062637805938,-0.1779878437519073
1629370480685,-0.1480790227651596,0.4013368785381317,0.5224164724349976,-0.1870444416999817
1629370480841,-0.1727349907159805,0.4264910519123077,0.7316181063652039,-0.2089474946260452
1629370480907,-0.1882969737052917,0.4537832140922546,0.8580940365791321,-0.2471896409988403
1629370481009,-0.1868762820959091,0.4829243421554565,0.8876528739929199,-0.2898388803005218
1629370481089,-0.1731215864419937,0.5174697637557983,0.9194657802581788,-0.3319266140460968
1629370481172,-0.1413652598857879,0.5317205786705017,0.953819990158081,-0.3622932136058807
1629370481256,-0.1413652598857879,0.5347855687141418,0.9912165999412536,-0.3622932136058807
1629370481409,-0.1413652598857879,0.5349985957145691,0.9924848079681396,-0.3622932136058807
1629370481518,-0.1413652598857879,0.5335311889648438,0.9930664896965028,-0.3622932136058807
1629370481613,-0.1413652598857879,0.5312676429748535,0.9942063093185424,-0.3622932136058807
1629370481700,-0.1413652598857879,0.5301320552825928,0.9962195754051208,-0.3622932136058807
1629370481853,-0.1413652598857879,0.5297054648399353,0.9976075887680054,-0.3622932136058807
1629370481945,-0.1413652598857879,0.5185940861701965,0.995926558971405,-0.2675061225891113
1629370482042,0.118084467947483,0.4706511497497558,0.9755271673202516,-0.2494499683380127
1629370482138,0.1201895773410797,0.3297973573207855,0.9106888771057128,-0.2363241612911224
1629370482191,0.1052349582314491,-0.0692218691110611,0.7657175064086914,-0.2286039590835571
1629370482324,0.0902658849954605,-0.0963430404663086,0.4802851974964142,-0.2134798765182495
1629370482449,0.0815982297062873,-0.1177423894405365,-0.2664682865142822,-0.1814291179180145
1629370482496,0.0776630714535713,-0.1357129365205764,-0.2899151742458343,-0.1401726156473159
1629370482620,0.0709008425474166,-0.2865394353866577,-0.3090711534023285,-0.1039111092686653
1629370482744,0.0580333769321441,-0.377082884311676,-0.3272489607334137,-0.0881571397185325
1629370482839,0.040563341230154,-0.4026180505752563,-0.3416591286659241,-0.0926311388611793
1629370482890,0.0230175703763961,-0.4046014249324798,-0.3473193049430847,-0.1106493547558784
1629370483089,0.0100041916593909,-0.3967654109001159,-0.3394262492656708,-0.1340715140104293
1629370483164,0.0004861581837758,-0.3935184180736542,-0.3419547975063324,-0.1549246311187744
1629370483314,-0.015604761429131,-0.4087596833705902,-0.3682335913181305,-0.162630021572113
1629370483415,-0.0390886440873146,-0.4407654702663421,-0.4236855208873749,-0.162043422460556
1629370483508,-0.0622055120766162,-0.4700408577919006,-0.5055269002914429,-0.1613869071006775
1629370483606,-0.0707958787679672,-0.4816750884056091,-0.6008725166320801,-0.1630688309669494
1629370483673,-0.0674675107002258,-0.4725524485111236,-0.6870543956756592,-0.1663528084754943
1629370483736,-0.046406228095293,-0.4599895477294922,-0.7465103268623352,-0.1698511242866516
1629370483844,-0.0185735542327165,-0.4543579518795013,-0.7761276960372925,-0.1780875921249389
1629370484010,0.0116411792114377,-0.4581493437290191,-0.7892388105392456,-0.1978934854269027
1629370484112,0.0386877506971359,-0.4619100987911224,-0.7858492732048035,-0.2220009118318557
1629370484215,0.0636651217937469,-0.4593982696533203,-0.766659140586853,-0.236409530043602
1629370484302,0.0827985182404518,-0.4532939791679382,-0.7368674278259277,-0.2262312173843383
1629370484412,0.0924037471413612,-0.4537725150585174,-0.7205402255058289,-0.2004549950361251
1629370484533,0.1015502512454986,-0.4705159068107605,-0.7292237281799316,-0.1685553938150406
1629370484636,0.1154133826494216,-0.5000688433647156,-0.7532083988189697,-0.1434176862239837
1629370484728,0.1317355334758758,-0.5271810293197632,-0.761958658695221,-0.1312052309513092
1629370484821,0.1477567106485366,-0.5283392071723938,-0.721218466758728,-0.132369726896286
1629370484888,0.1638639420270919,-0.4954838156700134,-0.6449612975120544,-0.1423533856868744
1629370484961,0.1738608628511428,-0.4422487020492553,-0.571325421333313,-0.1544568985700607
1629370485078,0.1692045331001281,-0.3881645798683166,-0.5113808512687683,-0.1659678816795349
1629370485158,0.1540589034557342,-0.3431654274463653,-0.4732343554496765,-0.170526772737503
1629370485288,0.1336462944746017,-0.3071354329586029,-0.4354537427425384,-0.1654732674360275
1629370485350,0.1098037734627723,-0.2748421728610992,-0.393204391002655,-0.1537696868181228
1629370485513,0.0802928209304809,-0.2440660297870636,-0.3555476069450378,-0.1434807181358337
1629370485559,0.0468830242753028,-0.214304894208908,-0.3312255442142486,-0.1492234468460083
1629370485641,0.0218169018626213,-0.1884087324142456,-0.3255802392959595,-0.1772357374429702
1629370485824,0.0234275758266448,-0.1607455611228943,-0.322622001171112,-0.2174098938703537
1629370485872,0.0521807745099067,-0.1169563829898834,-0.2950091660022735,-0.245916485786438
1629370486039,0.0795881748199462,-0.0600794069468975,-0.2359164506196975,-0.2536788880825043
1629370486116,0.085816666483879,-0.0078016384504735,-0.1668182760477066,-0.2482282668352127
1629370486175,0.0684447810053825,0.0243499036878347,-0.1137738972902298,-0.2355342656373977
1629370486270,0.0396281890571117,0.0372189804911613,-0.0860199183225631,-0.2128735184669494
1629370486468,0.0137852299958467,0.0339331589639186,-0.0798871219158172,-0.1813865900039672
1629370486560,0.0033596716821193,0.0193883888423442,-0.0842108204960823,-0.1498403400182724
1629370486678,0.0247067492455244,0.0051973536610603,-0.0895985588431358,-0.1175763681530952
1629370486752,0.069274827837944,-0.0085694417357444,-0.0923094004392623,-0.0899188965559005
1629370486841,0.1154438480734825,-0.0170848425477743,-0.0980354323983192,-0.0697486400604248
1629370486971,0.1489883065223693,-0.0188320279121398,-0.1082828193902969,-0.0558232106268405
1629370487016,0.1630077809095382,-0.0190533325076103,-0.1228561475872993,-0.0424075759947299
1629370487156,0.1644979268312454,-0.0196124669164419,-0.1369828432798385,-0.0244105588644742
1629370487192,0.1532882452011108,-0.0230306629091501,-0.1417679190635681,-0.0010272554354742
1629370487269,0.1277310848236084,-0.0367163717746734,-0.1422136276960373,0.0172754134982824
1629370487429,0.0924065187573432,-0.072292149066925,-0.1583146154880523,0.0204476378858089
1629370487505,0.0599853284657001,-0.1314669847488403,-0.1983220279216766,0.0080817053094506
1629370487603,0.0446084961295127,-0.2029186785221099,-0.257224828004837,-0.0060174223035573
1629370487744,0.0529310852289199,-0.2588408589363098,-0.3131153583526611,-0.0129808522760868
1629370487775,0.0750645548105239,-0.2909423112869262,-0.3470403254032135,-0.0174712110310792
1629370487921,0.0956866666674614,-0.2817156612873077,-0.3419893980026245,-0.0153718786314129
1629370488010,0.1078720912337303,-0.2190489619970321,-0.2793193757534027,-0.0173525344580411
1629370488107,0.0981538519263267,-0.0588501133024692,-0.0918595194816589,-0.0248858872801065
1629370488241,0.0604805052280426,0.1566435396671295,0.1773864924907684,-0.037195723503828
1629370488305,-0.0016051878919824,0.3580263555049896,0.4125802516937256,-0.0541530661284923
1629370488450,-0.0724188908934593,0.5099986791610718,0.5786831974983215,-0.0754966810345649
1629370488511,-0.1162568628787994,0.6182787418365479,0.6791386008262634,-0.1031890287995338
1629370488633,-0.1221724674105644,0.7030747532844543,0.7316526770591736,-0.1398431360721588
1629370488762,-0.097169205546379,0.7727403044700623,0.7567163109779358,-0.1950915157794952
1629370488861,-0.0577857792377471,0.7994913458824158,0.7689662575721741,-0.2638728320598602
1629370488936,-0.015720497816801,0.8294578194618225,0.7768958210945129,-0.315559834241867
1629370489052,-0.015720497816801,0.8479119539260864,0.8047354817390442,-0.315559834241867
1629370489117,-0.015720497816801,0.866539478302002,0.8345896601676941,-0.315559834241867
1629370489312,-0.015720497816801,0.8950153589248657,0.8666194677352905,-0.315559834241867
1629370489430,-0.015720497816801,0.9391434192657472,0.9011951684951782,-0.315559834241867
1629370489476,-0.015720497816801,0.9839184880256652,0.9380923509597778,-0.315559834241867
1629370489547,-0.015720497816801,1.0222933292388916,0.975626528263092,-0.315559834241867
1629370489613,-0.015720497816801,1.0422582626342771,1.0018494129180908,-0.315559834241867
1629370489693,-0.015720497816801,1.0493837594985962,0.997047245502472,-0.315559834241867
1629370489804,-0.015720497816801,1.040972113609314,0.94587641954422,-0.315559834241867
1629370489919,-0.015720497816801,1.0225629806518557,0.8396235704421997,-0.315559834241867
1629370490050,-0.015720497816801,1.0014171600341797,0.6408479809761047,-0.315559834241867
1629370490164,-0.015720497816801,0.9336414933204652,0.4676259756088257,-0.315559834241867
1629370490255,-0.015720497816801,0.842160165309906,0.3570867776870727,-0.315559834241867
1629370490349,-0.015720497816801,0.7926390767097473,0.2857341468334198,-0.315559834241867
1629370490432,-0.015720497816801,0.7479245066642761,0.2201070040464401,-0.315559834241867
1629370490557,-0.015720497816801,0.7156534790992737,0.1698761731386184,0.2300940752029419
1629370490672,0.079213261604309,0.6802976131439209,0.1351369023323059,0.1487067937850952
1629370490738,0.0266247279942035,0.6178370118141174,0.1118260994553566,0.0760285258293151
1629370490823,-0.0251294560730457,0.4882092475891113,0.0892286226153373,0.0126193286851048
1629370490975,-0.0710348859429359,0.269812524318695,0.0603260658681392,-0.0359793417155742
1629370491051,-0.1101016625761985,-0.1776833534240722,0.0284382831305265,-0.0667769685387611
1629370491166,-0.1394356340169906,-0.1254915744066238,4.559535227599554e-05,-0.0807091444730758
1629370491293,-0.1580900102853775,-0.0808444023132324,-0.0224203988909721,-0.0887725055217742
1629370491385,-0.1652159988880157,-0.0595462918281555,-0.0401282832026481,-0.0953000411391258
1629370491515,-0.1652159988880157,-0.0306507628411054,-0.0446299724280834,-0.0953000411391258
1629370491578,-0.1652159988880157,0.0341624058783054,-0.0484449341893196,-0.0953000411391258
1629370491699,-0.1652159988880157,0.18239426612854,0.0793748274445533,-0.0953000411391258
1629370491859,-0.1652159988880157,0.4539295136928558,0.3111890852451324,-0.2150443494319915
1629370491932,-0.24883334338665,0.481756329536438,0.5390256643295288,-0.3449426293373108
1629370492025,-0.3117491900920868,0.512565553188324,0.7018128633499146,-0.4280149340629577
1629370492066,-0.3620804846286773,0.5462774038314819,0.7972590923309326,-0.4495869576931
1629370492195,-0.4106994271278381,0.582642674446106,0.8455567359924316,-0.4311337769031524
1629370492317,-0.4351036250591278,0.6220477223396301,0.869973361492157,-0.3823475539684295
1629370492442,-0.4302492141723633,0.6640435457229614,0.885917067527771,-0.3134941160678863
1629370492552,-0.4046411216259002,0.7077413201332092,0.8937786817550659,-0.245707631111145
1629370492619,-0.4046411216259002,0.7530879378318787,0.8983532786369324,-0.245707631111145
1629370492706,-0.4046411216259002,0.7600738406181335,0.9000460505485535,-0.245707631111145
1629370492816,-0.4046411216259002,0.7560619711875916,0.9004040360450745,-0.245707631111145
1629370492912,-0.4046411216259002,0.748457670211792,0.8997406959533691,-0.245707631111145
1629370493036,0.2444677501916885,0.734944760799408,0.8976559638977051,-0.245707631111145
1629370493119,0.3596190214157104,0.70802903175354,0.8901973366737366,0.4770911335945129
1629370493207,0.5657882690429688,0.6170969605445862,0.8660802841186523,0.5471786856651306
1629370493395,0.7910468578338623,0.3264804482460022,0.8107941746711731,0.643943727016449
1629370493470,1.0105478763580322,0.5283453464508057,0.7105953097343445,0.7795317769050598
1629370493547,1.0105478763580322,0.6887303590774536,0.56861412525177,0.9256832003593444
1629370493634,1.0105478763580322,0.786906898021698,0.4136270880699157,0.9256832003593444
1629370493740,1.0105478763580322,0.8314724564552307,0.2820817530155182,0.9256832003593444
1629370493846,1.0105478763580322,0.8438237309455872,0.1778617650270462,0.9256832003593444
1629370493894,1.0105478763580322,0.841912031173706,0.0803053304553031,0.9256832003593444
1629370494039,1.0105478763580322,0.8322998285293579,0.0197383053600788,0.9256832003593444
1629370494118,1.0105478763580322,0.8138518929481506,-0.0174241699278354,0.9256832003593444
1629370494241,1.0622111558914185,0.8108606934547424,-0.0288396161049604,0.9256832003593444
1629370494358,1.120680332183838,0.8347314596176147,0.0100480392575263,0.969581425189972
1629370494453,1.1887078285217283,0.8638200163841248,0.1590814441442489,1.019477128982544
1629370494515,1.2726750373840332,0.8962447047233582,0.4208146631717682,1.0757207870483398
1629370494626,1.2726750373840332,0.929892897605896,0.6850149035453796,1.141594171524048
1629370494777,1.2726750373840332,0.959413766860962,0.8870552778244019,1.141594171524048
1629370494835,1.2726750373840332,0.9722821712493896,0.9119424819946288,1.141594171524048
1629370494940,1.2726750373840332,0.9559035897254944,0.9986284375190736,1.141594171524048
1629370495003,1.2726750373840332,0.8978543877601624,1.030688762664795,1.141594171524048
1629370495141,1.2726750373840332,0.8022999167442322,1.0379691123962402,1.141594171524048
1629370495207,1.2726750373840332,0.6929996013641357,1.037561058998108,1.141594171524048
1629370495314,1.2726750373840332,0.5890129804611206,1.0381048917770386,1.141594171524048
1629370495442,1.2726750373840332,0.5890129804611206,1.0396918058395386,1.141594171524048
1629370495524,1.2726750373840332,0.5890129804611206,1.041988730430603,1.141594171524048
1629370495725,1.2726750373840332,0.5890129804611206,1.044525980949402,1.141594171524048
1629370495841,1.2726750373840332,0.5890129804611206,1.0463218688964844,1.141594171524048
1629370495909,0.3699910640716553,0.004572729114443,1.0433286428451538,-0.0072527672164142
1629370496012,0.3468044102191925,-0.0003896690614055,1.0257905721664429,0.0076509467326104
1629370496124,0.308583527803421,-0.0166949778795242,0.9702765941619872,-0.0108544807881116
1629370496185,0.2662008702754974,-0.0341325663030147,0.8431985378265381,-0.0476998649537563
1629370496296,0.2279892712831497,-0.0435905903577804,0.5877189040184021,-0.0797190964221954
1629370496406,0.2279892712831497,-0.0291866119951009,0.5592608451843262,-0.0797190964221954
1629370496497,0.2279892712831497,0.0032037317287176,0.2541914880275726,-0.0797190964221954
1629370496583,0.2279892712831497,0.0665997862815857,-0.0434145629405975,-0.0797190964221954
1629370496696,0.2279892712831497,0.2009366154670715,-0.2341122478246688,-0.0797190964221954
1629370496760,0.2279892712831497,0.2009366154670715,-0.2988608181476593,-0.0797190964221954
1629370496843,0.2279892712831497,0.2009366154670715,-0.3118942379951477,-0.0797190964221954
1629370496970,0.2279892712831497,0.2009366154670715,-0.2060733437538147,-0.0797190964221954
1629370497098,0.1910466700792312,0.2121602147817611,-0.0530353598296642,-0.0848797708749771
1629370497128,0.1588510870933532,0.2293010950088501,-0.0611417554318904,-0.0741387084126472
1629370497275,0.1069985330104827,0.2500014305114746,-0.0658079236745834,-0.1004378199577331
1629370497460,0.0156186148524284,0.2735059261322021,-0.0586448423564434,-0.1667474806308746
1629370497494,0.0156186148524284,0.3030189573764801,-0.037702303379774,-0.1667474806308746
1629370497570,0.0156186148524284,0.3452447056770324,-0.0079130297526717,-0.1667474806308746
1629370497680,0.0156186148524284,0.4010166525840759,0.0296979621052742,-0.1667474806308746
1629370497834,0.0156186148524284,0.9024067521095276,0.0724579244852066,-0.1667474806308746
1629370498004,0.0156186148524284,1.070406794548035,0.1217202767729759,-0.1667474806308746
1629370498095,0.0156186148524284,1.1328004598617554,0.1808684468269348,-0.1667474806308746
1629370498216,0.0156186148524284,1.1418449878692627,0.2533519864082336,-0.1667474806308746
1629370498312,0.0156186148524284,1.1181490421295166,0.2922711074352264,-0.1667474806308746
1629370498395,0.0156186148524284,1.0485776662826538,0.304999828338623,-0.1667474806308746
1629370498460,0.0156186148524284,0.989806354045868,0.2860651910305023,-0.1667474806308746
1629370498580,0.0156186148524284,0.9394159913063048,0.1443916261196136,-0.1667474806308746
1629370498659,0.0156186148524284,0.8965985774993896,-0.3345692753791809,-0.1667474806308746
1629370498748,0.0156186148524284,0.8965985774993896,-0.3187265992164612,-0.1667474806308746
1629370498837,0.0156186148524284,0.8965985774993896,-0.2263784557580948,-0.1667474806308746
1629370498911,0.0156186148524284,0.8965985774993896,-0.0226616319268941,-0.1667474806308746
1629370498977,0.0156186148524284,0.8965985774993896,0.2163366675376892,-0.1667474806308746
1629370499071,0.0156186148524284,0.8965985774993896,0.4128237068653106,-0.1667474806308746
1629370499171,0.0156186148524284,0.8965985774993896,0.5476812720298767,-0.1667474806308746
1629370499268,0.0156186148524284,0.7285410761833191,0.6216154098510742,-0.1667474806308746
1629370499469,0.0156186148524284,0.5123915672302246,0.6498333215713501,-0.1667474806308746
1629370499539,0.0156186148524284,0.3022254109382629,0.6555830240249634,-0.1667474806308746
1629370499631,0.0156186148524284,0.1962019801139831,0.659700334072113,-0.1667474806308746
1629370499732,0.0156186148524284,0.1221585720777511,0.6855639219284058,-0.1667474806308746
1629370499827,0.0156186148524284,0.1221585720777511,0.7178634405136108,-0.1667474806308746
1629370499942,0.0156186148524284,0.1221585720777511,0.7596582770347595,-0.1667474806308746
1629370500003,0.0156186148524284,0.1221585720777511,0.801641047000885,-0.1667474806308746
1629370500113,0.0156186148524284,0.1221585720777511,0.8329534530639648,-0.1667474806308746
1629370500233,0.0156186148524284,0.1221585720777511,0.853362500667572,-0.1667474806308746
1629370500382,0.0156186148524284,0.1221585720777511,0.865337073802948,-0.1667474806308746
1629370500461,0.0156186148524284,0.1221585720777511,0.8650001287460327,-0.1667474806308746
1629370500563,0.0156186148524284,0.1221585720777511,0.8429860472679138,-0.1667474806308746
1629370500656,0.0156186148524284,0.1221585720777511,0.7990119457244873,-0.1667474806308746
1629370500831,0.0156186148524284,0.1221585720777511,0.7377440333366394,-0.1667474806308746
1629370500963,0.0156186148524284,0.1221585720777511,0.6751357913017273,-0.1667474806308746
1629370501060,0.0156186148524284,0.1221585720777511,0.62770676612854,1.4413676261901855
1629370501159,0.9365507364273072,0.2025224417448043,0.5946798920631409,1.372165560722351
1629370501233,0.9365507364273072,0.3130167424678802,0.5615552663803101,1.372165560722351
1629370501310,0.9365507364273072,0.5174047946929932,0.5314298868179321,1.372165560722351
1629370501369,0.9365507364273072,0.5174047946929932,0.5121650099754333,1.372165560722351
1629370501437,0.9365507364273072,0.5174047946929932,0.4622340500354767,1.372165560722351
1629370501527,0.9365507364273072,0.5174047946929932,0.3861078023910522,1.263291358947754
1629370501634,0.9365507364273072,0.5174047946929932,0.3051788210868835,1.263291358947754
1629370501752,0.9365507364273072,0.5174047946929932,0.2316448241472244,1.263291358947754
1629370501827,0.9365507364273072,0.5174047946929932,0.1608759015798568,1.263291358947754
1629370501927,0.9365507364273072,0.5174047946929932,0.0923329144716262,1.263291358947754
1629370502082,0.9365507364273072,0.5174047946929932,0.067609392106533,1.263291358947754
1629370502157,0.9365507364273072,0.5174047946929932,0.0765303522348404,1.263291358947754
1629370502220,0.9365507364273072,0.5389034748077393,0.1152407675981521,1.263291358947754
1629370502404,0.9365507364273072,0.600366473197937,0.1728013008832931,1.263291358947754
1629370502537,0.9365507364273072,0.600366473197937,0.2400808781385421,1.263291358947754
1629370502617,0.9365507364273072,0.600366473197937,0.2400808781385421,1.263291358947754
1629370502706,0.9365507364273072,0.600366473197937,0.2400808781385421,1.263291358947754
1629370502784,0.9365507364273072,0.600366473197937,0.2400808781385421,1.263291358947754
1629370502847,0.9365507364273072,0.600366473197937,0.2400808781385421,1.263291358947754
1629370503024,0.9365507364273072,0.600366473197937,0.2400808781385421,1.263291358947754
1629370503125,0.9365507364273072,0.600366473197937,0.2400808781385421,1.263291358947754
1629370503214,0.9365507364273072,0.600366473197937,0.2400808781385421,1.263291358947754
1629370503319,0.9365507364273072,0.600366473197937,0.2400808781385421,1.263291358947754
1629370503465,0.9365507364273072,0.600366473197937,0.2400808781385421,1.263291358947754
1629370503523,0.9365507364273072,0.600366473197937,0.2400808781385421,1.263291358947754
1629370503621,0.9365507364273072,0.600366473197937,0.2400808781385421,1.263291358947754
1629370503688,0.9365507364273072,0.600366473197937,0.2400808781385421,1.263291358947754
1629370503737,0.9365507364273072,0.600366473197937,0.2400808781385421,1.263291358947754
1629370503817,0.9365507364273072,0.600366473197937,0.2400808781385421,1.263291358947754
1629370503942,0.9365507364273072,0.600366473197937,0.2400808781385421,1.263291358947754
1629370504036,0.9365507364273072,0.600366473197937,0.2400808781385421,1.263291358947754
1629370504165,0.9365507364273072,0.600366473197937,0.2400808781385421,1.263291358947754
1629370504220,0.9365507364273072,0.600366473197937,0.2400808781385421,1.263291358947754
1629370504310,0.9365507364273072,0.600366473197937,0.2400808781385421,1.263291358947754
1629370504428,0.9365507364273072,0.600366473197937,0.2400808781385421,1.263291358947754
1629370504587,0.9365507364273072,0.600366473197937,0.2400808781385421,1.263291358947754
1629370504711,0.9365507364273072,0.600366473197937,0.2400808781385421,1.263291358947754
1629370504764,0.9365507364273072,0.600366473197937,-0.044539388269186,1.263291358947754
1629370504875,0.9365507364273072,0.6843606233596802,0.0532917007803916,1.263291358947754
1629370504958,0.9365507364273072,0.8153433799743652,0.1973587870597839,1.263291358947754
1629370505045,0.9365507364273072,0.9162864089012146,0.3429551422595978,1.263291358947754
1629370505269,0.9365507364273072,0.9885300397872924,0.3429551422595978,1.263291358947754
1629370505338,0.9365507364273072,1.0404856204986572,0.4450829029083252,1.263291358947754
1629370505434,0.9365507364273072,1.0788894891738892,0.4450829029083252,1.263291358947754
1629370505505,0.9365507364273072,1.0982903242111206,0.4558790326118469,1.263291358947754
1629370505695,0.9365507364273072,1.0960333347320557,0.453877180814743,1.263291358947754
1629370505781,0.9365507364273072,1.0776662826538086,0.4608629941940307,1.1776424646377563
1629370505886,0.9365507364273072,1.0493061542510986,0.4703450500965118,1.1829639673233032
1629370505947,0.9365507364273072,1.019009351730347,0.4752508699893951,1.1796997785568235
1629370506017,0.9365507364273072,0.9919120669364928,0.4892767965793609,1.1715822219848633
1629370506098,0.9365507364273072,0.9851208925247192,0.4950791895389557,1.1596622467041016
1629370506210,0.9365507364273072,0.9834831357002258,0.4977538585662842,1.1421066522598269
1629370506293,0.9365507364273072,0.984358847141266,0.5036765336990356,1.1649707555770874
1629370506380,0.9365507364273072,0.9804795384407043,0.5382593274116516,1.1664787530899048
1629370506499,0.9365507364273072,0.9712246656417848,0.5346241593360901,1.129142165184021
1629370506634,0.9365507364273072,0.982995629310608,0.5042776465415955,1.129142165184021
1629370506707,0.9365507364273072,0.9526743292808532,0.5042776465415955,1.129142165184021
1629370506859,0.9365507364273072,0.9109727144241332,0.4510958194732666,1.129142165184021
1629370506885,0.9365507364273072,0.8542748093605042,0.4510958194732666,1.129142165184021
1629370507028,0.9365507364273072,0.7931767702102661,0.4408584833145141,1.129142165184021
1629370507079,0.9365507364273072,0.7520377039909363,0.4415319561958313,1.129142165184021
1629370507233,0.9365507364273072,0.7466578483581543,0.4281535148620605,1.1114238500595093
1629370507327,0.9365507364273072,0.7789807319641113,0.4009866714477539,1.084954857826233
1629370507426,0.9365507364273072,0.796873152256012,0.3698041141033172,1.084954857826233
1629370507475,0.9365507364273072,0.8349779844284058,0.2894623875617981,1.084954857826233
1629370507685,0.9365507364273072,0.896243691444397,0.2520017027854919,1.084954857826233
1629370507749,0.9365507364273072,0.9680124521255492,0.2404622286558151,1.084954857826233
1629370507854,0.9365507364273072,1.0193719863891602,0.2075170129537582,1.084954857826233
1629370507919,0.9365507364273072,1.0414782762527466,-0.1529585421085357,0.2057452350854873
1629370508046,0.9365507364273072,1.0183916091918943,-0.122993879020214,0.2394420206546783
1629370508108,0.9365507364273072,0.9125877618789672,-0.1016464084386825,0.2662350535392761
1629370508225,0.9365507364273072,0.8743232488632202,-0.0850539356470108,0.2718813121318817
1629370508350,0.9365507364273072,0.8406485915184021,-0.0693413466215133,0.2630600035190582
1629370508482,0.8130124807357788,0.8077476620674133,-0.0504230447113513,0.2586776912212372
1629370508537,0.8117529153823853,0.7772868871688843,-0.0274629667401313,0.2679580748081207
1629370508629,0.799314022064209,0.750674843788147,-0.0041078156791627,0.2874915599822998
1629370508717,0.7795297503471375,0.727814793586731,0.0141059244051575,0.3437135219573974
1629370508947,0.7669203877449036,0.7069324254989624,0.0214277561753988,0.4534294009208679
1629370508993,0.7857416272163391,0.6993052363395691,0.0186025686562061,0.580305278301239
1629370509167,0.8214792013168335,0.673372209072113,0.0252498630434274,0.6758642196655273
1629370509219,0.8491334319114685,0.614933431148529,0.0265087615698575,0.7520149350166321
1629370509288,0.8567478656768799,0.5185568928718567,0.0183906629681587,0.7971482872962952
1629370509381,0.8453199863433838,0.4059628546237945,0.000506998389028,0.8243328332901001
1629370509526,0.8307327628135681,0.3126804530620575,-0.0231123976409435,0.8446964621543884
1629370509568,0.8225833773612976,0.2668546736240387,-0.0491486266255378,0.8601542711257935
1629370509672,0.8103114366531372,0.2566586434841156,-0.0769886001944542,0.8720723986625671
1629370509776,0.8036257028579712,0.2465423345565796,-0.1079107448458671,0.878777027130127
1629370509886,0.7983766198158264,0.230374738574028,-0.1396869570016861,0.8803696036338806
1629370509978,0.7885904908180237,0.2212167829275131,-0.1701611131429672,0.8778918981552124
1629370510140,0.7744893431663513,0.2137612253427505,-0.2053579837083816,0.8720850348472595
1629370510292,0.7594202160835266,0.198536217212677,-0.2522580623626709,0.86317378282547
1629370510338,0.7433128952980042,0.175899252295494,-0.313232958316803,0.843920886516571
1629370510479,0.7229613661766052,0.1555287092924118,-0.3750119209289551,0.8000405430793762
1629370510529,0.6797583103179932,0.1462800949811935,-0.4318272471427917,0.7194738388061523
1629370510599,0.6089650392532349,0.1419139504432678,-0.4838461279869079,0.6096432209014893
1629370510690,0.5225896835327148,0.1326552778482437,-0.5211520791053772,0.4898802638053894
1629370510726,0.4708909094333648,0.1079111397266388,-0.5298578143119812,0.40312659740448
1629370510875,0.4500004649162292,0.0736560672521591,-0.4547748565673828,0.3297576606273651
1629370510987,0.4376723766326904,0.0199112668633461,-0.2398723661899566,0.2470247745513916
1629370511039,0.4056141376495361,-0.040470466017723,0.1081631332635879,0.1386977434158325
1629370511102,0.345080554485321,-0.0888040587306022,0.4691869914531708,-0.012507339939475
1629370511276,0.2775404751300812,-0.1180958598852157,0.497432142496109,-0.1787958890199661
1629370511410,0.2144956290721893,-0.1291395276784896,0.5269516110420227,-0.3035829365253448
1629370511492,0.1321699172258377,-0.1360136419534683,0.5567703247070312,-0.3741801679134369
1629370511548,0.0020172870717942,-0.139955848455429,0.5881556868553162,-0.4249240159988403
1629370511656,-0.1322953402996063,-0.1195959076285362,0.6233471632003784,-0.4600651562213897
1629370511881,-0.2059179991483688,-0.0788335502147674,0.6645010113716125,-0.479436993598938
1629370511971,-0.2059179991483688,-0.043363831937313,0.7123816013336182,-0.479436993598938
1629370512052,-0.2059179991483688,-0.043363831937313,0.7887128591537476,-0.479436993598938
1629370512120,-0.2059179991483688,-0.043363831937313,0.8559488654136658,-0.479436993598938
1629370512173,-0.2059179991483688,-0.043363831937313,0.9313788414001464,-0.479436993598938
1629370512274,-0.2059179991483688,-0.043363831937313,1.023197889328003,-0.479436993598938
1629370512374,-0.2059179991483688,-0.043363831937313,1.1192420721054075,-0.479436993598938
1629370512506,-0.2059179991483688,-0.043363831937313,1.190489649772644,-0.479436993598938
1629370512553,-0.2059179991483688,-0.043363831937313,1.2140755653381348,-0.479436993598938
1629370512666,-0.2059179991483688,-0.043363831937313,1.161746621131897,-0.479436993598938
1629370512853,-0.2059179991483688,-0.043363831937313,1.1261638402938845,-0.479436993598938
1629370512979,-0.2059179991483688,-0.043363831937313,1.086015224456787,-0.479436993598938
1629370513095,-0.2059179991483688,-0.043363831937313,1.047489881515503,-0.479436993598938
1629370513175,-0.2059179991483688,-0.043363831937313,1.0131057500839231,-0.479436993598938
1629370513236,-0.2059179991483688,-0.043363831937313,1.0131057500839231,-0.479436993598938
1629370513302,-0.2059179991483688,-0.043363831937313,1.0131057500839231,-0.479436993598938
1629370513425,-0.2059179991483688,-0.043363831937313,1.0131057500839231,-0.479436993598938
1629370513535,-0.2059179991483688,-0.043363831937313,1.021477222442627,-0.479436993598938
1629370513643,-0.2059179991483688,-0.043363831937313,1.0302637815475464,-0.479436993598938
1629370513775,-0.2059179991483688,-0.043363831937313,1.028601050376892,-0.479436993598938
1629370513909,-0.2059179991483688,-0.043363831937313,0.9985864758491516,-0.479436993598938
1629370513983,-0.2059179991483688,-0.043363831937313,0.916997730731964,-0.479436993598938
1629370514132,-0.2059179991483688,-0.043363831937313,0.7726491093635559,-0.479436993598938
1629370514215,-0.2059179991483688,-0.043363831937313,0.552396297454834,-0.479436993598938
1629370514246,-0.2059179991483688,-0.043363831937313,0.2773386538028717,-0.479436993598938
1629370514375,-0.2059179991483688,-0.043363831937313,0.3563072085380554,-0.479436993598938
1629370514442,-0.2059179991483688,-0.043363831937313,0.423713207244873,-0.479436993598938
1629370514514,-0.2059179991483688,-0.043363831937313,0.4552960991859436,-0.479436993598938
1629370514596,-0.2059179991483688,-0.043363831937313,0.4521717131137848,-0.479436993598938
1629370514794,-0.2059179991483688,-0.043363831937313,0.3752712607383728,-0.479436993598938
1629370514822,-0.2059179991483688,-0.043363831937313,0.308830589056015,-0.479436993598938
1629370514940,-0.2059179991483688,-0.043363831937313,0.2540836036205292,-0.479436993598938
1629370515056,-0.2059179991483688,-0.043363831937313,0.2260341346263885,-0.479436993598938
1629370515165,-0.2059179991483688,-0.043363831937313,0.2322573512792587,-0.479436993598938
1629370515292,-0.2059179991483688,-0.043363831937313,0.3034149408340454,-0.479436993598938
1629370515340,-0.2059179991483688,-0.043363831937313,0.4206172227859497,-0.479436993598938
1629370515416,-0.2059179991483688,-0.043363831937313,0.526137113571167,-0.479436993598938
1629370515557,-0.2059179991483688,-0.043363831937313,0.5902413129806519,-0.479436993598938
1629370515657,-0.2059179991483688,-0.043363831937313,0.6098617911338806,-0.479436993598938
1629370515706,-0.2059179991483688,-0.043363831937313,0.5990925431251526,-0.479436993598938
1629370515842,-0.2059179991483688,-0.043363831937313,0.5603882670402527,-0.479436993598938
1629370515926,-0.2059179991483688,-0.043363831937313,0.5373865365982056,-0.479436993598938
1629370516061,-0.2059179991483688,-0.043363831937313,0.5267959833145142,-0.479436993598938
1629370516232,-0.2059179991483688,-0.043363831937313,0.5247836112976074,-0.479436993598938
1629370516295,-0.2059179991483688,-0.043363831937313,0.5294857025146484,-0.479436993598938
1629370516369,-0.2059179991483688,-0.043363831937313,0.5373347401618958,-0.479436993598938
1629370516434,-0.2059179991483688,0.2376352250576019,0.5542958974838257,-0.479436993598938
1629370516524,-0.2059179991483688,0.3396267592906952,0.5922225117683411,-0.479436993598938
1629370516624,-0.2059179991483688,0.4758842289447784,0.6656420826911926,-0.479436993598938
1629370516804,-0.2059179991483688,0.5893245935440063,0.7504146099090576,-0.479436993598938
1629370516893,-0.2059179991483688,0.6515498757362366,0.7322087287902832,-0.479436993598938
1629370516947,-0.2059179991483688,0.6673388481140137,0.7645050287246704,-0.479436993598938
1629370517056,-0.2059179991483688,0.6547009944915771,0.7595292925834656,-0.479436993598938
1629370517138,-0.2059179991483688,0.6293194890022278,0.7450886368751526,-0.479436993598938
1629370517225,-0.2059179991483688,0.6011723279953003,0.7391360998153687,-0.479436993598938
1629370517359,-0.2059179991483688,0.5700068473815918,0.7399306893348694,-0.479436993598938
1629370517440,-0.2059179991483688,0.5395281314849854,0.7416970729827881,-0.479436993598938
1629370517557,-0.2059179991483688,0.5104258060455322,0.7434561252593994,-0.479436993598938
1629370517694,-0.2059179991483688,0.488356739282608,0.7452130317687988,-0.479436993598938
1629370517760,-0.2059179991483688,0.4772133529186249,0.7458803653717041,-0.479436993598938
1629370517851,0.3131572008132934,0.46673184633255,0.7469562292098999,-0.195978358387947
1629370518077,0.3177582919597626,0.4476639628410339,0.7419686317443848,-0.2542106807231903
1629370518213,0.3055152893066406,0.4130768179893493,0.716540515422821,-0.2915365695953369
1629370518306,0.288851797580719,0.3482992351055145,0.6444616913795471,-0.2956990301609039
1629370518387,0.2765235304832458,0.2558956146240234,0.4944330751895904,-0.2650009095668793
1629370518465,0.2671648859977722,0.1728047132492065,0.4798862636089325,-0.2174255400896072
1629370518533,0.2524716258049011,0.1530257761478424,0.2964136302471161,-0.1637621968984604
1629370518603,0.2352287769317627,0.2020217776298523,0.166234940290451,-0.1024349629878997
1629370518676,0.2198103964328766,0.2807105183601379,0.1213182061910629,-0.0335473380982875
1629370518808,0.2035650759935379,0.3605059683322906,0.1177498176693916,0.0272715892642736
1629370518833,0.1958995163440704,0.4302771687507629,0.1219102069735527,0.0623877458274364
1629370519023,0.1927706152200698,0.4769107103347778,0.1220622509717941,0.0737354531884193
1629370519069,0.1911117285490036,0.4997523427009582,0.1159424856305122,0.0731198564171791
1629370519227,0.1820165365934372,0.5174486041069031,0.1251743882894516,0.0859936401247978
1629370519297,0.1641487330198288,0.5424546003341675,0.2256225943565368,0.1102428212761879
1629370519359,0.139145940542221,0.5989788770675659,0.4438384473323822,0.141261339187622
1629370519457,0.1135502308607101,0.6272306442260742,0.4577311277389526,0.1758341491222381
1629370519590,0.0971554666757583,0.6535425186157227,0.4744316637516022,0.2133524417877197
1629370519676,0.0867183655500412,0.6759735345840454,0.4913739562034607,0.2501903772354126
1629370519800,0.0718181580305099,0.6915984749794006,0.5090562105178833,0.2829684913158417
1629370519892,0.0499410852789878,0.6999341249465942,0.5306943655014038,0.3124743103981018
1629370519988,0.0411279499530792,0.7002106308937073,0.556065022945404,0.3391358256340027
1629370520171,0.048634584993124,0.690916895866394,0.5839710235595703,0.3563577532768249
1629370520219,0.048634584993124,0.6711061000823975,0.618442714214325,0.3563577532768249
1629370520300,0.048634584993124,0.6368032693862915,0.6646735668182373,0.3563577532768249
1629370520462,0.048634584993124,0.5933924317359924,0.665210485458374,0.3563577532768249
1629370520608,0.048634584993124,0.5409306287765503,0.6752057671546936,0.3563577532768249
1629370520688,0.048634584993124,0.6595841646194458,0.7488739490509033,0.3563577532768249
1629370520754,0.048634584993124,0.8876956701278687,0.8987391591072083,0.3563577532768249
1629370520804,0.048634584993124,1.1032347679138184,0.915014922618866,0.3563577532768249
1629370520895,0.048634584993124,1.2428165674209597,0.763035774230957,0.3563577532768249
1629370521042,0.048634584993124,1.2428165674209597,0.763035774230957,0.3563577532768249
1629370521105,0.048634584993124,1.2428165674209597,0.763035774230957,0.3563577532768249
1629370521291,0.048634584993124,1.195269227027893,0.763035774230957,0.3563577532768249
1629370521323,0.048634584993124,1.1381510496139526,0.763035774230957,0.3563577532768249
1629370521436,0.048634584993124,1.083132266998291,0.763035774230957,0.3563577532768249
1629370521560,0.048634584993124,1.0387989282608032,0.763035774230957,0.3563577532768249
1629370521642,0.048634584993124,1.0169166326522827,0.685185968875885,0.3563577532768249
1629370521745,0.048634584993124,1.0254584550857544,0.6316852569580078,0.3563577532768249
1629370521834,0.048634584993124,1.0528994798660278,0.6014035940170288,0.3563577532768249
1629370521963,0.9458184838294984,1.078470230102539,0.6311893463134766,0.3563577532768249
1629370522020,0.9566476345062256,1.114395260810852,0.6547221541404724,0.3563577532768249
1629370522155,0.9521008729934692,1.117519497871399,0.6022830605506897,0.3563577532768249
1629370522281,0.9430131316184998,1.0812517404556274,0.2958335876464844,0.3563577532768249
1629370522393,0.930876076221466,1.0039916038513184,0.2514103353023529,0.3563577532768249
1629370522438,0.9142771363258362,0.8906447887420654,0.2039671838283538,0.3563577532768249
1629370522559,0.8976936936378479,0.8620333671569824,0.1609930694103241,0.3563577532768249
1629370522622,0.8828266263008118,0.8344172835350037,0.1242987364530563,0.8775851130485535
1629370522728,0.8683436512947083,0.8068680167198181,0.0957663729786872,0.8275586366653442
1629370522990,0.8520597815513611,0.7977114915847778,0.0800852626562118,0.7745984792709351
1629370523068,0.8308150172233582,0.795378565788269,0.0781763046979904,0.73520827293396
1629370523156,0.8077804446220398,0.7899909615516663,0.0842432454228401,0.7056638598442078
1629370523221,0.7877084016799927,0.7660044431686401,0.0901640728116035,0.6757595539093018
1629370523295,0.7591040730476379,0.7019462585449219,0.0729959532618522,0.6417914628982544
1629370523353,0.7178905010223389,0.5814508199691772,0.0251958239823579,0.6061597466468811
1629370523508,0.6665589213371277,0.398520290851593,-0.0539220534265041,0.572804868221283
1629370523610,0.6100538372993469,0.1662527322769165,-0.1439720094203949,0.5435958504676819
1629370523653,0.5513079762458801,-0.0420282185077667,-0.2174975574016571,0.5166335105895996
1629370523759,0.4873597621917724,-0.1127746701240539,-0.2548587620258331,0.4918192923069
1629370523857,0.4475661814212799,-0.0289766304194927,-0.243773952126503,0.4430556893348694
1629370523939,0.4122230112552643,0.1215631887316703,-0.2124667912721634,0.3791214525699615
1629370524170,0.374951034784317,0.3115927875041961,-0.0648415088653564,0.2765014171600342
1629370524206,0.3292499184608459,0.5097827315330505,0.2188203781843185,0.1727667301893234
1629370524284,0.275237500667572,0.5369531512260437,0.5092630982398987,0.1117451786994934
1629370524374,0.2217015475034713,0.567811131477356,0.5331617593765259,0.0808797180652618
1629370524447,0.1985191106796264,0.6011558771133423,0.5549654364585876,0.026495212689042
1629370524577,0.2006534934043884,0.6354978084564209,0.5760174989700317,-0.0722104758024215
1629370524755,0.1950094997882843,0.671447217464447,0.6012337803840637,-0.1881050765514373
1629370524834,0.1616210639476776,0.6873965859413147,0.635047435760498,-0.2648797929286957
1629370524953,0.0731620043516159,0.6920189261436462,0.6420902013778687,-0.2733353972434997
1629370525048,0.0731620043516159,0.6951522827148438,0.6411237716674805,-0.2733353972434997
1629370525120,0.0731620043516159,0.6994194984436035,0.6384124159812927,-0.2733353972434997
1629370525252,0.0731620043516159,0.7006352543830872,0.6363553404808044,-0.2733353972434997
1629370525361,0.0731620043516159,0.6994857788085938,0.6371484994888306,-0.2733353972434997
1629370525451,0.0731620043516159,0.701813280582428,0.64351886510849,-0.2733353972434997
1629370525543,0.0731620043516159,0.7251946330070496,0.6688010692596436,-0.2733353972434997
1629370525611,0.0731620043516159,0.7461466789245605,0.690296471118927,-0.2733353972434997
1629370525679,0.0731620043516159,0.7218639850616455,0.6493588089942932,-0.2733353972434997
1629370525792,0.0731620043516159,0.7792161107063293,0.4472827017307281,-0.2733353972434997
1629370525908,0.0731620043516159,0.8013296723365784,0.4891534447669983,-0.2733353972434997
1629370526042,0.0731620043516159,0.8052589893341064,0.5035232305526733,-0.2733353972434997
1629370526099,0.0731620043516159,0.7979636788368225,0.5072106122970581,-0.2733353972434997
1629370526195,0.0731620043516159,0.7853204011917114,0.5102282166481018,-0.2733353972434997
1629370526296,0.0731620043516159,0.7881209850311279,0.5081954002380371,-0.2733353972434997
1629370526434,0.0731620043516159,0.8001444935798645,0.5152680277824402,-0.2733353972434997
1629370526528,0.0731620043516159,0.8176928758621216,0.5236343145370483,-0.2733353972434997
1629370526578,0.0731620043516159,0.8385138511657715,0.5308209657669067,-0.2733353972434997
1629370526724,0.0731620043516159,0.8625495433807373,0.5358730554580688,-0.2733353972434997
1629370526784,0.0731620043516159,0.8858287334442139,0.5365866422653198,-0.2733353972434997
1629370526939,0.0731620043516159,0.897678017616272,0.5276697278022766,-0.2733353972434997
1629370527002,0.0731620043516159,0.8872836232185364,0.4984612762928009,-0.2733353972434997
1629370527144,0.0731620043516159,0.8517363667488098,0.4385920166969299,-0.2733353972434997
1629370527226,0.0890415534377098,0.8007273077964783,0.3511051535606384,-0.3840507864952087
1629370527324,0.0409780219197273,0.7462880611419678,0.2468883246183395,-0.3868488669395447
1629370527440,-0.0047900755889713,0.6982834339141846,0.1402757465839386,-0.3973111808300018
1629370527488,-0.0454484410583972,0.6583496928215027,0.0417184047400951,-0.4188217520713806
1629370527583,-0.0454484410583972,0.6284753084182739,-0.0564096458256244,-0.4188217520713806
1629370527752,-0.0454484410583972,0.6073380708694458,-0.1756823807954788,-0.4188217520713806
1629370527845,-0.0454484410583972,0.5954427123069763,-0.2287670075893402,-0.4188217520713806
1629370527942,-0.0454484410583972,0.5907625555992126,-0.0809693112969398,-0.4188217520713806
1629370528106,-0.0454484410583972,0.5891494750976562,0.1570246368646621,-0.4188217520713806
1629370528169,-0.0454484410583972,0.580329418182373,0.3518717586994171,-0.4188217520713806
1629370528270,-0.0454484410583972,0.5511854887008667,0.4773634672164917,-0.4188217520713806
1629370528365,-0.0454484410583972,0.4948214888572693,0.502594530582428,-0.4188217520713806
1629370528486,-0.099610686302185,0.4182218313217163,0.5323665142059326,-0.4336945116519928
1629370528545,-0.1741527169942855,0.3381107449531555,0.5660322308540344,-0.4418830275535583
1629370528619,-0.2576265633106231,0.2709143459796905,0.5798459053039551,-0.4513639509677887
1629370528748,-0.2576265633106231,0.2267372608184814,0.5918478965759277,-0.4513639509677887
1629370528823,-0.2576265633106231,0.20218226313591,0.6035611033439636,-0.4513639509677887
1629370528957,-0.2576265633106231,0.2028488367795944,0.6133334636688232,-0.4513639509677887
1629370529041,-0.2576265633106231,0.2144453525543213,0.621150016784668,-0.4513639509677887
1629370529191,-0.2576265633106231,0.2281368225812912,0.6277145147323608,-0.4513639509677887
1629370529226,0.2730303406715393,0.2364973574876785,0.6341415047645569,-0.0617520213127136
1629370529407,0.229408860206604,0.2275754064321518,0.6278529763221741,-0.0342947132885456
1629370529440,0.2068837583065033,0.1888419389724731,0.5868073105812073,-0.0325125679373741
1629370529609,0.1874108910560608,0.1175452917814254,0.4847261607646942,-0.0459985993802547
1629370529659,0.158339112997055,0.0313270948827266,0.297358900308609,-0.0685962736606597
1629370529760,0.1230103075504303,-0.0389823988080024,-0.0027769007720053,-0.0969349890947341
1629370529832,0.1230103075504303,-0.0534865595400333,-0.0058640772476792,-0.0969349890947341
1629370529938,0.1230103075504303,0.0469249337911605,0.1006412804126739,-0.0969349890947341
1629370530039,0.1230103075504303,0.2611335515975952,0.1006412804126739,-0.0969349890947341
1629370530156,0.1230103075504303,0.2818591892719269,0.0936238318681716,-0.0969349890947341
1629370530234,0.1230103075504303,0.3012919127941131,0.0883583724498748,-0.0969349890947341
1629370530417,0.1230103075504303,0.3208191692829132,0.0810492262244224,-0.0969349890947341
1629370530481,0.0452144853770732,0.3397033512592315,0.0794206857681274,-0.0748915821313858
1629370530613,-0.0175786335021257,0.3598927557468414,0.0867200121283531,-0.0670595914125442
1629370530681,-0.0451659113168716,0.3834020495414734,0.0979191660881042,-0.0836206674575805
1629370530790,-0.0509681440889835,0.4132601022720337,0.1042195260524749,-0.1272893846035003
1629370530846,-0.0620854273438453,0.4531081020832062,0.1129539981484413,-0.190569669008255
1629370531000,-0.0620854273438453,0.4995146095752716,0.1381044536828994,-0.190569669008255
1629370531047,-0.0620854273438453,0.5535305142402649,0.1950210332870483,-0.190569669008255
1629370531199,-0.0620854273438453,0.6406083106994629,0.5451481342315674,-0.190569669008255
1629370531283,-0.0620854273438453,0.7062665224075317,0.7251909375190735,-0.190569669008255
1629370531388,-0.0620854273438453,0.741515576839447,0.8127252459526062,-0.190569669008255
1629370531453,-0.0620854273438453,0.7210540771484375,0.7846819162368774,-0.190569669008255
1629370531620,-0.0620854273438453,0.5780812501907349,0.7135108113288879,-0.190569669008255
1629370531664,-0.0620854273438453,0.6069847941398621,0.6479390263557434,-0.190569669008255
1629370531822,-0.0620854273438453,0.6447511315345764,0.5928400754928589,-0.190569669008255
1629370531894,-0.0620854273438453,0.661246120929718,0.5466480255126953,-0.190569669008255
1629370532026,-0.0620854273438453,0.6528850197792053,0.5061670541763306,-0.190569669008255
1629370532126,-0.0620854273438453,0.6272180080413818,0.4711418151855469,-0.190569669008255
1629370532152,-0.0620854273438453,0.5959746241569519,0.4388674199581146,-0.190569669008255
1629370532337,-0.0620854273438453,0.5652023553848267,0.4085252583026886,-0.190569669008255
1629370532413,-0.0620854273438453,0.5366648435592651,0.379109650850296,-0.190569669008255
1629370532523,-0.0620854273438453,0.5112123489379883,0.3507624864578247,-0.190569669008255
1629370532625,-0.0620854273438453,0.4889938235282898,0.3242830038070678,-0.190569669008255
1629370532694,-0.0620854273438453,0.4540461301803589,0.2032423466444015,-0.190569669008255
1629370532800,-0.0620854273438453,0.4476679265499115,0.0651511177420616,-0.190569669008255
1629370532941,-0.0620854273438453,0.4902507960796356,-0.0470522493124008,-0.190569669008255
1629370533007,-0.0620854273438453,0.5599726438522339,-0.0663302391767501,-0.190569669008255
1629370533131,-0.0620854273438453,0.6128999590873718,-0.0154400123283267,-0.190569669008255
1629370533298,-0.0620854273438453,0.6142958998680115,0.0695517659187316,-0.190569669008255
1629370533326,-0.0620854273438453,0.6299171447753906,0.0400973111391067,-0.190569669008255
1629370533436,-0.0620854273438453,0.5859946608543396,0.0751538649201393,-0.190569669008255
1629370533557,-0.0620854273438453,0.5633845925331116,0.0705334395170211,-0.190569669008255
1629370533648,-0.0620854273438453,0.5539019107818604,0.061913788318634,-0.190569669008255
1629370533801,-0.0620854273438453,0.5517882108688354,0.0535170026123523,-0.190569669008255
1629370533919,-0.0620854273438453,0.5523757338523865,0.0472773909568786,-0.190569669008255
1629370534029,-0.0620854273438453,0.5523796677589417,0.0440065935254097,-0.190569669008255
1629370534145,-0.0620854273438453,0.5656801462173462,0.0992220193147659,-0.190569669008255
1629370534205,-0.0620854273438453,0.5891616344451904,0.1233198717236518,-0.190569669008255
1629370534273,-0.0620854273438453,0.6097676753997803,0.1456428319215774,-0.190569669008255
1629370534337,-0.0620854273438453,0.6132168173789978,0.1589208394289016,-0.190569669008255
1629370534488,-0.0620854273438453,0.5790079832077026,0.1524010896682739,-0.190569669008255
1629370534567,-0.0620854273438453,0.4900518655776977,0.1142178550362587,-0.190569669008255
1629370534660,-0.0620854273438453,0.3503844738006592,0.0422673113644123,-0.190569669008255
1629370534733,-0.0620854273438453,0.1889292150735855,-0.0504720024764537,-0.190569669008255
1629370534796,-0.0620854273438453,0.0580859258770942,-0.1265851855278015,-0.190569669008255
1629370534890,-0.0620854273438453,0.0082649299874901,-0.1501130163669586,-0.190569669008255
1629370535026,-0.0620854273438453,0.0212858952581882,-0.1267254501581192,-0.190569669008255
1629370535159,-0.0620854273438453,0.0531301498413085,-0.0758365839719772,-0.190569669008255
1629370535242,-0.0620854273438453,0.0054274648427963,-0.0599023103713989,-0.190569669008255
1629370535414,-0.0620854273438453,-0.0478668883442878,-0.0529475882649421,-0.190569669008255
1629370535486,-0.0620854273438453,-0.0882305577397346,-0.0383566059172153,-0.190569669008255
1629370535547,-0.0620854273438453,-0.4233636558055877,-0.3807438015937805,-0.190569669008255
1629370535740,-0.0620854273438453,-0.2222870588302612,-0.3201343417167663,-0.190569669008255
1629370535771,-0.0620854273438453,0.0340317822992801,-0.2200688421726226,-0.190569669008255
1629370535849,-0.0620854273438453,0.2509258091449737,-0.0895692557096481,-0.190569669008255
1629370535920,-0.0620854273438453,0.3918978869915008,0.0224194973707199,-0.190569669008255
1629370536023,-0.0620854273438453,0.4640413224697113,0.0927207246422767,-0.190569669008255
1629370536123,-0.0620854273438453,0.4876488149166107,0.1278318613767624,-0.190569669008255
1629370536256,-0.0620854273438453,0.49928879737854,0.1895795911550521,-0.190569669008255
1629370536404,-0.0620854273438453,0.49928879737854,0.1895795911550521,-0.190569669008255
1629370536448,-0.0620854273438453,0.49928879737854,0.1895795911550521,-0.190569669008255
1629370536566,-0.0620854273438453,0.49928879737854,0.1895795911550521,-0.190569669008255
1629370536647,-0.0620854273438453,0.49928879737854,0.1895795911550521,-0.190569669008255
1629370536724,-0.0620854273438453,0.5372763276100159,0.2200656980276107,-0.190569669008255
1629370536907,-0.0620854273438453,0.5790930390357971,0.2569201588630676,-0.190569669008255
1629370536974,-0.0620854273438453,0.6261682510375977,0.2979056239128113,-0.190569669008255
1629370537053,-0.0620854273438453,0.676289975643158,0.3411765098571777,-0.190569669008255
1629370537178,-0.0620854273438453,0.7233347296714783,0.3870363235473633,-0.190569669008255
1629370537239,-0.0620854273438453,0.7518801689147949,0.4283199310302734,-0.190569669008255
1629370537374,-0.0620854273438453,0.7453405857086182,0.4519796967506408,-0.190569669008255
1629370537504,-0.0620854273438453,0.7453405857086182,0.5220356583595276,-0.190569669008255
1629370537569,-0.0620854273438453,0.7453405857086182,0.5417742133140564,-0.190569669008255
1629370537691,-0.0620854273438453,0.7453405857086182,0.5282724499702454,-0.190569669008255
1629370537768,-0.0620854273438453,0.7453405857086182,0.5282724499702454,-0.190569669008255
1629370537849,-0.0620854273438453,0.7453405857086182,0.5282724499702454,-0.190569669008255
1629370537941,-0.0620854273438453,0.7453405857086182,0.5282724499702454,-0.190569669008255
1629370538075,-0.0620854273438453,0.7453405857086182,0.5282724499702454,-0.190569669008255
1629370538192,-0.0620854273438453,0.7453405857086182,0.5282724499702454,-0.190569669008255
1629370538291,-0.0620854273438453,0.7453405857086182,0.5282724499702454,-0.190569669008255
1629370538386,-0.0620854273438453,0.7453405857086182,0.5282724499702454,-0.190569669008255
1629370538475,-0.0620854273438453,0.7453405857086182,0.5282724499702454,-0.190569669008255
1629370538579,-0.0620854273438453,0.7453405857086182,0.5282724499702454,-0.190569669008255
1629370538695,-0.0620854273438453,0.7453405857086182,0.5282724499702454,-0.190569669008255
1629370538798,-0.0620854273438453,0.7453405857086182,0.5282724499702454,-0.190569669008255
1629370538899,-0.0620854273438453,0.7453405857086182,0.5597236752510071,-0.190569669008255
1629370538993,-0.0620854273438453,0.7453405857086182,0.5109995007514954,-0.190569669008255
1629370539109,-0.0620854273438453,0.7453405857086182,0.4566259682178497,-0.190569669008255
1629370539208,-0.0620854273438453,0.7453405857086182,0.4333848655223846,-0.190569669008255
1629370539375,-0.0620854273438453,0.7453405857086182,0.3622844219207763,-0.190569669008255
1629370539421,-0.0620854273438453,0.7453405857086182,0.3044464588165283,-0.190569669008255
1629370539489,0.303812712430954,0.7453405857086182,0.2675171196460724,-0.190569669008255
1629370539614,0.3844775259494781,0.7453405857086182,0.2451026886701584,-0.190569669008255
1629370539693,0.4193639755249023,-0.3147696256637573,0.229586973786354,-0.190569669008255
1629370539807,0.4239704012870788,-0.1978123635053634,0.2152028381824493,0.2193966954946518
1629370539930,0.4239704012870788,-0.0650605633854866,0.2048823833465576,0.2193966954946518
1629370540008,0.4239704012870788,0.0510924197733402,0.2411965578794479,0.2193966954946518
1629370540090,0.4239704012870788,0.2300175875425338,0.3886506557464599,0.2193966954946518
1629370540207,0.4239704012870788,0.4443057179450989,0.6123497486114502,0.2193966954946518
1629370540301,0.4239704012870788,0.6276770234107971,0.6123497486114502,0.2193966954946518
1629370540410,0.4239704012870788,0.7439428567886353,0.6081200242042542,0.2193966954946518
1629370540559,0.4239704012870788,0.7997919321060181,0.6159517168998718,0.2193966954946518
1629370540594,0.4239704012870788,0.8173263072967529,0.6375803351402283,0.2193966954946518
1629370540774,0.4296137392520904,0.8128399848937988,0.6673808097839355,0.2193966954946518
1629370540820,0.4814098477363586,0.8092401027679443,0.7068874835968018,0.2193966954946518
1629370540940,0.53084796667099,0.838252604007721,0.752508282661438,0.2193966954946518
1629370541042,0.53084796667099,0.8691394925117493,0.7816184163093567,0.2193966954946518
1629370541124,0.53084796667099,0.9014111757278442,0.8209823966026306,0.2193966954946518
1629370541379,0.53084796667099,0.9351457357406616,0.8710768818855286,0.2193966954946518
1629370541463,0.53084796667099,0.9708492159843444,0.9203243255615234,0.2193966954946518
1629370541562,0.53084796667099,1.007243037223816,0.95467209815979,0.2193966954946518
1629370541661,0.53084796667099,1.045346975326538,0.9597084522247314,0.2193966954946518
1629370541727,0.53084796667099,1.0332229137420654,0.9027930498123168,0.2193966954946518
1629370541832,0.53084796667099,0.980013370513916,0.6917514801025391,0.2193966954946518
1629370541936,0.53084796667099,0.8753077387809753,0.6467205882072449,0.2193966954946518
1629370542051,0.2549057602882385,0.7199360728263855,0.6057139039039612,0.2193966954946518
1629370542133,0.224642813205719,0.538874089717865,0.5684193968772888,0.2193966954946518
1629370542187,0.1959622800350189,0.3611814081668854,0.5350107550621033,0.2193966954946518
1629370542263,0.1738060414791107,0.2214804738759994,0.5056842565536499,0.2193966954946518
1629370542358,0.1493270248174667,0.0164809040725231,0.4800485670566559,0.2193966954946518
1629370542549,0.1329710334539413,-0.0025920057669281,0.4574043154716491,-0.3378638029098511
1629370542664,0.1329710334539413,-0.016216842457652,0.4337588846683502,-0.3378638029098511
1629370542766,0.1329710334539413,0.0007738814456388,0.4122760891914367,-0.3378638029098511
1629370542839,0.1329710334539413,0.1095401719212532,0.346334844827652,-0.3378638029098511
1629370542904,0.1329710334539413,0.3020937442779541,0.2439161539077758,-0.3378638029098511
1629370542994,0.1329710334539413,0.4949339926242828,0.1275972574949264,-0.3378638029098511
1629370543166,0.1329710334539413,0.6343855261802673,0.0369686149060726,-0.3378638029098511
1629370543247,0.036625824868679,0.7244692444801331,0.0013851289404556,-0.3378638029098511
1629370543319,0.0205920711159706,0.7775973677635193,0.0056152804754674,-0.3378638029098511
1629370543413,0.0201591458171606,0.7999826073646545,0.0293160900473594,-0.3378638029098511
1629370543500,0.0026051555760204,0.8090404272079468,0.064447671175003,-0.3378638029098511
1629370543584,-0.0180810336023569,0.8122885823249817,0.110441617667675,-0.3378638029098511
1629370543702,-0.0180810336023569,0.8169313669204712,0.1658145785331726,-0.3378638029098511
1629370543778,-0.0180810336023569,0.8377930521965027,0.2308673411607742,-0.3378638029098511
1629370543899,-0.0180810336023569,0.8879093527793884,0.2308673411607742,-0.3378638029098511
1629370544019,-0.0180810336023569,0.9599896669387816,0.2308673411607742,-0.3378638029098511
1629370544107,-0.0180810336023569,1.0318952798843384,0.2308673411607742,-0.3378638029098511
1629370544219,-0.0180810336023569,1.083400845527649,0.2308673411607742,-0.3378638029098511
1629370544325,-0.0180810336023569,1.104346752166748,0.2308673411607742,-0.3378638029098511
1629370544493,-0.0180810336023569,1.0947675704956057,0.2308673411607742,-0.3378638029098511
1629370544557,-0.0180810336023569,1.0601646900177002,1.28598153591156,-0.3378638029098511
1629370544636,-0.0180810336023569,1.0087785720825195,1.1921510696411133,-0.3378638029098511
1629370544698,-0.0180810336023569,0.9567299485206604,1.1154437065124512,-0.3378638029098511
1629370544795,-0.0180810336023569,0.9188632965087892,1.051521897315979,-0.3378638029098511
1629370544908,-0.0180810336023569,0.8992520570755005,0.9966018795967102,-0.3378638029098511
1629370545071,-0.0180810336023569,0.8905932307243347,0.9486297965049744,-0.3378638029098511
1629370545126,-0.0180810336023569,0.8871449828147888,0.906134307384491,-0.3378638029098511
1629370545217,0.7512149214744568,0.8829372525215149,0.8679459691047668,0.4685464799404144
1629370545313,0.8405138254165649,0.8640420436859131,0.8328939080238342,0.6143456697463989
1629370545423,0.8987083435058594,0.8110358715057373,0.800804853439331,0.7343199849128723
1629370545523,0.9195328950881958,0.7061157822608948,0.7717522382736206,0.8117480874061584
1629370545657,0.9098665714263916,0.5356926321983337,0.7452351450920105,0.8392941355705261
1629370545753,0.8803507089614868,0.3022705912590027,0.4627279937267303,0.8258751034736633
1629370545877,0.841838002204895,0.0517668463289737,0.1309882849454879,0.7915071845054626
1629370545981,0.8025026917457581,-0.1388906240463256,-0.1358304917812347,0.7555891871452332
1629370546055,0.7665414810180664,-0.2631895542144775,-0.257823497056961,0.7256993651390076
1629370546130,0.733953595161438,-0.3089539408683777,-0.2628397643566131,0.6988429427146912
1629370546265,0.7039849162101746,-0.3088030219078064,-0.2520271241664886,0.6727255582809448
1629370546340,0.6764811873435974,-0.2835383713245392,-0.2344212532043457,0.6470786929130554
1629370546407,0.6642412543296814,-0.2504993081092834,-0.21025250852108,0.6403560042381287
1629370546486,0.6441221833229065,-0.220196858048439,-0.1932719051837921,0.6334033012390137
1629370546690,0.6057420969009399,-0.1986642628908157,-0.1876785010099411,0.6204044222831726
1629370546736,0.5409631729125977,-0.1835387051105499,-0.1929415762424469,0.5892449617385864
1629370546823,0.4447391331195831,-0.1734016388654709,-0.1995392143726349,0.5247023105621338
1629370546960,0.3040940761566162,-0.1687012910842895,-0.2081898003816604,0.4129398167133331
1629370547004,0.1352914273738861,-0.1649258434772491,-0.2217793613672256,0.2457454651594162
1629370547130,-0.0103325871750712,-0.1598247587680816,-0.2397694289684295,0.0556388646364212
1629370547263,-0.0662030056118965,-0.1506250500679016,-0.2540066540241241,-0.0691234990954399
1629370547364,-0.0382279343903064,-0.1420176923274994,-0.2612581253051758,-0.093110904097557
1629370547432,0.0130134243518114,-0.1417399048805236,-0.2627573311328888,-0.0904378220438957
1629370547501,0.0444608964025974,-0.1471800804138183,-0.260526031255722,-0.1077910438179969
1629370547658,0.0545394197106361,-0.1558697819709777,-0.2672739624977112,-0.12565678358078
1629370547705,0.0560402832925319,-0.1671062707901001,-0.2910920083522796,-0.1275334358215332
1629370547908,0.0571852549910545,-0.1828528940677642,-0.3366364538669586,-0.113778680562973
1629370547986,0.071554996073246,-0.1998340040445327,-0.4002906084060669,-0.0998902544379234
1629370548048,0.0983373597264289,-0.2126811444759369,-0.4594317972660064,-0.0971123203635215
1629370548140,0.132426306605339,-0.2196788191795349,-0.5020966529846191,-0.1063668876886367
1629370548221,0.1682552099227905,-0.227104052901268,-0.498072862625122,-0.1224264577031135
1629370548356,0.1972090154886245,-0.2452739626169204,-0.4385403990745544,-0.1397216916084289
1629370548474,0.2187844812870025,-0.2750120759010315,-0.3310576379299164,-0.1526603400707245
1629370548540,0.2414268255233764,-0.3067162036895752,-0.2120806127786636,-0.1543106436729431
1629370548652,0.2592800557613373,-0.3265580832958221,-0.1145064830780029,-0.150679737329483
1629370548810,0.2664991915225982,-0.3324071168899536,-0.0570996440947055,-0.1435012072324752
1629370548857,0.2660785913467407,-0.3347315490245819,-0.0349868200719356,-0.1342074424028396
1629370548958,0.259789228439331,-0.3385839164257049,-0.0325648188591003,-0.1060000509023666
1629370549107,0.2659787237644195,-0.3190205097198486,-0.0353684835135936,-0.0382788702845573
1629370549168,0.2977975606918335,-0.2441410720348358,-0.034720093011856,0.075200967490673
1629370549279,0.3760270178318023,-0.042985163629055,-0.0024955740664154,0.2230759412050247
1629370549352,0.5082073211669922,-0.031997587531805,0.1016468629240989,0.3849158585071563
1629370549428,0.6806159019470215,-0.0177990775555372,0.2947003841400146,0.5358062982559204
1629370549525,0.8724263310432434,-0.0005889507010579,0.3218304812908172,0.6580482721328735
1629370549642,0.8922643661499023,0.0193645562976598,0.350449800491333,0.683280348777771
1629370549809,0.9112869501113892,0.0411256924271583,0.3773406445980072,0.7119188904762268
1629370549840,0.9325649738311768,0.070799209177494,0.3986075222492218,0.7445897459983826
1629370550002,0.95950585603714,0.1114160120487213,0.4097718000411987,0.7806910276412964
1629370550124,0.99107426404953,0.1587548553943634,0.4107965230941772,0.8195224404335022
1629370550171,1.027384877204895,0.2097823470830917,0.5227496027946472,0.8612945079803467
1629370550264,1.0693374872207642,0.3444394469261169,0.5498771667480469,0.9061925411224364
1629370550394,1.11807119846344,0.427758127450943,0.5691998600959778,0.9563848376274108
1629370550474,1.177136778831482,0.5323783755302429,0.5884049534797668,1.012224555015564
1629370550642,1.2473362684249878,0.6674647331237793,0.6062943935394287,1.072300672531128
1629370550722,1.330031394958496,0.7147405743598938,0.6206657290458679,1.0759283304214478
1629370550817,1.330031394958496,0.7048658728599548,0.6254295110702515,1.0657223463058472
1629370550909,1.330031394958496,0.7048658728599548,0.6057687401771545,1.031787395477295
1629370551004,1.330031394958496,0.7048658728599548,0.5056444406509399,0.9679535031318665
1629370551086,1.330031394958496,0.7048658728599548,0.5069535374641418,0.85703444480896
1629370551195,1.330031394958496,0.7048658728599548,0.5054569244384766,0.85703444480896
1629370551365,1.330031394958496,0.7048658728599548,0.5019874572753906,0.85703444480896
1629370551484,1.330031394958496,0.7023677229881287,0.4973383247852325,0.85703444480896
1629370551563,1.330031394958496,0.6740974187850952,0.489207923412323,0.8891974091529846
1629370551635,1.330031394958496,0.6437069773674011,0.4763801991939544,0.8865281939506531
1629370551713,1.330031394958496,0.6048846244812012,0.3847153186798095,0.8600649833679199
1629370551767,1.330031394958496,0.5574732422828674,0.3457075357437134,0.8600649833679199
1629370551897,1.330031394958496,0.564515233039856,0.3469825983047485,0.8600649833679199
1629370552023,1.330031394958496,0.5420721769332886,0.4457772672176361,0.8600649833679199
1629370552104,1.330031394958496,0.4003234505653381,0.6619355082511902,0.8600649833679199
1629370552216,1.330031394958496,0.4003234505653381,0.6818735003471375,0.8791046142578125
1629370552337,1.330031394958496,0.4003234505653381,0.7029502987861633,0.8887789249420166
1629370552415,1.330031394958496,0.4003234505653381,0.7209027409553528,0.8855896592140198
1629370552481,1.330031394958496,0.4003234505653381,0.7357130646705627,0.8855896592140198
1629370552553,1.330031394958496,0.4003234505653381,0.7524738907814026,0.8855896592140198
1629370552729,1.330031394958496,0.4003234505653381,0.7738161683082581,0.8855896592140198
1629370552793,1.330031394958496,0.4003234505653381,0.7665689587593079,0.8855896592140198
1629370552949,1.330031394958496,0.2813629508018493,0.7493717074394226,0.8855896592140198
1629370553029,1.330031394958496,0.1104075908660888,0.732904314994812,0.8855896592140198
1629370553122,1.330031394958496,-0.1015834584832191,0.7203420400619507,0.8855896592140198
1629370553222,1.330031394958496,-0.2794269025325775,0.7143499255180359,0.8855896592140198
1629370553342,1.330031394958496,-0.3616494238376617,0.7085395455360413,0.8855896592140198
1629370553474,-0.0883547663688659,-0.3780668675899505,0.6837761402130127,-0.1485749930143356
1629370553543,0.0267989989370107,-0.3689460456371307,0.5638344287872314,-0.0509211607277393
1629370553650,0.1049087718129158,-0.3506030142307281,-0.3269456028938293,-0.0113579696044325
1629370553728,0.1572158485651016,-0.3430666327476501,-0.3625235557556152,-0.0138149848207831
1629370553825,0.1895608305931091,-0.3466015756130218,-0.3941900134086609,-0.0374209806323051
1629370554024,0.215012326836586,-0.366623044013977,-0.4207069277763366,-0.0666330009698867
1629370554054,0.2327098399400711,-0.3887222707271576,-0.4356710910797119,-0.0952559113502502
1629370554169,0.2375542372465133,-0.4017695784568786,-0.435956060886383,-0.115614578127861
1629370554244,0.2236050963401794,-0.4062600135803222,-0.4281609058380127,-0.1319308131933212
1629370554360,0.1977470815181732,-0.4029118120670318,-0.5650080442428589,-0.149156391620636
1629370554468,0.1686557978391647,-0.3930380046367645,-0.5935512781143188,-0.1649949997663498
1629370554570,0.1407451182603836,-0.3940893113613128,-0.6085708737373352,-0.1793042123317718
1629370554683,0.1329722553491592,-0.3800287842750549,-0.6178652048110962,-0.1751537322998047
1629370554746,0.1255942434072494,-0.3551242649555206,-0.6160036325454712,-0.172730803489685
1629370554814,0.116274781525135,-0.3351896703243255,-0.609319806098938,-0.1935956627130508
1629370554889,0.1063066869974136,-0.3306959867477417,-0.5965864062309265,-0.2428781539201736
1629370554992,0.1047701388597488,-0.3436448276042938,-0.5590993165969849,-0.3131861090660095
1629370555196,0.1190288886427879,-0.3632277250289917,-0.4887715578079223,-0.3776488006114959
1629370555319,0.1376331597566604,-0.375737726688385,-0.3670928478240967,-0.4137978255748749
1629370555368,0.1440581083297729,-0.3796497583389282,-0.2187488228082656,-0.4266163408756256
1629370555438,0.1258636116981506,-0.3657061755657196,-0.083335168659687,-0.4236952662467956
1629370555501,0.0899314656853675,-0.3459104001522064,0.0143015952780842,-0.4051472246646881
1629370555697,0.0543690845370292,-0.3286120891571045,0.0699282810091972,-0.3771560490131378
1629370555812,0.0560294054448604,-0.320376455783844,0.0882505401968956,-0.3777192533016205
1629370555899,0.076721653342247,-0.317362904548645,0.1076139211654663,-0.3734248876571655
1629370555968,0.1073621436953544,-0.3211602568626404,0.1308579444885254,-0.367518275976181
1629370556167,0.1423777192831039,-0.3340701460838318,0.1600884050130844,-0.3604346513748169
1629370556248,0.1803668290376663,-0.3563416600227356,0.1939756423234939,-0.3583595752716064
1629370556326,0.2211776226758957,-0.3853334784507751,0.2327921986579895,-0.355330616235733
1629370556430,0.2611171007156372,-0.4083493649959564,0.2775942087173462,-0.3451541066169739
1629370556510,0.2879659831523895,-0.41407111287117,0.3287252485752105,-0.3255997896194458
1629370556572,0.2862399220466614,-0.3922543823719024,0.3823244869709015,-0.3034444153308868
1629370556691,0.2375341057777404,-0.3615819215774536,0.4359786510467529,-0.2854926288127899
1629370556777,0.1272876858711242,-0.3347340524196625,0.4760218858718872,-0.2681168019771576
