timestamp,TP9,AF7,AF8,TP10
1631118271106,-0.181376963853836,1.4736496210098269,0.5614280700683594,0.3486024141311645
1631118271501,-0.181376963853836,1.536118984222412,0.5614280700683594,0.3486024141311645
1631118271808,-0.181376963853836,1.4331732988357544,0.5614280700683594,0.3486024141311645
1631118271829,-0.181376963853836,1.5208613872528076,0.5614280700683594,0.3486024141311645
1631118271880,-0.181376963853836,1.5208613872528076,0.5614280700683594,0.3486024141311645
1631118272053,-0.181376963853836,1.5208613872528076,0.5614280700683594,0.3486024141311645
1631118272073,-0.181376963853836,1.5208613872528076,0.5614280700683594,0.3486024141311645
1631118272134,-0.181376963853836,1.5208613872528076,0.5614280700683594,0.3486024141311645
1631118272390,-0.181376963853836,1.5208613872528076,0.5614280700683594,0.3486024141311645
1631118272552,-0.181376963853836,1.6037883758544922,0.5614280700683594,0.3486024141311645
1631118272581,-0.181376963853836,1.6037883758544922,0.5614280700683594,0.3486024141311645
1631118272588,-0.181376963853836,1.6037883758544922,0.5614280700683594,0.3486024141311645
1631118272605,-0.181376963853836,1.6960163116455078,0.5614280700683594,0.3486024141311645
1631118273051,-0.181376963853836,1.6960163116455078,0.5614280700683594,0.3486024141311645
1631118273134,-0.181376963853836,1.6960163116455078,0.5614280700683594,0.3486024141311645
1631118273535,-0.181376963853836,1.6960163116455078,0.5614280700683594,0.3486024141311645
1631118274068,-0.181376963853836,1.6960163116455078,0.5614280700683594,0.3486024141311645
1631118274303,-0.181376963853836,1.6960163116455078,0.5614280700683594,0.3486024141311645
1631118274305,-0.181376963853836,1.6960163116455078,0.5614280700683594,0.3486024141311645
1631118274537,-0.181376963853836,1.6960163116455078,0.5614280700683594,0.3486024141311645
1631118274902,-0.181376963853836,1.6960163116455078,0.5614280700683594,0.3486024141311645
1631118274986,-0.181376963853836,1.6960163116455078,0.5614280700683594,0.3486024141311645
1631118275068,-0.181376963853836,1.6960163116455078,0.5614280700683594,0.3486024141311645
1631118275129,-0.181376963853836,1.6960163116455078,0.5614280700683594,0.3486024141311645
1631118275135,-0.181376963853836,1.6960163116455078,0.5614280700683594,0.3486024141311645
1631118275146,-0.181376963853836,1.6960163116455078,0.5614280700683594,0.3486024141311645
1631118275149,-0.181376963853836,1.6960163116455078,0.5614280700683594,0.3486024141311645
1631118275180,-0.181376963853836,1.6960163116455078,0.5614280700683594,0.3486024141311645
1631118275291,-0.181376963853836,1.6960163116455078,0.5614280700683594,0.3486024141311645
1631118275420,-0.181376963853836,1.6960163116455078,0.5614280700683594,0.3486024141311645
1631118275437,-0.181376963853836,2.428663969039917,0.5614280700683594,0.3486024141311645
1631118275449,-0.181376963853836,2.613314628601074,0.5614280700683594,0.3486024141311645
1631118275706,-0.181376963853836,2.8586010932922363,0.5614280700683594,0.3486024141311645
1631118275725,-0.181376963853836,2.911897897720337,1.799538016319275,0.3486024141311645
1631118275730,-0.181376963853836,2.911897897720337,1.799538016319275,0.3486024141311645
1631118275737,3.2594308853149414,2.911897897720337,1.799538016319275,0.3486024141311645
1631118275755,3.114245653152466,2.864948272705078,2.0598723888397217,0.3486024141311645
1631118275762,3.176273822784424,2.911897897720337,1.799538016319275,0.3486024141311645
1631118275835,3.114245653152466,2.9167065620422363,1.9819073677062988,0.3486024141311645
1631118275920,3.114245653152466,2.9167065620422363,1.9819073677062988,0.3486024141311645
1631118276154,3.114245653152466,2.9167065620422363,1.933017015457153,0.3486024141311645
1631118276240,3.114245653152466,2.9167065620422363,1.924551486968994,0.3486024141311645
1631118276310,3.114245653152466,2.9167065620422363,1.9289075136184688,0.3486024141311645
1631118276452,3.114245653152466,2.9167065620422363,1.973307728767395,0.3486024141311645
1631118276500,3.114245653152466,2.9893572330474854,1.973307728767395,0.3486024141311645
1631118276547,3.114245653152466,3.108011245727539,1.979151487350464,0.3486024141311645
1631118276605,3.114245653152466,3.1329493522644043,2.030202388763428,0.3486024141311645
1631118276696,3.0473194122314453,3.1329493522644043,2.08803129196167,0.3486024141311645
1631118276766,2.901806354522705,3.1329493522644043,2.032456398010254,0.3486024141311645
1631118276830,2.901806354522705,3.1329493522644043,1.9747190475463867,0.3486024141311645
1631118276897,2.901806354522705,3.1329493522644043,1.923790454864502,0.3486024141311645
1631118276949,2.901806354522705,3.1329493522644043,1.92549991607666,0.3486024141311645
1631118277020,2.901806354522705,3.1329493522644043,1.717049479484558,0.3486024141311645
1631118277065,2.901806354522705,3.1329493522644043,1.7733808755874634,0.3486024141311645
1631118277137,2.901806354522705,3.1329493522644043,1.868941068649292,2.8492088317871094
1631118277181,2.901806354522705,3.1329493522644043,1.8289283514022827,2.8492088317871094
1631118277224,2.901806354522705,3.1329493522644043,1.7723897695541382,2.8492088317871094
1631118277257,2.901806354522705,2.6975228786468506,1.6767048835754397,2.8492088317871094
1631118277324,2.901806354522705,2.6975228786468506,1.6767048835754397,2.8492088317871094
1631118277372,2.901806354522705,2.6975228786468506,1.6767048835754397,2.8492088317871094
1631118277408,2.901806354522705,2.6975228786468506,1.6767048835754397,2.8492088317871094
1631118277460,2.901806354522705,2.6975228786468506,1.6767048835754397,2.8492088317871094
1631118277496,2.901806354522705,2.6975228786468506,1.6574478149414062,2.8492088317871094
1631118277555,2.901806354522705,2.6975228786468506,1.7081304788589478,2.8492088317871094
1631118277626,2.901806354522705,1.7005635499954224,1.765708565711975,2.8492088317871094
1631118277684,2.901806354522705,1.604073166847229,1.7282493114471436,2.8492088317871094
1631118277751,2.901806354522705,1.7952009439468384,1.8065048456192017,2.8492088317871094
1631118277946,2.901806354522705,1.7765480279922483,1.7896485328674316,2.8492088317871094
1631118278075,2.901806354522705,1.7189160585403442,1.7896485328674316,2.8492088317871094
1631118278107,2.901806354522705,1.7325769662857056,1.7896485328674316,2.8492088317871094
1631118278335,2.901806354522705,1.7470242977142334,1.7896485328674316,2.8492088317871094
1631118278344,2.901806354522705,1.8272194862365725,1.7896485328674316,2.8492088317871094
1631118278447,2.901806354522705,1.7921783924102783,1.7896485328674316,2.8492088317871094
1631118278569,2.901806354522705,1.7921783924102783,1.7896485328674316,2.8492088317871094
1631118278684,2.901806354522705,1.772775173187256,1.7896485328674316,2.8492088317871094
1631118278729,2.901806354522705,1.7568036317825315,1.7896485328674316,2.8492088317871094
1631118278735,2.901806354522705,1.7568036317825315,1.7896485328674316,2.8492088317871094
1631118278926,2.901806354522705,1.7568036317825315,1.7896485328674316,2.8492088317871094
1631118279420,2.901806354522705,1.7568036317825315,1.7896485328674316,2.8492088317871094
1631118279508,2.901806354522705,1.7627625465393066,1.7896485328674316,2.8492088317871094
1631118279791,2.901806354522705,1.7929868698120115,1.7896485328674316,2.8492088317871094
1631118280085,2.901806354522705,1.6526886224746704,1.7896485328674316,2.8492088317871094
1631118280115,2.901806354522705,1.6247385740280151,1.7896485328674316,2.8492088317871094
1631118280272,2.901806354522705,1.651003360748291,1.7896485328674316,2.8492088317871094
1631118280384,2.901806354522705,1.7147607803344729,1.7896485328674316,2.8492088317871094
1631118280507,2.901806354522705,1.801639199256897,1.7896485328674316,2.8492088317871094
1631118280548,2.901806354522705,1.6479600667953491,1.7896485328674316,2.8492088317871094
1631118280569,2.901806354522705,1.7377305030822754,1.7896485328674316,2.8492088317871094
1631118280648,2.901806354522705,1.9506165981292725,1.7896485328674316,2.8492088317871094
1631118280665,2.901806354522705,2.315884828567505,1.7896485328674316,2.8492088317871094
1631118280697,2.901806354522705,2.309281826019287,1.7896485328674316,2.8492088317871094
1631118280714,2.901806354522705,2.2825331687927246,1.7896485328674316,2.8492088317871094
1631118280739,2.901806354522705,2.247950553894043,1.7896485328674316,2.8492088317871094
1631118280740,2.901806354522705,2.2510786056518555,1.7896485328674316,2.8492088317871094
1631118280832,2.901806354522705,2.316723108291626,1.7896485328674316,2.8492088317871094
1631118280871,2.901806354522705,2.5000758171081543,1.7896485328674316,2.8492088317871094
1631118280881,2.901806354522705,2.4703176021575928,1.7896485328674316,2.8492088317871094
1631118281103,2.901806354522705,2.5306859016418457,1.7896485328674316,2.8492088317871094
1631118281211,2.901806354522705,2.562819719314575,1.7896485328674316,2.8492088317871094
1631118281271,2.901806354522705,2.551522731781006,1.7896485328674316,2.8492088317871094
1631118281354,2.901806354522705,2.5456414222717285,1.7896485328674316,2.8492088317871094
1631118281425,2.901806354522705,2.5487468242645264,1.7896485328674316,2.8492088317871094
1631118281492,2.901806354522705,2.5701966285705566,1.7896485328674316,2.8492088317871094
1631118281901,2.901806354522705,2.558596134185791,1.7896485328674316,2.8492088317871094
1631118281932,2.901806354522705,2.3820114135742188,1.7896485328674316,2.8492088317871094
1631118281964,2.901806354522705,2.4330856800079346,1.6585344076156616,2.8492088317871094
1631118282288,2.901806354522705,2.4239542484283447,1.5656989812850952,2.8492088317871094
1631118282602,2.901806354522705,2.4232308864593506,1.4894860982894895,2.8492088317871094
1631118282653,2.901806354522705,2.4171879291534424,1.5230907201766968,2.8492088317871094
1631118282677,2.901806354522705,2.390332698822021,1.4687420129776,2.8492088317871094
1631118282737,2.901806354522705,1.8811856508255005,1.4183874130249023,2.8492088317871094
1631118282741,2.901806354522705,1.866336703300476,1.435272455215454,2.8492088317871094
1631118282752,2.901806354522705,1.9118210077285769,1.476220965385437,2.8492088317871094
1631118282854,2.901806354522705,1.8957277536392207,1.411359190940857,2.8492088317871094
1631118282885,2.901806354522705,1.999332427978516,1.3814911842346191,2.8492088317871094
1631118282982,2.901806354522705,1.9877110719680784,1.3549195528030396,2.8492088317871094
1631118283020,2.901806354522705,2.2688658237457275,1.3549195528030396,2.8492088317871094
1631118283026,2.901806354522705,2.167544364929199,1.3549195528030396,2.8492088317871094
1631118283039,2.901806354522705,2.2688658237457275,1.3549195528030396,2.8492088317871094
1631118283069,2.901806354522705,2.2688658237457275,1.2013800144195557,2.8492088317871094
1631118283174,2.901806354522705,2.3035504817962646,1.2534672021865845,2.8492088317871094
1631118283482,2.901806354522705,2.353280544281006,1.316025733947754,2.8492088317871094
1631118283581,2.901806354522705,2.346745491027832,1.1816551685333252,2.8492088317871094
1631118283863,2.901806354522705,2.2879319190979004,1.267174482345581,2.8492088317871094
1631118283901,2.901806354522705,2.287179708480835,1.267174482345581,2.8492088317871094
1631118284085,2.901806354522705,2.3007471561431885,1.267174482345581,2.8492088317871094
1631118284165,2.901806354522705,2.3420486450195312,1.267174482345581,2.8492088317871094
1631118284166,2.901806354522705,2.36130428314209,1.267174482345581,2.8492088317871094
1631118284185,2.901806354522705,2.3022475242614746,1.7713438272476196,2.8492088317871094
1631118284219,2.901806354522705,2.312563896179199,1.7713438272476196,2.8492088317871094
1631118284268,2.901806354522705,2.317176580429077,1.7713438272476196,2.8492088317871094
1631118284279,2.901806354522705,2.1626241207122803,1.7713438272476196,2.8492088317871094
1631118284299,2.901806354522705,1.865903735160828,1.7713438272476196,2.8492088317871094
1631118284473,2.901806354522705,1.8205103874206543,1.7713438272476196,2.8492088317871094
1631118284501,2.901806354522705,1.7861790657043457,1.7713438272476196,2.8492088317871094
1631118284717,2.901806354522705,1.7486488819122314,1.7713438272476196,2.8492088317871094
1631118284738,2.901806354522705,1.6844911575317385,1.7713438272476196,2.8492088317871094
1631118284923,2.901806354522705,1.6586952209472656,1.7713438272476196,2.8492088317871094
1631118285202,2.901806354522705,1.6585112810134888,1.7713438272476196,2.8492088317871094
1631118285264,2.901806354522705,1.6625540256500244,1.7713438272476196,2.8492088317871094
1631118285309,2.901806354522705,1.7914246320724487,1.7713438272476196,2.8492088317871094
1631118285443,1.933316826820373,1.7971906661987305,1.7713438272476196,2.8492088317871094
1631118285558,1.867148876190185,1.7797847986221311,1.7713438272476196,2.8492088317871094
1631118285620,1.7892574071884155,1.7838308811187744,1.7713438272476196,2.8492088317871094
1631118285662,1.7239381074905396,1.7650392055511477,1.7713438272476196,2.8492088317871094
1631118285666,1.7271995544433594,1.8000143766403198,1.7713438272476196,2.8492088317871094
1631118285792,1.6777228116989136,1.7329809665679932,1.7713438272476196,2.8492088317871094
1631118286004,1.6758543252944946,1.7413465976715088,0.8028602004051208,2.8492088317871094
1631118286104,1.6309837102890017,1.741266846656799,0.7689324021339417,2.8492088317871094
1631118286196,1.5904494524002075,1.778781533241272,0.7133542895317078,2.8492088317871094
1631118286378,1.5535844564437866,1.7786670923233032,0.6541709303855896,1.5286238193511963
1631118286472,1.5197168588638306,1.669083833694458,0.5996898412704468,1.4433525800704956
1631118286720,1.4883522987365725,1.6402486562728882,0.551500141620636,1.4045058488845823
1631118286752,1.4756245613098145,1.640207290649414,0.6929594874382019,1.6094927787780762
1631118286771,1.2556504011154177,1.5728325843811035,0.6225658655166626,1.562517166137695
1631118286774,1.5449997186660769,1.7313361167907717,0.6555617451667786,1.5996191501617432
1631118286864,1.1137710809707642,1.5122164487838743,0.5930808186531067,1.5780127048492432
1631118287009,1.0598163604736328,1.4554303884506226,0.7731968760490417,1.6065454483032229
1631118287010,1.0573441982269287,1.4890615940093994,0.7858471274375916,1.6378991603851318
1631118287139,0.9825727343559264,1.4516276121139526,0.834716796875,1.6075912714004517
1631118287143,1.1041361093521118,1.4232333898544312,0.8359372615814209,1.6075912714004517
1631118287201,1.0093955993652344,1.4516834020614624,0.8280080556869507,1.6075912714004517
1631118287516,1.0401372909545898,1.4804840087890625,0.827521026134491,1.6393285989761353
1631118287676,1.0750383138656616,1.592725396156311,0.9738534688949584,1.6003024578094482
1631118287795,1.113611936569214,1.5462702512741089,0.9799753427505492,1.598288655281067
1631118287819,1.1563096046447754,1.546794056892395,0.9855108857154846,1.5950703620910645
1631118287994,1.2044718265533447,1.5471378564834597,0.9880090355873108,1.6629016399383545
1631118288209,1.2596983909606934,1.6057816743850708,1.098155856132507,1.695720911026001
1631118288370,1.2626160383224487,1.605927348136902,1.0462559461593628,1.5939747095108032
1631118288401,0.7830433249473572,1.5848252773284912,1.3337308168411257,1.6031821966171265
1631118288417,0.7884191274642944,1.581135392189026,1.3339260816574097,1.6536325216293335
1631118288549,0.7884191274642944,1.581291437149048,1.33491849899292,1.644393801689148
1631118288670,0.7884191274642944,1.5814423561096191,1.2760028839111328,1.4810150861740112
1631118288892,0.7884191274642944,1.581525206565857,1.2776765823364258,1.4810150861740112
1631118288942,0.7884191274642944,1.6376761198043823,1.241144776344299,1.4810150861740112
1631118289028,0.7884191274642944,1.7841569185256958,1.2092286348342896,1.4810150861740112
1631118289035,0.7884191274642944,2.179466724395752,1.298111915588379,1.4810150861740112
1631118289153,0.7884191274642944,2.173783540725708,1.2958863973617554,1.4810150861740112
1631118289217,0.7884191274642944,2.1521189212799072,1.2843058109283447,1.4810150861740112
1631118289326,0.7884191274642944,2.155136585235596,1.343364715576172,1.4810150861740112
1631118289460,0.7884191274642944,2.1552281379699707,1.345773696899414,1.4810150861740112
1631118289491,0.7884191274642944,2.175442934036255,1.348001480102539,1.4810150861740112
1631118289508,0.7884191274642944,2.1583895683288574,1.3043261766433716,1.4810150861740112
1631118289543,0.7884191274642944,2.356969118118286,1.32623028755188,1.4810150861740112
1631118289716,0.7884191274642944,2.370042085647583,1.1634153127670288,1.4810150861740112
1631118289953,0.7884191274642944,2.4021596908569336,1.1637122631072998,1.4810150861740112
1631118290072,0.7884191274642944,2.402263879776001,1.1645585298538208,1.4810150861740112
1631118290085,0.7884191274642944,2.4022555351257324,1.1710853576660156,1.4810150861740112
1631118290120,0.7884191274642944,2.402274370193481,1.16894268989563,1.4810150861740112
1631118290380,0.7884191274642944,2.363908052444458,1.2891957759857178,1.4810150861740112
1631118290619,0.7884191274642944,2.124589681625366,1.1988458633422852,1.4810150861740112
1631118290641,0.7884191274642944,2.1204593181610107,1.1980149745941162,1.4810150861740112
1631118290654,0.7884191274642944,2.1143360137939453,1.1801719665527344,1.4810150861740112
1631118290814,0.7884191274642944,2.1042349338531494,1.1213252544403076,1.4810150861740112
1631118291122,0.7884191274642944,2.109080076217652,1.1416971683502195,1.4810150861740112
1631118291176,0.7884191274642944,2.081914186477661,1.1602435111999512,1.4810150861740112
1631118291234,0.7884191274642944,1.4912575483322144,1.2449026107788086,1.4810150861740112
1631118291239,0.7884191274642944,2.104896068572998,1.2422363758087158,1.4810150861740112
1631118291343,0.7884191274642944,1.459527850151062,1.2279082536697388,1.4810150861740112
1631118291540,0.7884191274642944,1.4299908876419067,1.2610502243041992,1.4810150861740112
1631118291631,0.7884191274642944,1.5010011196136477,1.2975726127624512,1.4810150861740112
1631118291660,0.7884191274642944,1.5696451663970947,1.3355932235717771,1.4810150861740112
1631118291669,0.7884191274642944,1.7569180727005005,1.37239408493042,1.4810150861740112
1631118291698,0.7884191274642944,1.756792664527893,1.4105420112609863,1.4810150861740112
1631118291732,0.7884191274642944,1.638166069984436,1.315024495124817,1.4810150861740112
1631118291968,0.7884191274642944,1.7386678457260132,1.2859740257263184,1.4810150861740112
1631118292004,0.7884191274642944,1.802127718925476,1.51410174369812,1.4810150861740112
1631118292009,0.7884191274642944,1.8017829656600952,1.5048364400863647,1.4810150861740112
1631118292065,0.7884191274642944,1.8011903762817385,1.4806599617004397,1.4810150861740112
1631118292238,0.7884191274642944,1.7922598123550415,1.4597889184951782,1.4810150861740112
1631118292418,0.7884191274642944,2.003544330596924,1.4403239488601685,1.4810150861740112
1631118292520,0.7884191274642944,2.0246825218200684,1.606878399848938,1.4810150861740112
1631118292601,0.7884191274642944,2.0290541648864746,1.5811102390289309,1.4810150861740112
1631118293030,0.7884191274642944,2.029051780700684,1.5403687953948977,1.4810150861740112
1631118293060,0.7884191274642944,2.0290756225585938,1.503875970840454,1.4810150861740112
1631118293339,0.7884191274642944,2.0104100704193115,1.4928295612335205,1.4810150861740112
1631118293359,0.7884191274642944,2.0089550018310547,1.4825328588485718,1.4810150861740112
1631118293371,0.7884191274642944,1.915832996368408,1.460835337638855,1.4810150861740112
1631118293432,0.7884191274642944,1.9218332767486568,1.4481912851333618,1.4810150861740112
1631118293511,0.7884191274642944,1.9632439613342283,1.4196163415908811,1.4810150861740112
1631118293606,0.7884191274642944,2.0567586421966557,1.4573959112167358,1.4810150861740112
1631118293887,0.7884191274642944,2.0523955821990967,1.29259192943573,1.4810150861740112
1631118294168,0.7884191274642944,2.084451913833618,1.2753676176071167,1.4810150861740112
1631118294471,0.7884191274642944,2.0843827724456787,1.2756624221801758,1.4810150861740112
1631118294497,0.7884191274642944,2.1036972999572754,1.3730584383010864,1.4810150861740112
1631118294549,0.7884191274642944,1.9141088724136357,1.4491956233978271,1.4810150861740112
1631118294721,0.7884191274642944,1.8450927734375,1.2384858131408691,1.4810150861740112
1631118294996,0.7884191274642944,1.8373112678527832,1.2838866710662842,1.4810150861740112
1631118295069,0.7884191274642944,2.2770283222198486,1.3336879014968872,1.4810150861740112
1631118295090,0.7884191274642944,2.404410123825073,1.4098454713821411,1.4810150861740112
1631118295090,0.7884191274642944,2.4391119480133057,1.6053950786590576,1.4810150861740112
1631118295134,2.3812856674194336,2.4323630332946777,1.5974918603897097,1.4810150861740112
1631118295157,2.3204381465911865,2.4504456520080566,1.6832038164138794,1.4810150861740112
1631118295187,2.242673873901367,2.44821834564209,1.672876477241516,1.4810150861740112
1631118295238,2.1978719234466557,2.438905477523804,1.6749032735824585,1.4810150861740112
1631118295252,2.2073655128479004,2.3841381072998047,1.6520500183105469,1.4810150861740112
1631118295303,2.1584665775299072,2.3519229888916016,1.650826334953308,1.4810150861740112
1631118295363,2.114227533340454,2.3197596073150635,1.690472960472107,1.4810150861740112
1631118295476,2.073526382446289,2.3730874061584477,1.690232515335083,1.4810150861740112
1631118295571,2.062873125076294,2.384754180908203,1.7029650211334229,1.4810150861740112
1631118295586,2.044509172439575,2.4311864376068115,1.6967467069625854,1.4810150861740112
1631118295769,2.0836470127105717,2.460069179534912,1.7602025270462036,1.4810150861740112
1631118295895,2.0718934535980225,2.46810245513916,1.74554705619812,1.4810150861740112
1631118295979,1.9048351049423216,2.259910821914673,1.7268774509429932,1.4810150861740112
1631118296061,1.873287558555603,2.112022876739502,1.7225061655044556,1.4810150861740112
1631118296118,1.7948057651519775,2.082655668258667,1.5811046361923218,1.4810150861740112
1631118296202,1.8284868001937864,2.0834619998931885,1.5886969566345217,1.4810150861740112
1631118296282,1.7823141813278198,2.049241781234741,1.4778155088424685,1.4810150861740112
1631118296368,1.789865255355835,2.2258331775665283,1.494325041770935,1.4810150861740112
1631118296416,1.7573795318603516,2.2509939670562744,1.4908413887023926,1.4810150861740112
1631118296439,1.658250331878662,2.233153820037842,1.599782109260559,1.4810150861740112
1631118296662,1.6937850713729858,2.230402708053589,1.599994421005249,1.4810150861740112
1631118296686,1.7355331182479858,2.23995304107666,1.5499956607818604,1.4810150861740112
1631118296718,1.7348337173461914,2.171207427978516,1.5498392581939695,1.4810150861740112
1631118296752,1.7040783166885376,2.1564488410949707,1.4974783658981323,1.4810150861740112
1631118296924,1.7006584405899048,2.073676824569702,1.451777458190918,1.4810150861740112
1631118297106,1.1963530778884888,2.004903554916382,1.310696721076965,1.4810150861740112
1631118297354,0.6357936263084412,1.9827700853347776,1.2861331701278689,1.4810150861740112
1631118297561,0.7161403298377991,1.9829832315444944,1.285720944404602,1.4810150861740112
1631118297902,0.7161403298377991,1.9543735980987549,1.2239868640899658,1.4810150861740112
1631118297964,0.7161403298377991,1.9543776512146,1.253105878829956,1.4810150861740112
1631118298079,0.7161403298377991,1.949864387512207,1.2178345918655396,1.4810150861740112
1631118298211,0.7161403298377991,1.9689438343048096,1.253809094429016,1.4810150861740112
1631118298314,0.7161403298377991,1.5679408311843872,1.2542535066604614,1.4810150861740112
1631118298603,0.7161403298377991,1.3687576055526731,1.298020362854004,1.4810150861740112
1631118298735,0.7161403298377991,1.3454535007476809,0.7604411244392395,1.4810150861740112
1631118299020,0.7161403298377991,1.3447644710540771,0.8124780654907227,1.4810150861740112
1631118299254,0.7161403298377991,1.456860065460205,1.099658727645874,1.4810150861740112
1631118299256,0.7161403298377991,1.300615310668945,1.0357108116149902,1.4810150861740112
1631118299276,0.7161403298377991,1.3873273134231567,0.9270816445350648,1.4810150861740112
1631118299285,0.7161403298377991,1.4354408979415894,0.9525679349899292,1.4810150861740112
1631118299286,0.7161403298377991,1.406462550163269,0.9023699164390564,1.4810150861740112
1631118299525,0.7161403298377991,1.4726723432540894,1.4146084785461426,1.4810150861740112
1631118299779,0.7161403298377991,1.512895941734314,1.513551115989685,1.4810150861740112
1631118299826,0.7161403298377991,1.5423341989517212,1.4189982414245603,1.4810150861740112
1631118299889,0.7161403298377991,1.6420600414276123,1.3431456089019775,1.4810150861740112
1631118299905,0.7161403298377991,1.784168004989624,1.4223943948745728,1.4810150861740112
1631118299987,0.7161403298377991,1.7843575477600098,1.528672456741333,1.4810150861740112
1631118299999,0.7161403298377991,1.8410353660583496,1.5779178142547607,1.4810150861740112
1631118300057,0.7161403298377991,1.907315135002136,1.5779178142547607,1.4810150861740112
1631118300071,0.7161403298377991,1.9216587543487549,1.5779178142547607,1.4810150861740112
1631118300165,0.7161403298377991,2.178210496902466,1.5779178142547607,1.4810150861740112
1631118300274,0.7161403298377991,2.1663978099823,1.5874981880187988,1.4810150861740112
1631118300537,0.7161403298377991,2.099481105804444,1.5702476501464844,1.4810150861740112
1631118300788,0.7161403298377991,2.031756639480591,1.546296238899231,1.4810150861740112
1631118300874,0.7161403298377991,2.031756639480591,1.5344796180725098,1.4810150861740112
1631118300922,0.7161403298377991,2.031756639480591,1.5913609266281128,1.4810150861740112
1631118300939,0.7161403298377991,2.031756639480591,1.618096947669983,1.4810150861740112
1631118301087,0.7161403298377991,1.989038109779358,1.8235844373703003,1.4810150861740112
1631118301184,0.7161403298377991,1.989038109779358,1.870903491973877,1.4810150861740112
1631118301270,0.7161403298377991,1.999321699142456,1.905634880065918,1.4810150861740112
1631118301515,0.7161403298377991,1.9249072074890137,1.8854732513427732,1.4810150861740112
1631118301984,0.7161403298377991,1.9249072074890137,1.862235426902771,1.4810150861740112
1631118302028,0.7161403298377991,1.8464163541793823,1.823248147964477,1.4810150861740112
1631118302191,0.7161403298377991,1.8311398029327397,1.7861742973327637,1.4810150861740112
1631118302191,0.7161403298377991,1.7973072528839111,1.7658288478851318,1.4810150861740112
1631118302418,0.7161403298377991,1.3575559854507446,1.796100378036499,1.4810150861740112
1631118302442,0.7161403298377991,1.5850868225097656,1.8089278936386108,1.4810150861740112
1631118302632,0.7161403298377991,2.035551786422729,1.798047661781311,1.4810150861740112
1631118302723,0.7161403298377991,2.475987672805786,1.7905244827270508,1.4810150861740112
1631118302757,0.7161403298377991,2.475987672805786,1.804411053657532,1.4810150861740112
1631118302986,0.7161403298377991,2.475987672805786,1.778040051460266,1.4810150861740112
1631118303117,0.7161403298377991,2.438023090362549,1.7695815563201904,1.4810150861740112
1631118303136,1.970566272735596,2.445775032043457,1.642625331878662,1.4810150861740112
1631118303223,2.1406772136688232,2.451887607574463,1.7586272954940796,1.4810150861740112
1631118303569,2.06203842163086,2.5483460426330566,1.722733497619629,1.4810150861740112
1631118303586,2.0932822227478027,2.5483460426330566,1.781053900718689,1.4810150861740112
1631118303654,2.129579305648804,2.5483460426330566,1.7659951448440552,1.4810150861740112
1631118303669,2.5678839683532715,2.62943434715271,2.0093953609466557,1.4810150861740112
1631118303675,2.335463523864746,2.5896639823913574,1.824512243270874,1.4810150861740112
1631118303692,2.565156936645508,2.6746511459350586,2.003689765930176,1.4810150861740112
1631118303708,2.555198431015014,2.6774697303771973,1.982368230819702,1.4810150861740112
1631118303989,2.646269559860229,2.701211929321289,2.041556596755981,1.4810150861740112
1631118304100,2.6288094520568848,2.7492146492004395,2.062645435333252,1.4810150861740112
1631118304113,2.602606773376465,2.6421704292297363,2.081740617752075,1.4810150861740112
1631118304160,2.570528268814087,2.6421704292297363,2.0744900703430176,1.4810150861740112
1631118304178,2.658724308013916,2.6421704292297363,2.106319665908813,1.4810150861740112
1631118304209,2.673103809356689,2.690932273864746,2.2227563858032227,1.4810150861740112
1631118304234,2.6874146461486816,2.747456312179565,2.2348058223724365,1.4810150861740112
1631118304358,2.717533826828003,2.8133962154388428,2.2003767490386963,1.4810150861740112
1631118304537,2.808034658432007,2.7553999423980717,2.200333833694458,1.4810150861740112
1631118304806,2.800511598587036,2.7553999423980717,2.178499460220337,1.4810150861740112
1631118304936,2.79681134223938,2.7553999423980717,2.19339656829834,1.4810150861740112
1631118304968,2.7397611141204834,2.7553999423980717,2.0998096466064453,1.4810150861740112
1631118304971,2.7713541984558105,2.7553999423980717,2.1774497032165527,1.4810150861740112
1631118304986,2.832362174987793,2.7779736518859863,2.2603907585144043,1.4810150861740112
1631118305045,2.8303487300872803,2.7779736518859863,2.253453016281128,1.4810150861740112
1631118305099,2.841404438018799,2.7779736518859863,2.202184200286865,1.4810150861740112
1631118305134,2.8506765365600586,2.7779736518859863,2.186981201171875,1.4810150861740112
1631118305165,2.862873077392578,2.7779736518859863,2.181068181991577,1.4810150861740112
1631118305242,2.8617215156555176,2.7779736518859863,2.17633056640625,1.4810150861740112
1631118305276,2.8937201499938965,2.7779736518859863,2.165646553039551,1.4810150861740112
1631118305360,2.930528163909912,2.7779736518859863,2.0084187984466557,1.4810150861740112
1631118305437,2.946498394012451,2.7779736518859863,2.164099931716919,1.4810150861740112
1631118305487,2.928645133972168,2.7779736518859863,2.205634593963623,1.4810150861740112
1631118305548,2.86362361907959,2.7779736518859863,2.213778495788574,1.4810150861740112
1631118305625,2.863301038742065,2.417043685913086,2.212064504623413,1.4810150861740112
1631118305723,2.8938910961151123,2.7552547454833984,2.2004616260528564,1.4810150861740112
1631118305770,2.8915698528289795,2.799140453338623,2.2082386016845703,1.4810150861740112
1631118305806,2.858837604522705,2.785840511322021,2.2300636768341064,1.4810150861740112
1631118305867,2.772180557250977,2.733341932296753,2.054114818572998,1.4810150861740112
1631118305984,2.772270917892456,2.6822071075439453,2.053895235061645,1.4810150861740112
1631118306017,2.7074759006500244,2.690667629241944,2.053662061691284,1.4810150861740112
1631118306225,2.6867940425872803,2.658806562423706,2.084146738052368,1.4810150861740112
1631118306527,2.690399169921875,2.61933970451355,2.076913833618164,1.4810150861740112
1631118306555,2.722531795501709,2.6097731590271,2.092545509338379,1.4810150861740112
1631118306562,2.5724434852600098,2.6296422481536865,2.073244333267212,1.4810150861740112
1631118306689,2.3617970943450928,2.6296422481536865,2.073363780975342,1.4810150861740112
1631118306797,2.232707262039185,2.6296422481536865,1.845484972000122,1.4810150861740112
1631118307004,2.151346206665039,2.6257240772247314,1.6664563417434692,1.4810150861740112
1631118307005,2.162332773208618,2.6296422481536865,1.6939756870269775,1.4810150861740112
1631118307033,2.188652753829956,2.624213933944702,1.7144622802734375,1.4810150861740112
1631118307069,1.8861324787139893,2.432769775390625,1.7007904052734375,1.4810150861740112
1631118307242,1.7416565418243408,2.2941277027130127,1.675097107887268,1.4810150861740112
1631118307271,1.4348533153533936,2.4415946006774902,1.489681363105774,1.4810150861740112
1631118307319,1.486406683921814,2.4721996784210205,1.5131902694702148,1.4810150861740112
1631118307655,1.5483042001724243,2.513568878173828,1.513205647468567,1.4810150861740112
1631118308559,1.352645993232727,2.437172174453736,1.3863825798034668,1.4810150861740112
1631118308566,1.6231766939163208,2.435020685195923,1.5132874250411987,1.4810150861740112
1631118308654,1.352645993232727,2.431683301925659,1.3654426336288452,1.4810150861740112
1631118309018,1.352645993232727,2.3933024406433105,1.3933459520339966,1.4810150861740112
1631118309102,1.3065012693405151,2.2664711475372314,1.4044209718704224,1.4810150861740112
1631118309114,1.3063476085662842,2.2250986099243164,1.4043995141983032,1.4810150861740112
1631118309232,1.45135498046875,2.222781181335449,1.3109214305877686,1.4810150861740112
1631118309261,1.7511862516403198,2.1889686584472656,1.4249606132507324,1.4810150861740112
1631118309276,1.8163042068481443,2.216371536254883,1.424978494644165,1.4810150861740112
1631118309325,1.743356704711914,2.274120807647705,1.3325753211975098,1.4810150861740112
1631118309346,1.8472552299499512,2.308835983276367,1.457744598388672,1.4810150861740112
1631118309512,2.0808050632476807,2.3387374877929688,1.412269949913025,1.4810150861740112
1631118309618,2.4135146141052246,1.9766765832901,1.39508318901062,1.4810150861740112
1631118309642,2.6575160026550293,1.9766765832901,1.3637735843658447,1.4810150861740112
1631118309654,2.802142143249512,1.9766765832901,1.4695699214935305,1.4810150861740112
1631118309686,2.918227434158325,2.110414743423462,1.7711013555526731,1.4810150861740112
1631118309687,2.867424488067627,2.13382625579834,1.7414796352386477,1.4810150861740112
1631118309717,2.903017282485962,2.1103639602661133,1.8030368089675903,1.4810150861740112
1631118309877,2.903017282485962,2.10860276222229,1.753758192062378,1.4810150861740112
1631118310101,2.9347684383392334,2.151145696640014,1.7824190855026243,1.4810150861740112
1631118310125,2.9694747924804688,2.2022690773010254,1.8198118209838867,1.4810150861740112
1631118310191,3.00232195854187,2.2030959129333496,1.8549538850784304,1.4810150861740112
1631118310268,3.038115978240967,2.268333911895752,1.8404604196548464,1.4810150861740112
1631118310602,3.08201003074646,2.293091058731079,1.8911714553833008,1.4810150861740112
1631118310652,3.1329734325408936,2.172837257385254,1.9455621242523196,1.4810150861740112
1631118310683,3.184516429901123,2.172837257385254,1.9286798238754272,1.4810150861740112
1631118310700,3.231916666030884,2.172837257385254,2.007622480392456,1.4810150861740112
1631118310795,3.2487564086914062,2.172837257385254,2.081500768661499,1.4810150861740112
1631118310825,3.220977783203125,2.172837257385254,2.081500768661499,1.4810150861740112
1631118310857,3.220977783203125,2.172837257385254,2.081500768661499,1.4810150861740112
1631118310933,3.220977783203125,2.172837257385254,2.081500768661499,1.4810150861740112
1631118311207,3.220977783203125,2.172837257385254,2.081500768661499,1.4810150861740112
1631118311246,3.220977783203125,2.172837257385254,2.081500768661499,1.4810150861740112
1631118311577,3.220977783203125,2.172837257385254,2.081500768661499,1.4810150861740112
1631118311802,3.220977783203125,2.172837257385254,2.081500768661499,1.4810150861740112
1631118311809,3.220977783203125,2.172837257385254,2.081500768661499,1.4810150861740112
1631118311819,3.220977783203125,2.172837257385254,2.081500768661499,1.4810150861740112
1631118312087,3.220977783203125,2.172837257385254,2.081500768661499,1.4810150861740112
1631118312852,3.220977783203125,2.172837257385254,2.081500768661499,1.4810150861740112
1631118313015,3.220977783203125,2.172837257385254,2.081500768661499,1.4810150861740112
1631118313122,3.220977783203125,2.172837257385254,2.081500768661499,1.4810150861740112
1631118313199,3.220977783203125,2.172837257385254,2.081500768661499,1.4810150861740112
1631118313215,3.220977783203125,2.172837257385254,2.081500768661499,1.4810150861740112
1631118313252,3.220977783203125,2.172837257385254,2.081500768661499,1.4810150861740112
1631118313255,3.220977783203125,2.172837257385254,2.081500768661499,1.4810150861740112
1631118313255,3.220977783203125,2.172837257385254,2.081500768661499,1.4810150861740112
1631118313270,3.220977783203125,2.172837257385254,2.081500768661499,1.4810150861740112
1631118313414,3.220977783203125,2.172837257385254,2.081500768661499,1.4810150861740112
1631118313604,3.220977783203125,2.172837257385254,2.081500768661499,1.4810150861740112
1631118313692,3.220977783203125,2.172837257385254,2.081500768661499,1.4810150861740112
1631118313718,3.220977783203125,2.172837257385254,2.081500768661499,1.4810150861740112
1631118313782,3.220977783203125,2.172837257385254,2.081500768661499,1.4810150861740112
1631118313799,3.220977783203125,2.172837257385254,2.081500768661499,1.4810150861740112
1631118313816,3.220977783203125,2.172837257385254,2.081500768661499,1.4810150861740112
1631118313820,3.220977783203125,2.172837257385254,2.081500768661499,1.4810150861740112
1631118313886,3.220977783203125,2.172837257385254,2.081500768661499,1.4810150861740112
1631118313959,3.220977783203125,2.172837257385254,2.081500768661499,1.4810150861740112
1631118314021,3.220977783203125,2.172837257385254,2.081500768661499,1.4810150861740112
1631118314089,3.220977783203125,2.172837257385254,2.081500768661499,1.4810150861740112
1631118314270,3.220977783203125,2.172837257385254,2.081500768661499,1.4810150861740112
1631118314344,3.220977783203125,2.172837257385254,2.081500768661499,1.4810150861740112
1631118314414,3.220977783203125,2.172837257385254,2.081500768661499,1.4810150861740112
1631118314541,3.220977783203125,2.172837257385254,2.081500768661499,1.4810150861740112
1631118314589,3.220977783203125,2.172837257385254,2.081500768661499,1.4810150861740112
1631118314629,3.220977783203125,2.172837257385254,2.081500768661499,1.4810150861740112
1631118314674,3.220977783203125,2.172837257385254,2.081500768661499,1.4810150861740112
1631118314727,3.220977783203125,2.172837257385254,2.081500768661499,1.4810150861740112
1631118314786,3.220977783203125,2.172837257385254,2.081500768661499,1.4810150861740112
1631118314849,3.220977783203125,2.172837257385254,2.081500768661499,1.4810150861740112
1631118314897,3.220977783203125,2.172837257385254,2.081500768661499,1.4810150861740112
1631118314929,3.220977783203125,2.172837257385254,2.081500768661499,1.4810150861740112
1631118314955,3.220977783203125,2.172837257385254,2.081500768661499,1.4810150861740112
1631118315031,3.220977783203125,2.172837257385254,2.081500768661499,1.4810150861740112
1631118315097,3.220977783203125,2.172837257385254,2.081500768661499,1.4810150861740112
1631118315332,3.220977783203125,2.172837257385254,2.081500768661499,1.4810150861740112
1631118315350,3.220977783203125,2.172837257385254,2.081500768661499,1.4810150861740112
1631118315395,3.220977783203125,2.172837257385254,2.081500768661499,1.4810150861740112
1631118315397,3.220977783203125,2.172837257385254,2.081500768661499,1.4810150861740112
1631118315420,3.220977783203125,2.172837257385254,2.081500768661499,1.4810150861740112
1631118315669,3.220977783203125,2.172837257385254,2.081500768661499,1.4810150861740112
1631118315886,3.220977783203125,2.172837257385254,2.081500768661499,1.4810150861740112
1631118315909,3.220977783203125,2.172837257385254,2.081500768661499,1.4810150861740112
1631118315919,3.220977783203125,2.172837257385254,2.081500768661499,1.4810150861740112
1631118315938,3.220977783203125,2.172837257385254,2.081500768661499,1.4810150861740112
1631118316030,3.220977783203125,2.172837257385254,2.081500768661499,1.4810150861740112
1631118316402,3.220977783203125,2.172837257385254,2.081500768661499,1.4810150861740112
1631118316433,3.220977783203125,2.172837257385254,2.081500768661499,1.4810150861740112
1631118316481,3.220977783203125,2.172837257385254,2.081500768661499,1.4810150861740112
1631118316557,3.220977783203125,1.6886345148086548,1.7147847414016724,1.4810150861740112
1631118316561,3.220977783203125,1.7841129302978516,1.808867573738098,1.4810150861740112
1631118316872,3.220977783203125,1.6114131212234497,1.6378086805343628,1.4810150861740112
1631118317037,3.220977783203125,1.7814691066741943,1.5725162029266355,1.4810150861740112
1631118317061,3.220977783203125,1.7814691066741943,1.5725162029266355,1.4810150861740112
1631118317061,3.220977783203125,1.7814691066741943,1.5725162029266355,1.4810150861740112
1631118317070,3.220977783203125,1.7814691066741943,1.5725162029266355,1.4810150861740112
1631118317126,3.220977783203125,1.7814691066741943,1.6669832468032837,1.4810150861740112
1631118317434,3.220977783203125,1.7283071279525757,1.622896432876587,1.4810150861740112
1631118317553,3.220977783203125,1.722958207130432,1.65393328666687,1.4810150861740112
1631118317682,3.220977783203125,1.6783167123794556,1.60917067527771,1.4810150861740112
1631118317709,3.220977783203125,1.694398283958435,1.5683752298355105,1.4810150861740112
1631118317873,3.220977783203125,1.6924622058868408,1.5311545133590698,1.4810150861740112
1631118317986,3.220977783203125,1.5362468957901,1.2502959966659546,1.4810150861740112
1631118318181,3.220977783203125,1.5468612909317017,1.3065623044967651,1.4810150861740112
1631118318341,3.220977783203125,1.576825499534607,1.2813199758529663,1.4810150861740112
1631118318744,3.220977783203125,1.5820647478103638,1.2849611043930054,1.4810150861740112
1631118318988,1.6491868495941162,1.5808513164520264,1.2883087396621704,1.4810150861740112
1631118319235,1.5539225339889526,1.2007460594177246,1.2904152870178225,1.4810150861740112
1631118319270,1.5495290756225586,1.2565374374389648,1.275479078292847,1.4810150861740112
1631118319431,1.5495290756225586,1.4777613878250122,1.3802971839904783,1.4810150861740112
1631118319557,1.5495290756225586,1.4975346326828003,1.3519010543823242,1.4810150861740112
1631118319569,1.4948300123214722,1.4663625955581665,1.19257390499115,0.9677555561065674
1631118319638,1.4401116371154783,1.475873589515686,1.1823333501815796,0.9677555561065674
1631118319638,1.4401116371154783,1.4362536668777466,1.161773443222046,0.9677555561065674
1631118319638,1.4401116371154783,1.462352991104126,1.1834728717803955,0.9677555561065674
1631118319668,2.32968544960022,1.4598902463912964,1.3230767250061035,0.9728435277938844
1631118319669,2.328357458114624,1.4598902463912964,1.3515419960021973,0.92807936668396
1631118319683,1.4401116371154783,1.4106409549713137,1.3206514120101929,0.9677555561065674
1631118319779,2.3182051181793213,1.4598902463912964,1.3262110948562622,0.92807936668396
1631118319780,2.3182051181793213,1.4598902463912964,1.298717737197876,0.92807936668396
1631118319806,2.3182051181793213,1.5093873739242554,1.3652833700180054,1.8715806007385252
1631118319893,2.3759922981262207,1.5758510828018188,1.4483020305633545,2.4668684005737305
1631118320033,2.375898838043213,1.654537558555603,1.4495673179626465,2.466944694519043
1631118320155,2.644917249679565,2.233790397644043,1.4833927154541016,2.466944694519043
1631118320250,2.664213180541992,2.254424333572388,1.5349713563919067,2.466944694519043
1631118320349,2.664213180541992,2.254424333572388,1.5364511013031006,2.466944694519043
1631118320739,2.721489191055298,2.254424333572388,1.567415475845337,2.517274856567383
1631118320892,2.722341775894165,2.254424333572388,1.5720659494400024,2.4525694847106934
1631118321191,2.6649062633514404,2.254424333572388,1.535430073738098,2.386268138885498
1631118321368,2.6242291927337646,2.254424333572388,1.5234392881393433,2.386268138885498
1631118321399,2.5797135829925537,2.254424333572388,1.4562112092971802,2.386268138885498
1631118321437,2.3667709827423096,2.254424333572388,1.4785516262054443,2.4507014751434326
1631118321455,2.379934072494507,2.254424333572388,1.5396965742111206,2.4507014751434326
1631118321470,2.3570427894592285,2.254424333572388,1.505801558494568,2.4507014751434326
1631118321487,2.3387176990509038,2.254424333572388,1.5880142450332642,2.4507014751434326
1631118321503,2.36332106590271,2.254424333572388,1.5660351514816284,2.4537079334259038
1631118321522,2.6682560443878174,2.254424333572388,1.719166278839111,1.8025636672973635
1631118321522,2.484400510787964,2.254424333572388,1.5665678977966309,1.8025636672973635
1631118321561,2.7325894832611084,2.254424333572388,1.6962648630142212,1.8025636672973635
1631118321615,2.693763732910156,2.254424333572388,1.6015081405639648,1.8025636672973635
1631118321788,2.693763732910156,2.254424333572388,1.6360585689544678,1.8025636672973635
1631118321900,2.693763732910156,2.254424333572388,1.6645960807800293,1.8025636672973635
1631118322019,2.727923631668091,2.254424333572388,1.6613630056381226,1.8025636672973635
1631118322123,2.861943006515503,2.254424333572388,1.7852181196212769,1.8025636672973635
1631118322232,2.9590630531311035,2.254424333572388,1.8147839307785036,1.8025636672973635
1631118322344,3.0161750316619877,2.254424333572388,1.8001809120178225,1.8025636672973635
1631118322452,3.0362935066223145,2.254424333572388,1.8352059125900269,1.8025636672973635
1631118322660,3.037984609603882,2.254424333572388,1.800368309020996,1.8025636672973635
1631118322683,3.0387520790100098,2.254424333572388,1.8121745586395264,1.8025636672973635
1631118322778,3.03706693649292,2.656832456588745,1.7524878978729248,1.8025636672973635
1631118322778,3.026764154434204,2.6046056747436523,1.7838685512542725,1.8025636672973635
1631118322869,2.9840574264526367,2.537144422531128,1.753278732299805,1.8025636672973635
1631118323038,2.897549867630005,2.470533609390259,1.6238563060760498,1.8025636672973635
1631118323054,2.775259017944336,2.4335155487060547,1.6266191005706787,1.8025636672973635
1631118323086,2.812966823577881,2.461389780044556,1.632583737373352,1.8025636672973635
1631118323100,2.812966823577881,2.463982582092285,1.5983786582946775,1.8025636672973635
1631118323127,2.775247097015381,2.103961706161499,1.5297173261642456,1.8025636672973635
1631118323245,2.775247097015381,2.103961706161499,1.5592671632766724,1.8025636672973635
1631118323369,2.6424386501312256,2.103961706161499,1.3315351009368896,1.8025636672973635
1631118323415,2.4065558910369877,2.0461137294769287,1.2497459650039673,1.8025636672973635
1631118323463,2.0476737022399902,1.995232343673706,1.285213589668274,1.8025636672973635
1631118323521,1.6935391426086426,1.949872612953186,1.0558269023895264,1.8025636672973635
1631118323670,1.5797792673110962,1.949872612953186,1.079693078994751,1.8025636672973635
1631118323675,1.605955719947815,1.9833691120147705,1.0064270496368408,1.8025636672973635
1631118323716,1.528541922569275,1.9948381185531616,1.0613638162612915,1.8025636672973635
1631118323922,1.417229175567627,1.9285825490951536,0.4328583478927612,1.8025636672973635
1631118324044,1.417229175567627,1.953297734260559,0.5029358863830566,1.8025636672973635
1631118324139,1.417229175567627,1.953099489212036,0.5612345337867737,1.8025636672973635
1631118324287,1.417229175567627,1.8629451990127563,0.5612345337867737,1.8025636672973635
1631118324474,1.417229175567627,-0.0029254716355353,0.5612345337867737,1.8025636672973635
1631118324567,1.417229175567627,0.0350824669003486,0.5612345337867737,1.8025636672973635
1631118324688,1.417229175567627,0.0536669939756393,0.5612345337867737,1.8025636672973635
1631118324706,1.417229175567627,0.0543788596987724,0.5612345337867737,1.8025636672973635
1631118324766,1.417229175567627,0.0474311597645282,0.5612345337867737,1.8025636672973635
1631118324794,1.417229175567627,0.0762848854064941,0.5612345337867737,1.8025636672973635
1631118324800,1.417229175567627,0.1061021834611892,0.5612345337867737,1.8025636672973635
1631118325049,1.417229175567627,0.1300356686115265,0.5612345337867737,1.8025636672973635
1631118325217,1.417229175567627,0.1257283687591552,0.5612345337867737,1.8025636672973635
1631118325380,1.417229175567627,0.107472188770771,0.5612345337867737,1.8025636672973635
1631118325412,1.417229175567627,0.0824132189154625,0.5612345337867737,1.8025636672973635
1631118325643,1.417229175567627,0.0580409280955791,0.5612345337867737,1.8025636672973635
1631118325986,1.417229175567627,0.0374354012310504,0.5612345337867737,1.8025636672973635
1631118326187,1.417229175567627,0.6070098876953125,0.5612345337867737,1.8025636672973635
1631118326203,1.417229175567627,0.7934882640838623,0.5612345337867737,1.8025636672973635
1631118326278,1.417229175567627,0.7885080575942993,0.5612345337867737,1.8025636672973635
1631118326420,1.417229175567627,0.7839213013648987,0.5612345337867737,1.8025636672973635
1631118326499,1.417229175567627,1.225292086601257,1.3950164318084717,1.8025636672973635
1631118326516,1.417229175567627,0.8878130912780762,1.3268859386444092,1.8025636672973635
1631118326595,1.417229175567627,1.2536088228225708,1.3950164318084717,1.8025636672973635
1631118326785,1.417229175567627,1.2839536666870115,1.3950164318084717,1.8025636672973635
1631118326836,1.417229175567627,1.3839218616485596,1.3950164318084717,1.8025636672973635
1631118326900,1.417229175567627,1.38228178024292,1.3950164318084717,1.8025636672973635
1631118326930,1.417229175567627,1.4637322425842283,1.3950164318084717,1.8025636672973635
1631118327071,1.417229175567627,1.4635391235351562,1.3950164318084717,1.8025636672973635
1631118327185,1.417229175567627,1.4642702341079712,1.3950164318084717,1.8025636672973635
1631118327304,1.417229175567627,1.4656802415847778,1.3950164318084717,1.8025636672973635
1631118327471,1.417229175567627,1.4821195602416992,1.3950164318084717,1.8025636672973635
1631118327471,1.417229175567627,1.5000436305999756,1.3950164318084717,1.8025636672973635
1631118327510,1.417229175567627,1.4769651889801023,1.3224256038665771,1.8025636672973635
1631118327789,1.417229175567627,1.4796795845031738,1.3224256038665771,1.8025636672973635
1631118327953,1.417229175567627,1.5400030612945557,1.3224256038665771,1.8025636672973635
1631118327985,1.417229175567627,1.5119163990020752,1.3224256038665771,1.8025636672973635
1631118328023,1.417229175567627,1.2848360538482666,1.3224256038665771,1.8025636672973635
1631118328036,1.417229175567627,1.381520390510559,1.3224256038665771,1.8025636672973635
1631118328200,1.417229175567627,1.3499789237976074,1.3224256038665771,1.8025636672973635
1631118328436,1.417229175567627,1.2334234714508057,1.3224256038665771,1.8025636672973635
1631118328498,1.417229175567627,1.4115862846374512,1.3224256038665771,1.8025636672973635
1631118328516,1.417229175567627,1.4616000652313232,1.3224256038665771,1.8025636672973635
1631118328533,1.417229175567627,1.463082194328308,1.3224256038665771,1.8025636672973635
1631118328753,1.417229175567627,1.463412880897522,1.3224256038665771,1.8025636672973635
1631118328906,1.417229175567627,1.462599754333496,1.3224256038665771,1.8025636672973635
1631118328929,1.417229175567627,1.428614854812622,1.3224256038665771,1.8025636672973635
1631118328929,1.417229175567627,1.498631238937378,1.3224256038665771,1.8025636672973635
1631118328985,1.417229175567627,1.5085415840148926,1.3224256038665771,1.8025636672973635
1631118329108,1.417229175567627,1.5069323778152466,1.3224256038665771,1.8025636672973635
1631118329342,1.417229175567627,1.4958750009536743,1.3224256038665771,1.8025636672973635
1631118329354,1.417229175567627,1.7162652015686035,1.3224256038665771,1.8025636672973635
1631118329515,1.417229175567627,1.7424521446228027,1.3224256038665771,1.8025636672973635
1631118329654,1.417229175567627,1.7037371397018433,1.3224256038665771,1.8025636672973635
1631118329819,1.417229175567627,1.703253149986267,1.3224256038665771,1.8025636672973635
1631118330032,1.417229175567627,1.704293966293335,1.3224256038665771,1.8025636672973635
1631118330041,1.417229175567627,1.669930100440979,1.4579272270202637,1.8025636672973635
1631118330124,1.417229175567627,1.6272611618041992,1.4579272270202637,1.8025636672973635
1631118330149,1.417229175567627,1.6606850624084473,1.4579272270202637,1.8025636672973635
1631118330176,1.417229175567627,1.6974847316741943,1.4579272270202637,1.8025636672973635
1631118330262,1.417229175567627,1.7381923198699951,1.48321533203125,1.8025636672973635
1631118330335,1.417229175567627,1.7834545373916626,1.48321533203125,1.8025636672973635
1631118330366,1.417229175567627,1.7540558576583862,1.48321533203125,1.8025636672973635
1631118330401,1.417229175567627,1.740992307662964,1.48321533203125,1.8025636672973635
1631118330411,1.417229175567627,1.7391760349273682,1.48321533203125,1.8025636672973635
1631118330563,1.417229175567627,1.7090733051300049,1.4127172231674194,1.8025636672973635
1631118330704,1.417229175567627,1.129894495010376,1.4127172231674194,1.8025636672973635
1631118330952,1.417229175567627,0.8341571688652039,1.4127172231674194,1.8025636672973635
1631118331335,1.417229175567627,0.8980515003204346,1.4127172231674194,1.8025636672973635
1631118331370,1.417229175567627,0.978560507297516,1.4127172231674194,1.8025636672973635
1631118331467,1.417229175567627,0.941540002822876,1.4127172231674194,1.8025636672973635
1631118331688,1.417229175567627,0.941540002822876,1.4127172231674194,1.8025636672973635
1631118331719,1.417229175567627,0.941540002822876,1.4127172231674194,1.8025636672973635
1631118331750,1.417229175567627,0.941540002822876,1.4127172231674194,1.8025636672973635
1631118331844,1.417229175567627,1.0174795389175415,1.4127172231674194,1.8025636672973635
1631118331891,1.417229175567627,1.4456660747528076,1.4127172231674194,1.8025636672973635
1631118331892,1.417229175567627,1.4456660747528076,1.4127172231674194,1.8025636672973635
1631118332087,1.417229175567627,1.4456660747528076,1.4127172231674194,1.8025636672973635
1631118332204,1.417229175567627,1.4476362466812134,1.4127172231674194,1.8025636672973635
1631118332253,1.417229175567627,1.4436088800430298,1.4127172231674194,1.8025636672973635
1631118332384,1.417229175567627,1.4396878480911257,1.4127172231674194,1.8025636672973635
1631118332470,1.417229175567627,1.4396878480911257,1.2001738548278809,1.8025636672973635
1631118332603,1.417229175567627,1.4396878480911257,1.2001738548278809,1.8025636672973635
1631118332679,1.417229175567627,1.4396878480911257,1.2001738548278809,1.8025636672973635
1631118332690,1.417229175567627,1.4888046979904177,1.2001738548278809,1.8025636672973635
1631118332732,1.417229175567627,1.583449363708496,1.2001738548278809,1.8025636672973635
1631118333002,1.417229175567627,1.583449363708496,1.2001738548278809,1.8025636672973635
1631118333166,1.417229175567627,1.4950063228607178,1.2001738548278809,1.8025636672973635
1631118333173,1.417229175567627,1.4234235286712646,1.2001738548278809,1.8025636672973635
1631118333280,1.417229175567627,1.3754980564117432,1.2001738548278809,1.8025636672973635
1631118333534,1.417229175567627,0.2590793967247009,0.9673471450805664,1.8025636672973635
1631118333655,1.417229175567627,0.8264594674110413,1.1037951707839966,1.8025636672973635
1631118333682,1.417229175567627,1.3015533685684204,1.037997126579285,1.8025636672973635
1631118333717,1.417229175567627,1.3380191326141355,1.1562069654464722,1.8025636672973635
1631118333749,1.417229175567627,1.4212757349014282,1.2149220705032349,1.8025636672973635
1631118333957,1.417229175567627,1.4226664304733276,1.2863973379135132,1.8025636672973635
1631118334122,1.417229175567627,1.3818126916885376,1.20802104473114,1.8025636672973635
1631118334202,1.417229175567627,1.4562612771987915,1.20802104473114,1.8025636672973635
1631118334296,1.417229175567627,1.6883763074874878,1.20802104473114,1.8025636672973635
1631118334337,1.417229175567627,1.675039768218994,1.20802104473114,1.8025636672973635
1631118334529,1.417229175567627,1.6440891027450562,1.20802104473114,1.8025636672973635
1631118334771,1.417229175567627,1.677177667617798,1.20802104473114,1.8025636672973635
1631118334785,1.417229175567627,1.6757514476776123,1.20802104473114,1.8025636672973635
1631118335071,1.417229175567627,1.680281400680542,1.2085057497024536,1.8025636672973635
1631118335152,1.417229175567627,1.7496057748794556,1.3833990097045898,1.8025636672973635
1631118335247,1.417229175567627,1.7493040561676023,1.4288800954818726,1.8025636672973635
1631118335294,1.417229175567627,1.7305830717086792,1.4007065296173096,1.8025636672973635
1631118335655,1.417229175567627,1.7418426275253296,1.474132776260376,1.8025636672973635
1631118335661,1.417229175567627,1.8089476823806765,1.4554402828216553,1.8025636672973635
1631118335678,1.417229175567627,1.8194714784622192,1.4554402828216553,1.8025636672973635
1631118335689,1.417229175567627,1.8509262800216677,1.4554402828216553,1.8025636672973635
1631118335705,1.417229175567627,1.8844130039215088,1.4554402828216553,1.8025636672973635
1631118335751,1.417229175567627,1.848920941352844,1.4554402828216553,1.8025636672973635
1631118335752,1.417229175567627,1.8859533071517944,1.4554402828216553,1.8025636672973635
1631118335914,1.417229175567627,1.834993600845337,1.4554402828216553,1.8025636672973635
1631118335940,1.417229175567627,1.848399519920349,1.4554402828216553,1.8025636672973635
1631118336014,1.417229175567627,1.8453595638275144,1.4554402828216553,1.8025636672973635
1631118336020,1.417229175567627,1.8043878078460691,1.4554402828216553,1.8025636672973635
1631118336039,1.417229175567627,1.884737730026245,1.4554402828216553,1.8025636672973635
1631118336193,1.417229175567627,1.847981333732605,1.4554402828216553,1.8025636672973635
1631118336478,1.417229175567627,1.9719617366790767,1.4554402828216553,1.8025636672973635
1631118336904,1.417229175567627,1.93252432346344,1.4554402828216553,1.8025636672973635
1631118337155,1.417229175567627,1.802635073661804,1.4554402828216553,1.8025636672973635
1631118337382,1.417229175567627,1.802635073661804,1.4554402828216553,1.8025636672973635
1631118337509,1.417229175567627,1.802635073661804,1.4554402828216553,1.8025636672973635
1631118337816,1.417229175567627,1.802635073661804,1.4554402828216553,1.8025636672973635
1631118337841,1.417229175567627,1.802635073661804,1.4554402828216553,1.8025636672973635
1631118337868,1.417229175567627,1.802635073661804,1.4554402828216553,1.8025636672973635
1631118338046,1.417229175567627,1.802635073661804,1.4554402828216553,1.8025636672973635
1631118338062,1.417229175567627,1.802635073661804,1.4554402828216553,1.8025636672973635
1631118338147,1.417229175567627,1.802635073661804,1.4554402828216553,1.8025636672973635
1631118338171,1.417229175567627,1.802635073661804,1.4554402828216553,1.8025636672973635
1631118338292,1.417229175567627,1.802635073661804,1.4554402828216553,1.8025636672973635
1631118338298,1.417229175567627,1.802635073661804,1.4554402828216553,1.8025636672973635
1631118338406,1.417229175567627,1.802635073661804,1.4554402828216553,1.8025636672973635
1631118338438,1.417229175567627,1.802635073661804,1.4554402828216553,1.8025636672973635
1631118338438,1.417229175567627,1.802635073661804,1.4554402828216553,1.8025636672973635
1631118338475,1.417229175567627,1.802635073661804,1.4554402828216553,1.8025636672973635
1631118338482,1.417229175567627,1.802635073661804,1.4554402828216553,1.8025636672973635
1631118338584,1.417229175567627,1.802635073661804,1.4554402828216553,1.8025636672973635
1631118338711,1.417229175567627,1.802635073661804,1.4554402828216553,1.8025636672973635
1631118338813,1.417229175567627,1.802635073661804,1.4554402828216553,1.8025636672973635
1631118338867,1.417229175567627,1.802635073661804,1.4554402828216553,1.8025636672973635
1631118338978,1.417229175567627,1.802635073661804,1.4554402828216553,1.8025636672973635
1631118339059,1.417229175567627,1.802635073661804,1.4554402828216553,1.8025636672973635
1631118339127,1.417229175567627,1.802635073661804,1.4554402828216553,1.8025636672973635
1631118339182,1.417229175567627,1.802635073661804,1.4554402828216553,1.8025636672973635
1631118339469,1.417229175567627,1.802635073661804,1.4554402828216553,1.8025636672973635
1631118339747,1.417229175567627,1.802635073661804,1.4554402828216553,1.8025636672973635
1631118339813,1.417229175567627,1.802635073661804,1.4554402828216553,1.8025636672973635
1631118339952,1.417229175567627,1.802635073661804,1.4554402828216553,1.8025636672973635
1631118339952,1.417229175567627,1.802635073661804,1.4554402828216553,1.8025636672973635
1631118340002,1.417229175567627,1.802635073661804,1.4554402828216553,1.8025636672973635
1631118340050,1.417229175567627,1.802635073661804,1.4554402828216553,1.8025636672973635
1631118340353,1.417229175567627,1.802635073661804,1.4554402828216553,1.8025636672973635
1631118340371,1.417229175567627,1.802635073661804,1.4554402828216553,1.8025636672973635
1631118340403,1.417229175567627,1.802635073661804,1.4554402828216553,1.8025636672973635
1631118340446,1.417229175567627,1.802635073661804,1.4554402828216553,1.8025636672973635
1631118340571,1.417229175567627,1.802635073661804,1.4554402828216553,1.8025636672973635
1631118340588,1.417229175567627,1.802635073661804,1.4554402828216553,1.8025636672973635
1631118340654,1.417229175567627,1.802635073661804,1.4554402828216553,1.8025636672973635
1631118340655,1.417229175567627,1.802635073661804,1.4554402828216553,1.8025636672973635
1631118340929,1.417229175567627,1.802635073661804,1.4554402828216553,1.8025636672973635
1631118340956,1.417229175567627,1.802635073661804,1.4554402828216553,1.8025636672973635
1631118340968,1.417229175567627,1.802635073661804,1.4554402828216553,1.8025636672973635
1631118341073,1.417229175567627,1.802635073661804,1.4554402828216553,1.8025636672973635
1631118341252,1.417229175567627,1.802635073661804,1.4554402828216553,1.8025636672973635
1631118341283,1.417229175567627,1.802635073661804,1.4554402828216553,1.8025636672973635
1631118341720,1.417229175567627,1.802635073661804,1.4554402828216553,1.8025636672973635
1631118341806,1.417229175567627,1.802635073661804,1.4554402828216553,1.8025636672973635
1631118341894,1.417229175567627,1.040241241455078,1.4554402828216553,1.8025636672973635
1631118342023,1.417229175567627,1.2066162824630735,1.4554402828216553,1.8025636672973635
1631118342064,1.417229175567627,1.1395528316497805,1.4554402828216553,1.8025636672973635
1631118342064,1.417229175567627,1.1395528316497805,1.4554402828216553,1.8025636672973635
1631118342137,1.417229175567627,1.1395528316497805,1.4554402828216553,1.8025636672973635
1631118342355,1.417229175567627,1.1395528316497805,1.4554402828216553,1.8025636672973635
1631118342400,1.417229175567627,1.1892657279968262,1.4554402828216553,1.8025636672973635
1631118342405,1.417229175567627,1.1317417621612549,1.4554402828216553,1.8025636672973635
1631118342428,1.417229175567627,1.188634753227234,1.4554402828216553,1.8025636672973635
1631118342612,1.417229175567627,1.188634753227234,1.4554402828216553,1.8025636672973635
1631118342625,1.417229175567627,1.188634753227234,1.4554402828216553,1.8025636672973635
1631118342681,1.417229175567627,1.188634753227234,1.4554402828216553,1.8025636672973635
1631118342853,1.417229175567627,1.188634753227234,1.4554402828216553,1.8025636672973635
1631118343487,1.417229175567627,1.188634753227234,1.4554402828216553,1.8025636672973635
1631118343567,1.417229175567627,1.182316541671753,1.4554402828216553,1.8025636672973635
1631118343693,1.417229175567627,1.182316541671753,1.4554402828216553,1.8025636672973635
1631118343694,1.417229175567627,1.182316541671753,1.4554402828216553,1.8025636672973635
1631118343787,1.417229175567627,1.182316541671753,1.4554402828216553,1.8025636672973635
1631118343885,1.417229175567627,1.182316541671753,1.4554402828216553,1.8025636672973635
1631118344069,1.417229175567627,1.182316541671753,1.4554402828216553,1.8025636672973635
1631118344127,1.417229175567627,1.182316541671753,1.4554402828216553,1.8025636672973635
1631118344150,1.417229175567627,1.182316541671753,1.4554402828216553,1.8025636672973635
1631118344157,1.417229175567627,1.182316541671753,1.4554402828216553,1.8025636672973635
1631118344262,1.417229175567627,1.182316541671753,1.4554402828216553,1.8025636672973635
1631118344276,1.417229175567627,1.182316541671753,1.4554402828216553,1.8025636672973635
1631118344276,1.417229175567627,1.182316541671753,1.4554402828216553,1.8025636672973635
1631118344496,1.417229175567627,1.182316541671753,1.4554402828216553,1.8025636672973635
1631118344602,1.417229175567627,1.182316541671753,1.4554402828216553,1.8025636672973635
1631118345002,1.417229175567627,1.182316541671753,1.4554402828216553,1.8025636672973635
1631118345220,1.417229175567627,1.182316541671753,1.4554402828216553,1.8025636672973635
1631118345331,1.417229175567627,1.182316541671753,1.4554402828216553,1.8025636672973635
1631118345364,1.417229175567627,1.182316541671753,1.4554402828216553,1.8025636672973635
1631118345720,1.417229175567627,1.182316541671753,1.4554402828216553,1.8025636672973635
1631118345736,1.417229175567627,1.182316541671753,1.4554402828216553,1.8025636672973635
1631118345739,1.417229175567627,1.182316541671753,1.4554402828216553,1.8025636672973635
1631118345758,1.417229175567627,1.182316541671753,1.4554402828216553,1.8025636672973635
1631118345769,1.417229175567627,1.182316541671753,1.4554402828216553,1.8025636672973635
1631118345788,1.417229175567627,1.182316541671753,1.4554402828216553,1.8025636672973635
1631118345802,1.417229175567627,1.182316541671753,1.4554402828216553,1.8025636672973635
1631118345821,1.417229175567627,1.182316541671753,1.4554402828216553,1.8025636672973635
1631118345821,1.417229175567627,1.182316541671753,1.4554402828216553,1.8025636672973635
1631118345821,1.417229175567627,1.182316541671753,1.4554402828216553,1.8025636672973635
1631118345837,1.417229175567627,1.182316541671753,1.4554402828216553,1.8025636672973635
1631118346039,1.417229175567627,1.182316541671753,1.4554402828216553,1.8025636672973635
1631118346172,1.417229175567627,1.182316541671753,1.4554402828216553,1.8025636672973635
1631118346273,1.417229175567627,2.408726453781128,1.4554402828216553,1.8025636672973635
1631118346402,1.417229175567627,2.312317132949829,1.4554402828216553,1.8025636672973635
1631118346689,1.417229175567627,2.312317132949829,1.4554402828216553,1.8025636672973635
1631118346768,1.417229175567627,2.312317132949829,1.4554402828216553,1.8025636672973635
1631118347015,1.417229175567627,2.312317132949829,1.4554402828216553,1.8025636672973635
1631118347295,1.417229175567627,2.312317132949829,1.4554402828216553,1.8025636672973635
1631118347347,1.417229175567627,2.256764411926269,1.4554402828216553,1.8025636672973635
1631118347348,1.417229175567627,2.256764411926269,1.4554402828216553,1.8025636672973635
1631118347395,1.417229175567627,2.2699079513549805,1.4554402828216553,1.8025636672973635
1631118347400,1.417229175567627,2.2699079513549805,1.4554402828216553,1.8025636672973635
1631118347444,1.417229175567627,2.2699079513549805,1.4554402828216553,1.8025636672973635
1631118347459,1.417229175567627,2.2699079513549805,1.4554402828216553,1.8025636672973635
1631118347930,1.417229175567627,2.2699079513549805,1.4554402828216553,1.8025636672973635
1631118347960,1.417229175567627,1.7886556386947632,1.4554402828216553,1.8025636672973635
1631118347988,1.417229175567627,1.6382057666778564,1.4554402828216553,1.8025636672973635
1631118348002,1.417229175567627,1.999056935310364,1.4554402828216553,1.8025636672973635
1631118348252,1.417229175567627,1.999056935310364,1.4554402828216553,1.8025636672973635
1631118348331,1.417229175567627,1.999056935310364,1.4554402828216553,1.8025636672973635
1631118348362,1.417229175567627,1.999056935310364,1.4554402828216553,1.8025636672973635
1631118348477,1.417229175567627,1.999056935310364,1.4554402828216553,1.8025636672973635
1631118348521,1.417229175567627,1.999056935310364,1.4554402828216553,1.8025636672973635
1631118348550,1.417229175567627,1.999056935310364,1.4554402828216553,1.8025636672973635
1631118348570,1.417229175567627,1.999056935310364,1.4554402828216553,1.8025636672973635
1631118348574,1.417229175567627,1.999056935310364,1.4554402828216553,1.8025636672973635
1631118348585,1.417229175567627,1.999056935310364,1.4554402828216553,1.8025636672973635
1631118348776,1.417229175567627,1.999056935310364,1.4554402828216553,1.8025636672973635
1631118348889,1.417229175567627,1.999056935310364,1.4554402828216553,1.8025636672973635
1631118348909,1.417229175567627,2.223907709121704,1.4554402828216553,1.8025636672973635
1631118349018,1.417229175567627,2.1298375129699707,1.4554402828216553,1.8025636672973635
1631118349206,1.417229175567627,2.078690528869629,1.4554402828216553,1.8025636672973635
1631118349619,1.417229175567627,1.9214833974838257,1.4554402828216553,1.8025636672973635
1631118349926,1.417229175567627,1.9214833974838257,1.4554402828216553,1.8025636672973635
1631118349930,1.417229175567627,1.9214833974838257,1.4554402828216553,1.8025636672973635
1631118350118,1.417229175567627,1.9214833974838257,1.4554402828216553,1.8025636672973635
1631118350248,1.417229175567627,1.8251562118530276,1.4554402828216553,1.8025636672973635
1631118350617,1.417229175567627,1.7463386058807373,1.4554402828216553,1.8025636672973635
1631118350920,1.417229175567627,1.783674240112305,1.4554402828216553,1.8025636672973635
1631118350983,1.417229175567627,1.8232132196426392,1.4554402828216553,1.8025636672973635
1631118351030,1.417229175567627,2.0496199131011963,1.4554402828216553,1.8025636672973635
1631118351062,1.417229175567627,2.0496199131011963,1.4554402828216553,1.8025636672973635
1631118351165,1.417229175567627,2.0496199131011963,1.4554402828216553,1.8025636672973635
1631118351386,1.417229175567627,2.06821084022522,1.4554402828216553,1.8025636672973635
1631118351405,1.417229175567627,2.130391359329224,1.4554402828216553,1.8025636672973635
1631118351406,1.417229175567627,2.0513246059417725,1.4554402828216553,1.8025636672973635
1631118351406,1.417229175567627,1.987194895744324,1.4554402828216553,1.8025636672973635
1631118351421,1.417229175567627,2.130391359329224,1.4554402828216553,1.8025636672973635
1631118351501,1.417229175567627,2.130391359329224,1.4554402828216553,1.8025636672973635
1631118351603,1.417229175567627,2.130391359329224,1.4554402828216553,1.8025636672973635
1631118351637,1.417229175567627,2.130391359329224,1.4554402828216553,1.8025636672973635
1631118351829,1.417229175567627,2.227012872695923,1.4554402828216553,1.8025636672973635
1631118351848,1.417229175567627,2.227012872695923,1.4554402828216553,1.8025636672973635
1631118352122,1.417229175567627,2.227012872695923,1.4554402828216553,1.8025636672973635
1631118352124,1.417229175567627,2.227012872695923,1.4554402828216553,1.8025636672973635
1631118352200,1.417229175567627,2.227012872695923,1.4554402828216553,1.8025636672973635
1631118352249,1.417229175567627,2.227012872695923,1.4554402828216553,1.8025636672973635
1631118352472,1.417229175567627,2.227012872695923,1.4554402828216553,1.8025636672973635
1631118352481,1.417229175567627,2.227012872695923,1.4554402828216553,1.8025636672973635
1631118352508,1.417229175567627,2.227012872695923,1.4554402828216553,1.8025636672973635
1631118352818,1.417229175567627,2.227012872695923,1.4554402828216553,1.8025636672973635
1631118353103,1.417229175567627,2.227012872695923,1.4554402828216553,1.8025636672973635
1631118353271,1.417229175567627,2.227012872695923,1.4554402828216553,1.8025636672973635
1631118353348,1.417229175567627,2.1516501903533936,1.4554402828216553,1.8025636672973635
1631118353380,1.417229175567627,2.351850986480713,1.4554402828216553,1.8025636672973635
1631118353398,1.417229175567627,2.351850986480713,1.4554402828216553,1.8025636672973635
1631118353403,1.417229175567627,2.351850986480713,1.4554402828216553,1.8025636672973635
1631118353447,1.417229175567627,2.351850986480713,1.4554402828216553,1.8025636672973635
1631118353563,1.417229175567627,2.305471181869507,1.4554402828216553,1.8025636672973635
1631118353602,1.417229175567627,2.242051839828491,1.4554402828216553,1.8025636672973635
1631118353619,1.417229175567627,2.223271131515503,1.496382236480713,1.8025636672973635
1631118353804,1.417229175567627,2.170102119445801,1.4012938737869265,1.8025636672973635
1631118353895,1.417229175567627,2.2144651412963867,1.6388375759124756,1.8025636672973635
1631118353942,1.417229175567627,2.2144651412963867,1.5688927173614502,1.8025636672973635
1631118354033,1.417229175567627,2.2144651412963867,1.5688927173614502,1.8025636672973635
1631118354062,1.417229175567627,2.2144651412963867,1.5688927173614502,1.8025636672973635
1631118354079,1.417229175567627,2.2037041187286377,1.411757469177246,1.8025636672973635
1631118354183,1.417229175567627,2.280712842941284,1.4897528886795044,1.8025636672973635
1631118354253,1.417229175567627,2.4233198165893555,1.4897528886795044,1.8025636672973635
1631118354353,1.417229175567627,2.3315224647521973,1.4897528886795044,1.8025636672973635
1631118354416,1.417229175567627,2.301271438598633,1.4897528886795044,1.8025636672973635
1631118354471,1.417229175567627,2.434807777404785,1.5037487745285034,1.8025636672973635
1631118354722,1.417229175567627,2.427835702896118,1.4685158729553225,1.8025636672973635
1631118354955,1.417229175567627,2.4242875576019287,1.5373883247375488,1.8025636672973635
1631118355021,1.417229175567627,2.466590881347656,1.509350061416626,1.8025636672973635
1631118355024,1.417229175567627,2.4358444213867188,1.5368826389312744,1.8025636672973635
1631118355119,2.257652282714844,2.5362281799316406,2.0157392024993896,1.8025636672973635
1631118355471,2.228506088256836,2.512089490890503,2.027149438858032,1.8025636672973635
1631118355486,2.228506088256836,2.4812827110290527,2.033673048019409,1.8025636672973635
1631118355501,2.228506088256836,2.451918125152588,1.9948073625564573,1.8025636672973635
1631118355663,2.1525228023529053,2.422443151473999,1.951353907585144,1.8025636672973635
1631118355665,2.1525228023529053,2.418298482894897,1.9116790294647217,1.8025636672973635
1631118355710,2.1525228023529053,2.4324162006378174,1.87446129322052,1.8025636672973635
1631118355718,2.1525228023529053,2.345801591873169,1.8403469324111936,1.8025636672973635
1631118355855,2.1525228023529053,2.3560357093811035,1.8425527811050413,1.8025636672973635
1631118355890,2.200183629989624,2.384981870651245,1.8499778509140012,2.134861946105957
1631118355905,2.142446279525757,2.235259771347046,1.8354302644729612,2.0426414012908936
1631118356000,2.108765125274658,2.2095351219177246,1.828492760658264,1.995964765548706
1631118356027,2.344149112701416,2.44071102142334,1.8205033540725708,1.995964765548706
1631118356028,2.1483662128448486,2.270718812942505,1.8250417709350584,1.995964765548706
1631118356144,2.494248867034912,2.432800054550171,1.82039213180542,1.995964765548706
1631118356239,2.431326150894165,2.3868722915649414,1.5096864700317385,1.995964765548706
1631118356334,2.419015884399414,2.3760766983032227,1.382795810699463,1.995964765548706
1631118356463,2.419015884399414,2.3701467514038086,1.3619165420532229,1.995964765548706
1631118356554,2.469016790390014,2.4008867740631104,1.5052170753479004,1.6931371688842771
1631118356574,2.419015884399414,2.388025999069214,1.479814887046814,1.9398776292800903
1631118356662,2.469016790390014,2.427264213562012,1.5339537858963013,1.6276217699050903
1631118356800,2.469016790390014,2.4060206413269043,1.535107135772705,1.9503958225250244
1631118357359,2.4372780323028564,2.4060206413269043,1.582075595855713,1.9558300971984863
1631118357499,2.392024278640747,2.3606116771698,1.513251543045044,1.997679114341736
1631118357520,2.345219612121582,2.3034188747406006,1.4183926582336426,2.0093700885772705
1631118357706,2.3456006050109863,2.303393602371216,1.4179823398590088,2.072705030441284
1631118357825,2.337151288986206,2.2822742462158203,1.4179357290267944,2.058844566345215
1631118357910,2.3011696338653564,2.1855592727661133,1.3396872282028198,2.028350114822388
1631118357910,2.0896401405334477,1.4999735355377195,1.359293818473816,2.01858901977539
1631118357943,1.6551834344863892,1.6238734722137451,1.4209647178649902,1.969443917274475
1631118357946,1.627347111701965,1.9794416427612305,1.5382466316223145,1.9243069887161253
1631118357988,2.045499801635742,1.995877385139465,1.9705584049224851,1.889380693435669
1631118357998,2.633044719696045,2.025902271270752,1.992740631103516,1.8844869136810305
1631118358004,2.4070541858673096,2.037176609039306,2.005117177963257,1.889380693435669
1631118358021,2.6026864051818848,2.036460876464844,1.992740631103516,1.8928042650222776
1631118358229,2.570639133453369,2.036460876464844,1.955552101135254,1.8977408409118648
1631118358271,2.570639133453369,2.031850576400757,1.9547969102859497,1.566010594367981
1631118358345,2.5937514305114746,2.141857624053955,1.959028005599976,1.445370078086853
1631118358417,2.628270149230957,2.18703842163086,1.9596376419067385,1.445370078086853
1631118358831,2.791254758834839,2.236633777618408,1.995663285255432,1.445370078086853
1631118359024,2.875232458114624,2.29445743560791,2.0368001461029053,1.3876615762710571
1631118359354,2.904438018798828,2.361245393753052,2.0822887420654297,1.6151723861694336
1631118359461,2.9421193599700928,2.440286874771118,2.1331679821014404,1.5812517404556274
1631118359545,2.98187255859375,2.5265164375305176,2.1761839389801025,1.491888165473938
1631118359578,3.0256121158599854,2.502410411834717,2.223906278610229,1.551032781600952
1631118359722,3.0691919326782227,2.5370466709136963,2.1751770973205566,1.6277658939361572
1631118359779,3.091460466384888,2.5370466709136963,1.5557066202163696,1.698087215423584
1631118360037,3.0633974075317383,2.5370466709136963,1.495185375213623,1.698087215423584
1631118360080,2.9634456634521484,2.5370466709136963,1.4485905170440674,1.6112548112869265
1631118360094,2.959231376647949,2.4401822090148926,1.4010049104690552,1.5428842306137085
1631118360386,2.9595510959625244,2.372955560684204,1.530825972557068,1.5328181982040403
1631118363760,2.2313849925994877,2.231144666671753,1.6146199703216553,2.110957622528076
1631118363951,2.1484336853027344,2.1482224464416504,1.4886128902435305,2.1919102668762207
1631118364006,2.1497085094451904,2.1491665840148926,1.4927499294281006,2.1919102668762207
1631118364444,2.1357340812683105,2.1255300045013428,1.4665580987930298,2.2331461906433105
1631118364476,2.1338372230529785,2.1244418621063232,1.4666210412979126,2.22648286819458
1631118364621,2.1338346004486084,2.124423027038574,1.4665361642837524,2.243856906890869
1631118364748,1.9715791940689087,1.9625449180603027,1.4808852672576904,2.212604284286499
1631118364768,1.9559067487716677,1.948916792869568,1.4523558616638184,2.1662068367004395
1631118364908,2.101402997970581,2.097376585006714,1.45289146900177,1.8184276819229128
1631118364956,1.857553243637085,1.864461064338684,1.4526429176330566,1.9975969791412356
1631118364988,1.7971664667129517,1.8047528266906736,1.1875275373458862,1.9978693723678589
1631118365131,1.7706655263900757,1.8093973398208616,1.070924162864685,1.9842443466186523
1631118365161,1.7699813842773438,1.8468619585037231,1.071225643157959,1.9467335939407349
1631118365287,1.7857613563537598,1.8903728723526,1.1510246992111206,1.9221845865249636
1631118365559,1.784041166305542,1.9171078205108645,1.151162028312683,1.921876072883606
1631118365583,1.795912504196167,1.9524797201156616,1.2038583755493164,1.9491533041000368
1631118365587,2.0660650730133057,2.459259271621704,1.4098727703094482,1.7697148323059082
1631118365638,2.093519687652588,2.4999959468841557,1.4052693843841553,1.7697148323059082
1631118365638,2.112375497817993,2.545584201812744,1.3787145614624023,1.8779772520065308
1631118365655,2.144352674484253,2.59610366821289,1.411489725112915,1.9840728044509888
1631118365682,2.178896427154541,2.6540818214416504,1.412315845489502,1.9950331449508667
1631118365698,2.2123770713806152,2.7187511920928955,1.3963347673416138,2.034611940383911
1631118365936,2.085026741027832,2.688382625579834,1.3428559303283691,2.086836099624634
1631118365971,2.2230210304260254,2.7806224822998047,1.3733516931533811,2.0750832557678223
1631118366048,2.136070966720581,2.688382625579834,1.3745992183685305,1.9606298208236692
1631118366168,2.1720330715179443,2.6305389404296875,1.4088526964187622,2.0263350009918213
1631118366251,2.238934278488159,2.6305389404296875,1.4461137056350708,2.058279275894165
1631118366319,2.318058490753174,2.5637004375457764,1.4870213270187378,2.1546733379364014
1631118366443,2.399821281433105,2.565070629119873,1.4374600648880005,2.1546733379364014
1631118366569,2.399821281433105,2.555732011795044,1.4412031173706057,2.1546733379364014
1631118366610,2.399821281433105,2.552697896957397,1.4896526336669922,2.1546733379364014
1631118366645,2.399821281433105,1.7302734851837158,1.1405712366104126,2.1546733379364014
1631118366691,2.399821281433105,1.7606366872787476,1.238365650177002,2.1546733379364014
1631118367074,2.399821281433105,1.7096282243728638,1.1983592510223389,2.1546733379364014
1631118367258,2.399821281433105,1.710768461227417,1.2694079875946045,2.1546733379364014
1631118367398,2.399821281433105,1.9590445756912231,1.2700893878936768,2.1546733379364014
1631118367437,2.399821281433105,1.956679344177246,1.4202611446380615,2.1546733379364014
1631118367714,2.399821281433105,1.9221036434173584,1.4093106985092163,2.1546733379364014
1631118367744,2.399821281433105,1.9215009212493896,1.3894981145858765,2.1546733379364014
1631118367860,1.883790612220764,1.8894469738006592,1.35238778591156,2.1546733379364014
1631118367980,1.9031500816345213,1.894336938858032,1.3783302307128906,2.1546733379364014
1631118367991,1.8369299173355105,1.8683003187179563,1.3583147525787354,2.1546733379364014
1631118368007,1.8369299173355105,1.9097307920455933,1.458931803703308,2.1546733379364014
1631118368028,1.796489119529724,1.8857417106628416,1.481011986732483,2.1546733379364014
1631118368028,1.882638931274414,1.9518619775772093,1.5083539485931396,1.3752223253250122
1631118368062,1.860364317893982,2.098780393600464,1.4789866209030151,1.442317008972168
1631118368089,1.841463565826416,2.08038330078125,1.5154443979263306,1.5768368244171145
1631118368149,1.841463565826416,2.0865554809570312,1.5742478370666504,1.6156431436538696
1631118368250,1.8412165641784668,2.0867090225219727,1.6059746742248535,1.8561553955078125
1631118368342,1.807333707809448,2.0741724967956543,1.5903005599975586,1.7989649772644043
1631118368526,1.6372345685958862,1.93684184551239,1.6267058849334717,1.855672001838684
1631118368589,1.6372345685958862,1.940074324607849,1.6337502002716064,1.855672001838684
1631118368892,1.6372345685958862,1.9401447772979736,1.6335060596466064,1.855672001838684
1631118368933,1.6372345685958862,1.969983458518982,1.7054539918899536,1.855672001838684
1631118369105,1.6872107982635498,2.0020594596862797,1.7074476480484009,1.855672001838684
1631118369138,1.6739897727966309,2.0234603881835938,1.7419333457946775,1.9187313318252563
1631118369139,1.625239372253418,1.989384889602661,1.7074311971664429,1.9187313318252563
1631118369262,1.6739897727966309,2.021002531051636,1.6891411542892456,1.9187313318252563
1631118369299,1.3265659809112549,1.9996106624603271,1.7146135568618774,1.9142770767211916
1631118369304,1.7114555835723877,2.0563805103302,1.7146135568618774,1.9187313318252563
1631118369335,1.3265659809112549,1.4970248937606812,1.663344383239746,1.9624793529510496
1631118369444,1.3265659809112549,1.49021577835083,1.6182589530944824,1.9624793529510496
1631118369475,1.3265659809112549,1.3544070720672607,1.523736596107483,1.9624793529510496
1631118369568,1.3265659809112549,1.357173204421997,1.4757634401321411,1.9624793529510496
1631118369674,1.3265659809112549,1.4073127508163452,1.4309260845184326,1.9624793529510496
1631118369706,1.3265659809112549,1.4548583030700684,1.5075095891952517,1.9624793529510496
1631118369974,1.4444327354431152,1.2419898509979248,1.3718066215515137,2.5247671604156494
1631118370205,1.3533188104629517,1.2407625913619995,1.3717999458312988,2.428058624267578
1631118370254,1.2806007862091064,1.175987720489502,1.1992796659469604,2.349040508270264
1631118370318,1.21925687789917,1.1248983144760132,1.194183349609375,2.349040508270264
1631118370503,1.165143370628357,1.0759786367416382,1.0797346830368042,2.349040508270264
1631118370743,1.1165505647659302,1.0317537784576416,1.043298840522766,2.2822437286376958
1631118370791,1.2709978818893433,1.2163270711898804,1.1941866874694824,2.2298872470855717
1631118370807,1.586076021194458,1.5583401918411257,1.1846305131912231,2.2284750938415527
1631118371139,1.5499982833862305,1.4889534711837769,1.1571022272109983,2.182971239089966
1631118371392,1.51762056350708,1.488569736480713,1.1566128730773926,2.1419718265533447
1631118371589,1.4878417253494265,1.4883077144622805,1.1564024686813354,2.1046934127807617
1631118371671,1.468428373336792,1.456982135772705,1.0987951755523682,2.0736093521118164
1631118371695,1.5610123872756958,1.5739375352859497,1.298471212387085,2.0778727531433105
1631118371838,1.4841986894607544,1.5405040979385376,1.2981956005096436,1.632881760597229
1631118371869,1.5561542510986328,1.585012674331665,1.216252684593201,1.4687877893447876
1631118371935,1.7486196756362915,1.585012674331665,1.2895013093948364,1.693318247795105
1631118371970,1.7905960083007812,1.6168885231018066,1.337374567985535,1.7276597023010254
1631118372044,1.794664978981018,1.6512278318405151,1.349532127380371,1.765107035636902
1631118372149,1.8239370584487915,1.7351863384246826,1.349183440208435,1.765107035636902
1631118372205,1.8556374311447144,1.7351853847503662,1.34971821308136,1.765107035636902
1631118372281,1.8900772333145144,1.758557677268982,1.3979628086090088,1.8061854839324951
1631118372489,1.8944820165634155,1.77212655544281,1.4217783212661743,1.8398948907852173
1631118372583,1.7960649728775024,1.5853004455566406,1.416240096092224,1.7574694156646729
1631118372721,1.840658187866211,1.6229312419891355,1.4158594608306885,1.814616560935974
1631118372785,1.890175223350525,1.6639440059661863,1.4144864082336426,1.880248427391052
1631118372948,1.94650137424469,1.7089673280715942,1.4798890352249146,1.957716941833496
1631118372982,2.005955457687378,1.778381586074829,1.547855019569397,2.042010307312012
1631118373288,1.9990251064300537,1.7657310962677002,1.4910489320755005,2.042010307312012
1631118373305,2.0029947757720947,1.768750786781311,1.4950724840164185,2.042010307312012
1631118373366,2.017840623855591,1.7004446983337402,1.4643906354904177,2.042010307312012
1631118373602,1.7019588947296145,1.6551682949066162,1.417022466659546,2.042010307312012
1631118373622,1.7019588947296145,1.6855738162994385,1.4062880277633667,2.042010307312012
1631118373665,1.7019588947296145,1.6518659591674805,1.4256505966186523,2.042010307312012
1631118373808,1.7019588947296145,1.634509801864624,1.4636176824569702,2.042010307312012
1631118373811,1.7019588947296145,1.6344099044799805,1.4595458507537842,2.042010307312012
1631118373921,1.7019588947296145,1.586053729057312,1.337023377418518,2.042010307312012
1631118373933,1.7019588947296145,1.6405718326568604,1.4487584829330444,2.042010307312012
1631118373963,1.7019588947296145,1.626412034034729,1.3709205389022827,2.042010307312012
1631118374112,1.7019588947296145,1.626412034034729,1.4202998876571655,2.042010307312012
1631118374388,1.7019588947296145,1.6719526052474976,1.3837449550628662,2.042010307312012
1631118374388,1.7019588947296145,1.626412034034729,1.4774067401885986,2.042010307312012
1631118374468,1.7019588947296145,1.580284833908081,1.063414454460144,2.042010307312012
1631118374497,1.7019588947296145,1.504596471786499,0.435694932937622,2.042010307312012
1631118374672,1.7019588947296145,1.5480717420578003,0.435694932937622,2.042010307312012
1631118374693,1.7019588947296145,1.59000825881958,0.435694932937622,2.042010307312012
1631118374845,1.7019588947296145,1.656156301498413,0.435694932937622,2.042010307312012
1631118374920,1.7019588947296145,1.5810928344726562,0.435694932937622,2.042010307312012
1631118374996,1.7019588947296145,1.6663755178451538,0.435694932937622,2.042010307312012
1631118375015,1.7019588947296145,1.6012297868728638,0.435694932937622,2.042010307312012
1631118375090,1.7019588947296145,1.7576647996902466,0.435694932937622,2.042010307312012
1631118375233,1.7019588947296145,1.7210140228271484,0.435694932937622,2.042010307312012
1631118375436,1.7019588947296145,1.645133137702942,0.435694932937622,2.042010307312012
1631118375635,1.7019588947296145,1.6375855207443235,0.435694932937622,2.042010307312012
1631118375666,1.7019588947296145,1.6708954572677612,0.435694932937622,2.042010307312012
1631118375788,1.7019588947296145,1.623458981513977,0.435694932937622,2.042010307312012
1631118375801,1.7019588947296145,1.524105429649353,0.435694932937622,2.042010307312012
1631118375862,1.7019588947296145,1.6427233219146729,0.435694932937622,2.042010307312012
1631118375970,1.7019588947296145,1.600077509880066,0.435694932937622,2.042010307312012
1631118375988,1.7019588947296145,1.600077509880066,0.435694932937622,2.042010307312012
1631118376118,1.7019588947296145,1.559524655342102,0.435694932937622,2.042010307312012
1631118376148,1.7019588947296145,1.540199637413025,0.435694932937622,2.042010307312012
1631118376352,1.7019588947296145,1.5328750610351562,0.435694932937622,2.042010307312012
1631118376636,1.7019588947296145,1.4340587854385376,0.435694932937622,2.042010307312012
1631118376658,1.7019588947296145,1.3491454124450684,0.1919555962085724,2.042010307312012
1631118376687,1.7019588947296145,1.4498943090438845,0.1605021357536316,2.042010307312012
1631118376735,1.7019588947296145,1.4846093654632568,0.1203088164329528,2.042010307312012
1631118376754,1.7019588947296145,1.6177256107330322,0.1203088164329528,2.042010307312012
1631118376803,1.7019588947296145,1.5649834871292114,0.1203088164329528,2.042010307312012
1631118376949,1.7019588947296145,1.5634649991989136,0.1203088164329528,2.042010307312012
1631118376965,1.7019588947296145,1.633819580078125,0.3166455924510956,2.042010307312012
1631118377235,1.7019588947296145,1.578058123588562,0.6993812322616577,2.042010307312012
1631118377251,1.7019588947296145,1.5802624225616455,0.7412740588188171,2.042010307312012
1631118377456,0.1049325391650199,1.5482171773910522,0.6589604616165161,2.042010307312012
1631118377803,0.0681551694869995,1.5477333068847656,0.6206434965133667,2.042010307312012
1631118377948,0.0284559149295091,1.5335057973861694,0.5851278901100159,2.042010307312012
1631118378316,1.1352771520614624,1.583842158317566,1.0484941005706787,1.6539355516433716
1631118378580,1.193183422088623,1.642687439918518,1.1403961181640625,1.6334811449050903
1631118378580,1.134495973587036,1.582289218902588,1.0449564456939695,1.6924265623092651
1631118378659,1.2652888298034668,1.6710879802703855,1.1743842363357544,1.6066217422485352
1631118378682,1.2652888298034668,1.6190319061279297,1.213093638420105,1.6041709184646606
1631118378712,1.2652888298034668,1.6248750686645508,1.2570403814315796,1.5482016801834106
1631118378744,1.2652888298034668,1.4552359580993652,1.4269235134124756,1.498882532119751
1631118378744,1.189927339553833,1.490073800086975,1.3868749141693115,1.54376220703125
1631118379145,1.1262218952178955,1.5338209867477417,1.3504607677459717,1.5034511089324951
1631118379145,1.3386913537979126,1.50486421585083,1.459826111793518,1.495337963104248
1631118379285,1.3655858039855957,1.7961657047271729,1.421906590461731,1.495337963104248
1631118379403,1.321381688117981,1.7961431741714478,1.421350598335266,1.495337963104248
1631118379693,1.3648054599761963,1.837540626525879,1.5376046895980835,1.495337963104248
1631118379693,1.4143794775009155,1.960493206977844,1.639844298362732,1.5320667028427124
1631118379788,1.4712059497833252,2.0115067958831787,1.6537717580795288,1.5715833902359009
1631118380201,1.2936702966690063,2.019036769866944,1.6133495569229126,1.357027530670166
1631118380233,1.4677108526229858,2.085723400115967,1.6544888019561768,1.303402304649353
1631118380328,1.749325156211853,2.1083478927612305,1.6651476621627808,1.286716103553772
1631118380347,1.6986570358276367,2.1083478927612305,1.6651476621627808,1.2069647312164309
1631118380359,1.5027042627334597,2.1083478927612305,1.6651476621627808,1.309067964553833
1631118380504,1.6986570358276367,2.1083478927612305,1.6651476621627808,1.2802022695541382
1631118380548,1.6986570358276367,2.044926881790161,1.5706030130386353,1.3716291189193726
1631118380801,1.7490230798721311,2.046342134475708,1.687009572982788,1.3716291189193726
1631118380895,1.8063410520553589,2.0436899662017822,1.7373182773590088,1.3716291189193726
1631118380922,1.7868475914001465,2.0594332218170166,1.7030645608901978,1.3716291189193726
1631118380928,1.823381185531616,1.9228438138961792,1.76920485496521,1.3716291189193726
1631118380963,1.8426419496536253,2.0019235610961914,1.847714900970459,1.3716291189193726
1631118381032,1.8426419496536253,2.0525619983673096,1.8817867040634155,1.3716291189193726
1631118381076,1.8426419496536253,1.956093192100525,1.7933024168014526,1.3716291189193726
1631118381130,1.8426419496536253,2.011783599853516,1.865319013595581,1.3716291189193726
1631118381134,1.8426419496536253,1.9327784776687624,1.865319013595581,1.3716291189193726
1631118407165,1.4526467323303225,1.744869351387024,1.434895634651184,0.7350360155105591
1631118407241,1.3895472288131714,1.6912529468536377,1.322049260139465,0.7350360155105591
1631118407338,1.3348407745361328,1.5947415828704834,1.321754813194275,1.510483741760254
1631118407503,1.2865211963653564,1.5777429342269895,1.2869545221328735,1.510483741760254
1631118407914,1.34230637550354,1.6143332719802856,1.3417479991912842,1.510483741760254
1631118407921,1.2739895582199097,1.5794036388397217,1.2863430976867676,1.510483741760254
1631118407942,1.3210386037826538,1.5800209045410156,1.276968002319336,1.510483741760254
1631118407997,1.2837141752243042,1.5795087814331057,1.2763663530349731,1.510483741760254
1631118408171,1.2497775554656982,1.5368543863296509,1.2760618925094604,1.510483741760254
1631118408304,1.2502940893173218,1.5279655456542969,1.2758772373199463,1.4162951707839966
1631118408352,0.9470566511154176,1.513322830200195,1.150374174118042,1.565451979637146
1631118408353,0.9399753212928772,1.7369996309280396,1.385578155517578,1.565451979637146
1631118408354,0.9399753212928772,1.7689588069915771,1.4166914224624634,1.5026317834854126
1631118408362,0.9399753212928772,1.752141356468201,1.399385929107666,1.565451979637146
1631118408398,1.138216495513916,1.721248984336853,1.405550241470337,1.4284743070602417
1631118408586,1.0501655340194702,1.706068515777588,1.3744511604309082,1.5761808156967163
1631118408838,1.1842787265777588,1.7376891374588013,1.4377577304840088,1.637906789779663
1631118408872,1.1835225820541382,1.737335205078125,1.436835765838623,1.7092759609222412
1631118409006,1.1834955215454102,1.734157919883728,1.4356489181518557,1.7092759609222412
1631118409156,2.115548849105835,1.77015483379364,1.434569239616394,2.260263442993164
1631118409429,2.218329429626465,1.7160364389419556,1.772462248802185,2.267064332962036
1631118409655,2.239267587661743,1.753438115119934,1.8249362707138064,2.227781057357788
1631118409721,2.2493226528167725,1.828216314315796,1.847983121871948,2.227781057357788
1631118409891,2.249065399169922,1.828321933746338,1.8483303785324097,2.1774580478668213
1631118410146,2.2268943786621094,1.8536006212234497,1.8610565662384035,2.1718626022338867
1631118410156,2.2488715648651123,1.835366487503052,1.8486120700836184,2.1781005859375
1631118410190,2.20580792427063,1.5751608610153198,1.8049521446228027,2.148376941680908
1631118410341,2.1923985481262207,1.6318910121917725,1.8201708793640137,2.148376941680908
1631118410521,2.1627755165100098,1.5918712615966797,1.788707256317139,2.193483829498291
1631118410553,2.1508915424346924,1.6465113162994385,1.7589527368545532,2.1955230236053467
1631118410569,2.1725425720214844,1.9045835733413696,1.7562313079833984,2.193920850753784
1631118410653,2.1637747287750244,1.93362295627594,1.732668161392212,2.193920850753784
1631118410737,2.1935372352600098,1.9483110904693604,1.7379238605499268,2.193920850753784
1631118410803,2.220790386199951,2.0002992153167725,1.7837893962860107,2.193920850753784
1631118410958,1.9105017185211184,2.1821866035461426,1.7841800451278689,1.771704077720642
1631118411050,1.69193696975708,2.1500115394592285,1.512719988822937,1.5473928451538086
1631118411572,1.6778953075408936,2.1467199325561523,1.4988806247711182,1.490303635597229
1631118411719,1.6561095714569092,2.133785486221313,1.473059058189392,1.490303635597229
1631118411877,1.683709979057312,2.216815948486328,1.5068986415863037,1.5798934698104858
1631118411877,1.854688048362732,2.247568368911743,1.61663019657135,1.5798934698104858
1631118412325,1.8413702249526975,2.2282001972198486,1.5641940832138062,1.5798934698104858
1631118412372,1.8117377758026123,2.2180521488189697,1.5097094774246216,1.5798934698104858
1631118412557,1.8329471349716189,2.3862218856811523,1.517011642456055,1.5798934698104858
1631118412558,1.7961488962173462,2.34393572807312,1.5032835006713867,1.5798934698104858
1631118413076,1.871296763420105,2.384066343307495,1.5384633541107178,1.5798934698104858
1631118413076,1.8482706546783447,2.34635066986084,1.63998544216156,1.5798934698104858
1631118413090,1.8983395099639893,2.408655881881714,1.6406044960021973,1.5798934698104858
1631118413124,1.8505147695541384,2.40511155128479,1.6376057863235474,1.5798934698104858
1631118413156,2.047667980194092,2.3647725582122803,1.6233760118484497,1.5798934698104858
1631118413164,1.8630863428115845,2.4078962802886963,1.631755828857422,1.5798934698104858
1631118413165,2.053710460662842,2.3721554279327397,1.675817847251892,1.5798934698104858
1631118413169,2.063450336456299,2.375279426574707,1.6756340265274048,1.5798934698104858
1631118413223,2.0979108810424805,2.385676622390747,1.612399339675903,1.5798934698104858
1631118413267,2.084469795227051,2.3317158222198486,1.5854326486587524,2.5827784538269043
1631118413288,2.1760756969451904,2.392852067947388,1.600109577178955,2.6717495918273926
1631118413316,2.196162700653076,2.461524724960327,1.6118628978729248,2.750204086303711
1631118413418,2.1979804039001465,2.462002754211426,1.615644931793213,2.684624433517456
1631118413611,2.252333879470825,2.403727531433105,1.5924354791641235,2.7974660396575928
1631118413776,2.242158889770508,2.3788259029388428,1.6118216514587402,2.8471357822418213
1631118413877,2.2074921131134038,2.3685879707336426,1.5936788320541382,2.8061883449554443
1631118414063,2.1774449348449707,2.35308837890625,1.4888784885406494,2.763248920440674
1631118414183,2.1774449348449707,2.2925708293914795,1.6184399127960205,2.7335686683654785
1631118414244,2.2086243629455566,2.362752676010132,1.885607361793518,2.7699334621429443
1631118414307,2.20867657661438,2.372120141983032,1.8831146955490112,2.7699334621429443
1631118414414,2.100417375564575,2.336977958679199,1.886010766029358,2.7699334621429443
1631118414475,2.103482246398926,2.367792844772339,1.9203840494155884,2.7699334621429443
1631118414534,2.0991718769073486,2.3654301166534424,1.9295966625213623,2.7699334621429443
1631118414598,2.0904133319854736,2.335166454315185,1.936266660690308,2.8112339973449707
1631118414641,2.131425380706787,2.3609442710876465,1.9637925624847408,2.7420814037323
1631118414724,1.929327726364136,2.238370180130005,1.8968709707260127,2.715170383453369
1631118414758,1.9095489978790283,2.1173036098480225,1.9269700050354004,2.649684190750122
1631118414812,1.9595720767974851,2.155825138092041,1.9636493921279907,2.71514892578125
1631118414849,1.6174734830856323,2.06860089302063,1.9830942153930664,2.471835136413574
1631118414898,1.3786338567733765,2.063413143157959,2.011820077896118,2.3303208351135254
1631118414932,1.473872423171997,2.121284008026123,2.069661855697632,2.3303208351135254
1631118414972,1.473872423171997,2.183206796646118,2.1309356689453125,2.3303208351135254
1631118415033,1.473872423171997,2.162893533706665,2.1133267879486084,2.3303208351135254
1631118415101,1.473872423171997,1.714417576789856,1.453561782836914,2.3303208351135254
1631118415150,1.473872423171997,1.619483232498169,1.453561782836914,2.3303208351135254
1631118415216,1.473872423171997,1.619483232498169,1.453561782836914,2.3303208351135254
1631118415283,1.473872423171997,1.5645878314971924,1.453561782836914,2.3303208351135254
1631118415337,1.473872423171997,1.5914291143417358,1.453561782836914,2.3303208351135254
1631118415453,1.473872423171997,1.5537234544754028,1.453561782836914,2.3303208351135254
1631118415488,1.473872423171997,0.5935611128807068,1.453561782836914,2.3303208351135254
1631118415689,1.473872423171997,0.5935611128807068,1.453561782836914,2.3303208351135254
1631118415735,1.473872423171997,0.5935611128807068,1.453561782836914,2.3303208351135254
1631118415914,1.473872423171997,0.8004288673400879,1.1065788269042969,2.3303208351135254
1631118416056,1.473872423171997,0.7156268954277039,1.014894962310791,2.3303208351135254
1631118416253,1.473872423171997,0.6487108469009399,0.9445143938064576,2.3303208351135254
1631118416808,1.473872423171997,0.6559011340141296,0.9062561988830566,2.3303208351135254
1631118416831,1.473872423171997,0.6105073690414429,0.9062561988830566,2.3303208351135254
1631118417087,1.473872423171997,0.5739961266517639,0.9062561988830566,2.3303208351135254
1631118417139,1.473872423171997,1.0648657083511353,0.9062561988830566,2.3303208351135254
1631118417149,1.473872423171997,1.0820844173431396,0.9062561988830566,2.3303208351135254
1631118417358,1.473872423171997,1.0455549955368042,0.9062561988830566,2.3303208351135254
1631118417395,1.473872423171997,1.008233904838562,0.9062561988830566,2.3303208351135254
1631118417398,1.473872423171997,1.3191156387329102,0.9062561988830566,2.3303208351135254
1631118417398,1.473872423171997,1.0029594898223877,0.9062561988830566,2.3303208351135254
1631118417521,1.473872423171997,1.3262407779693604,0.5321822166442871,2.3303208351135254
1631118417540,1.473872423171997,1.3262407779693604,0.5862808227539062,2.3303208351135254
1631118417544,1.473872423171997,1.3262407779693604,0.5048216581344604,2.3303208351135254
1631118417650,1.473872423171997,1.3445062637329102,0.5862808227539062,2.3303208351135254
1631118417727,1.473872423171997,1.3811239004135132,0.5862808227539062,2.3303208351135254
1631118417919,1.473872423171997,1.4212932586669922,0.5862808227539062,2.3303208351135254
1631118417935,1.473872423171997,1.414754867553711,0.5862808227539062,2.3303208351135254
1631118417963,1.473872423171997,1.4177706241607666,0.5862808227539062,2.3303208351135254
1631118418220,1.473872423171997,1.5481889247894287,0.5862808227539062,2.3303208351135254
1631118418457,1.473872423171997,1.4446216821670532,0.5862808227539062,2.3303208351135254
1631118418756,1.473872423171997,1.4814884662628174,0.5862808227539062,2.3303208351135254
1631118418773,1.473872423171997,1.5304691791534424,0.5862808227539062,2.3303208351135254
1631118418835,1.473872423171997,1.587563395500183,0.5862808227539062,2.3303208351135254
1631118418997,1.473872423171997,1.6355897188186646,0.5862808227539062,2.3303208351135254
1631118419058,1.473872423171997,1.3410240411758425,0.5862808227539062,2.3303208351135254
1631118419059,1.473872423171997,1.376095414161682,0.5862808227539062,2.3303208351135254
1631118419069,1.473872423171997,1.4773482084274292,0.5862808227539062,2.3303208351135254
1631118419072,1.473872423171997,1.5478676557540894,0.5862808227539062,2.3303208351135254
1631118419105,1.473872423171997,1.5348577499389648,0.5862808227539062,2.3303208351135254
1631118419125,1.473872423171997,1.6466336250305176,0.5862808227539062,2.3303208351135254
1631118419199,1.473872423171997,1.60662043094635,0.5862808227539062,2.3303208351135254
1631118419230,1.473872423171997,2.0770668983459477,0.5862808227539062,2.3303208351135254
1631118419231,1.473872423171997,1.692988038063049,0.5862808227539062,2.3303208351135254
1631118419276,1.473872423171997,2.070264339447021,0.5862808227539062,2.3303208351135254
1631118419376,1.473872423171997,2.094064950942993,1.7385342121124268,2.3303208351135254
1631118419460,2.0351507663726807,2.056312799453736,1.6440956592559814,2.3303208351135254
1631118419573,2.0351507663726807,2.0356123447418213,1.6440956592559814,2.3303208351135254
1631118419738,2.0351507663726807,2.0035276412963867,1.6440956592559814,2.3303208351135254
1631118420132,2.0351507663726807,2.009642601013184,1.6440956592559814,2.3303208351135254
1631118420375,2.0351507663726807,2.01404356956482,1.6440956592559814,2.3303208351135254
1631118420986,2.0351507663726807,2.0336813926696777,1.6440956592559814,2.3303208351135254
1631118421237,2.0351507663726807,2.046053409576416,1.6440956592559814,2.3303208351135254
1631118421439,2.0351507663726807,2.051656723022461,1.688861608505249,2.3303208351135254
1631118421447,2.0351507663726807,2.05851411819458,1.6440956592559814,2.3303208351135254
1631118421453,2.0351507663726807,2.08899188041687,1.688861608505249,2.3303208351135254
1631118421466,2.0351507663726807,2.056389331817627,1.688861608505249,2.3303208351135254
1631118421469,2.0351507663726807,2.0897037982940674,1.688861608505249,2.3303208351135254
1631118421490,2.0351507663726807,1.7122153043746948,1.688861608505249,2.3303208351135254
1631118421537,2.0351507663726807,1.6927762031555176,1.688861608505249,2.3303208351135254
1631118421575,2.0351507663726807,1.8029245138168333,1.688861608505249,2.3303208351135254
1631118421576,2.0351507663726807,1.76160991191864,1.688861608505249,2.3303208351135254
1631118421585,2.0351507663726807,1.8168034553527832,1.688861608505249,2.3303208351135254
1631118421619,2.0351507663726807,1.824850916862488,1.688861608505249,3.136225700378418
1631118421637,2.0351507663726807,1.867716908454895,1.688861608505249,2.3303208351135254
1631118421658,2.0351507663726807,1.874833106994629,1.688861608505249,3.136225700378418
1631118421667,2.0351507663726807,1.874833106994629,1.688861608505249,3.136225700378418
1631118421757,2.0351507663726807,1.874833106994629,1.688861608505249,3.136225700378418
1631118421996,2.0351507663726807,1.874833106994629,1.688861608505249,3.136225700378418
1631118422197,2.0351507663726807,1.8083415031433103,1.688861608505249,3.136225700378418
1631118422325,2.0351507663726807,1.89000141620636,0.972976803779602,3.136225700378418
1631118422453,2.0351507663726807,1.89000141620636,0.8957386016845703,3.136225700378418
1631118422545,2.0351507663726807,1.89000141620636,0.8957386016845703,3.136225700378418
1631118422647,2.0351507663726807,1.89000141620636,0.8957386016845703,3.136225700378418
1631118422731,2.0351507663726807,1.89000141620636,0.8066287040710449,3.136225700378418
1631118422903,2.0351507663726807,1.89000141620636,0.8066287040710449,3.136225700378418
1631118423018,2.0351507663726807,1.89000141620636,0.8066287040710449,3.136225700378418
1631118423315,2.0351507663726807,1.89000141620636,0.8066287040710449,3.136225700378418
1631118423600,2.0351507663726807,1.89000141620636,0.8066287040710449,3.136225700378418
1631118423682,2.0351507663726807,1.89000141620636,0.8066287040710449,3.136225700378418
1631118423890,2.0351507663726807,1.89000141620636,0.8066287040710449,3.136225700378418
1631118424037,2.0351507663726807,1.89000141620636,0.8066287040710449,3.136225700378418
1631118424115,2.0351507663726807,1.89000141620636,0.8066287040710449,3.136225700378418
1631118424123,2.0351507663726807,1.89000141620636,0.8066287040710449,3.136225700378418
1631118424220,2.0351507663726807,1.89000141620636,0.8066287040710449,3.136225700378418
1631118424297,2.0351507663726807,1.664690613746643,0.8066287040710449,3.136225700378418
1631118424298,2.0351507663726807,1.664690613746643,0.8066287040710449,3.136225700378418
1631118424409,2.0351507663726807,1.664690613746643,0.8066287040710449,3.136225700378418
1631118424456,2.0351507663726807,1.579776644706726,0.8066287040710449,3.136225700378418
1631118424541,2.0351507663726807,1.7703384160995483,0.8066287040710449,3.136225700378418
1631118424553,2.0351507663726807,1.5965057611465454,0.8066287040710449,3.136225700378418
1631118424604,2.0351507663726807,1.7939045429229736,0.8066287040710449,3.136225700378418
1631118424656,2.0351507663726807,1.7571237087249756,0.8066287040710449,3.136225700378418
1631118424728,2.0351507663726807,1.7624367475509644,0.8066287040710449,3.136225700378418
1631118424885,2.0351507663726807,1.7410666942596436,0.8066287040710449,3.136225700378418
1631118424948,2.0351507663726807,1.8740553855896,0.8066287040710449,3.136225700378418
1631118424969,2.0351507663726807,1.8786178827285769,0.8066287040710449,3.136225700378418
1631118425189,2.0351507663726807,1.8578041791915891,0.8066287040710449,3.136225700378418
1631118425349,2.0351507663726807,1.8214768171310425,0.8066287040710449,3.136225700378418
1631118425503,2.0351507663726807,1.8570250272750852,0.8066287040710449,3.136225700378418
1631118425515,2.0351507663726807,1.882454514503479,0.8066287040710449,3.136225700378418
1631118425726,2.0351507663726807,1.8570250272750852,0.8066287040710449,3.136225700378418
1631118425744,2.0351507663726807,1.909159541130066,0.8066287040710449,3.136225700378418
1631118425768,2.0351507663726807,1.8570250272750852,0.8066287040710449,3.136225700378418
1631118425768,2.0351507663726807,1.8922020196914675,0.8066287040710449,3.136225700378418
1631118425812,2.0351507663726807,1.8144315481185915,0.8066287040710449,3.136225700378418
1631118425812,2.0351507663726807,1.848893404006958,0.8066287040710449,3.136225700378418
1631118425813,2.0351507663726807,1.846466064453125,0.8066287040710449,3.136225700378418
1631118425893,2.0351507663726807,1.8537964820861816,0.8066287040710449,3.136225700378418
1631118426036,2.0351507663726807,1.9116064310073853,0.8066287040710449,3.136225700378418
1631118426178,2.0351507663726807,1.749996304512024,0.8066287040710449,3.136225700378418
1631118426254,2.0351507663726807,1.7407166957855225,0.8066287040710449,3.136225700378418
1631118426379,2.0351507663726807,1.8058449029922483,0.8066287040710449,3.136225700378418
1631118426568,2.0351507663726807,1.8052988052368164,0.8066287040710449,3.136225700378418
1631118426785,2.0351507663726807,1.555965542793274,0.8066287040710449,3.136225700378418
1631118427084,2.0351507663726807,1.499639630317688,0.8066287040710449,3.136225700378418
1631118427134,2.0351507663726807,1.729074001312256,0.8066287040710449,3.136225700378418
1631118427187,2.0351507663726807,1.7128865718841553,0.8066287040710449,3.136225700378418
1631118427201,2.0351507663726807,1.7539970874786377,0.8066287040710449,3.136225700378418
1631118427435,2.0351507663726807,1.675357222557068,0.8066287040710449,3.136225700378418
1631118427487,2.0351507663726807,1.6217421293258667,0.8066287040710449,3.136225700378418
1631118427526,2.0351507663726807,1.590833067893982,0.8066287040710449,3.136225700378418
1631118427530,1.314998984336853,1.548639893531799,1.4005122184753418,3.136225700378418
1631118427538,2.0351507663726807,1.5569432973861694,0.8066287040710449,3.136225700378418
1631118427569,1.372435450553894,1.5483553409576416,1.4253125190734863,2.5253453254699707
1631118427616,1.6538597345352173,1.6426668167114258,1.3563331365585327,2.8176019191741943
1631118427729,1.588387966156006,1.6250122785568235,1.3088189363479614,2.7384512424468994
1631118428033,1.5706796646118164,1.571203589439392,1.3371915817260742,2.6748247146606445
1631118428100,1.613087177276611,1.6229496002197266,1.312214493751526,2.6189589500427246
1631118428279,1.613087177276611,1.62258780002594,1.312214493751526,2.6189589500427246
1631118428279,1.613087177276611,1.62253737449646,1.312214493751526,2.6189589500427246
1631118428572,1.613087177276611,1.4287298917770386,1.312214493751526,2.6189589500427246
1631118428621,1.613087177276611,1.336127519607544,1.312214493751526,2.6189589500427246
1631118428622,1.613087177276611,1.467566728591919,1.312214493751526,2.6189589500427246
1631118428818,1.613087177276611,1.4971952438354492,1.312214493751526,2.6189589500427246
1631118428880,1.6612567901611328,1.5288699865341189,1.36104416847229,2.6189589500427246
1631118429123,1.7163797616958618,1.5669264793395996,1.3526495695114136,2.672929048538208
1631118429187,1.6814546585083008,1.5679234266281128,1.153806447982788,2.730043649673462
1631118429378,1.7982832193374634,1.6090824604034424,1.110284686088562,2.6959285736083984
1631118429389,1.7583709955215454,1.5803292989730835,1.2258350849151611,2.772845983505249
1631118429398,1.7982832193374634,1.4990119934082031,1.110284686088562,2.6959285736083984
1631118429444,1.7982832193374634,1.5363048315048218,1.110284686088562,2.6959285736083984
1631118429523,1.7982832193374634,1.5476001501083374,1.110284686088562,2.6959285736083984
1631118429711,1.7982832193374634,1.4929664134979248,1.110284686088562,2.6959285736083984
1631118429733,1.7982832193374634,1.5435043573379517,1.110284686088562,2.6959285736083984
1631118429759,1.7982832193374634,1.600104570388794,1.110284686088562,2.6959285736083984
1631118429946,1.7982832193374634,1.6621787548065186,1.110284686088562,2.6959285736083984
1631118429991,1.7982832193374634,1.7286633253097534,1.110284686088562,2.6959285736083984
1631118430081,1.7982832193374634,1.5808249711990356,1.110284686088562,2.6959285736083984
1631118430412,1.7982832193374634,1.594965934753418,1.110284686088562,2.6959285736083984
1631118430498,1.7982832193374634,1.6017338037490845,1.2170147895812988,2.6959285736083984
1631118430503,1.7982832193374634,1.5165579319000244,1.313283085823059,2.6959285736083984
1631118430535,1.7982832193374634,1.7128015756607056,1.2186853885650637,2.6959285736083984
1631118430540,1.7982832193374634,2.240108013153076,1.2186853885650637,2.6959285736083984
1631118430679,1.7982832193374634,2.252042055130005,1.2186853885650637,2.6959285736083984
1631118430759,1.7982832193374634,2.1863036155700684,1.2186853885650637,2.6959285736083984
1631118430837,1.7982832193374634,2.1798691749572754,1.2186853885650637,2.6959285736083984
1631118430886,1.7982832193374634,2.137871742248535,1.0929259061813354,2.6959285736083984
1631118430950,1.7982832193374634,2.0926105976104736,1.1807456016540527,2.6959285736083984
1631118431045,1.7982832193374634,2.051814317703247,1.1807456016540527,2.6959285736083984
1631118431250,1.7982832193374634,2.014608860015869,1.1807456016540527,2.6959285736083984
1631118431369,1.7982832193374634,1.980717420578003,1.1807456016540527,2.6959285736083984
1631118431513,1.7982832193374634,1.9790685176849363,1.1807456016540527,2.6959285736083984
1631118431578,1.7982832193374634,1.9430408477783203,1.1807456016540527,2.6959285736083984
1631118431579,1.7982832193374634,1.9519869089126587,1.1807456016540527,2.6959285736083984
1631118431627,1.7982832193374634,1.9647064208984373,1.1807456016540527,2.6959285736083984
1631118431627,1.7982832193374634,1.964755892753601,1.1807456016540527,2.6959285736083984
1631118431671,1.7982832193374634,1.9428410530090328,1.1807456016540527,2.6959285736083984
1631118431686,1.7982832193374634,1.4804482460021973,1.1807456016540527,2.6959285736083984
1631118431688,1.7982832193374634,1.5634183883666992,1.1807456016540527,2.6959285736083984
1631118431907,1.7982832193374634,1.4794210195541382,1.1807456016540527,2.6959285736083984
1631118431943,1.7982832193374634,1.4051764011383057,1.1807456016540527,2.6959285736083984
1631118432099,1.7982832193374634,1.376090168952942,0.7567892670631409,2.6959285736083984
1631118432161,1.7982832193374634,1.4266295433044434,0.7598726749420166,2.6959285736083984
1631118432223,1.7982832193374634,1.424984335899353,0.7333962321281433,2.6959285736083984
1631118432363,1.7982832193374634,1.5022951364517212,1.17923903465271,2.6959285736083984
1631118432408,1.7982832193374634,1.5003105401992798,1.1238200664520264,2.6959285736083984
1631118432703,1.7982832193374634,1.4086904525756836,1.0744454860687256,2.6959285736083984
1631118432722,1.7982832193374634,1.4584139585494995,1.2109986543655396,2.6959285736083984
1631118432959,1.7982832193374634,1.4412438869476318,1.170452117919922,2.6959285736083984
1631118433019,1.7982832193374634,1.364032506942749,1.1332416534423828,2.6959285736083984
1631118433047,1.7982832193374634,1.2447551488876345,1.0989267826080322,2.6959285736083984
1631118433137,1.7982832193374634,1.2383997440338137,1.0672264099121094,2.6959285736083984
1631118433166,1.7982832193374634,1.2258310317993164,1.0378636121749878,2.6959285736083984
1631118433301,-0.4031546413898468,1.221805214881897,1.020848274230957,0.2068370729684829
1631118433385,-0.4270488023757934,1.2187607288360596,1.0084586143493652,0.2214735299348831
1631118433487,-0.4438159465789795,1.0887340307235718,0.993947684764862,0.2493806183338165
1631118433688,-0.446852833032608,1.0865451097488403,0.9756284952163696,0.28790283203125
1631118434029,-0.4409748315811157,0.9630990624427797,0.9591217637062072,0.3303408920764923
1631118434060,-0.4347628355026245,0.9629625082015992,0.9509587287902832,0.3720599710941314
1631118434074,-0.4113691449165344,0.5914546251296997,0.6221984028816223,0.3720599710941314
1631118434169,-0.3315161764621734,0.591629147529602,0.6533651351928711,0.3720599710941314
1631118434248,0.017065804451704,0.6545523405075073,0.2045183628797531,0.3720599710941314
1631118434249,-0.1755912750959396,0.59219890832901,0.7168168425559998,0.3720599710941314
1631118434388,0.1863323748111724,0.6546716690063477,0.2305190861225128,0.3720599710941314
1631118434571,0.3038313686847687,0.6547907590866089,0.2609967887401581,0.3720599710941314
1631118434633,0.3913609087467193,0.6558472514152527,0.2954390048980713,0.4765461683273315
1631118434723,0.4365933239459991,0.6580719351768494,0.3331733345985412,0.5016660094261169
1631118434791,0.4535953998565674,0.6609405279159546,0.3640329241752624,0.5076500773429871
1631118434938,0.4585843384265899,0.6657498478889465,0.4078440070152282,0.5250144600868225
1631118434946,0.4579370617866516,0.6636785268783569,0.3840301632881164,0.5143703818321228
1631118435159,0.4601400196552276,0.6672501564025879,0.4439869821071625,0.5373154282569885
1631118435255,0.4645370543003082,0.6685923933982849,0.4864573776721954,0.5443267822265625
1631118435297,0.4719679951667785,0.6769106388092041,0.5213667154312134,0.5477890372276306
1631118435502,0.4807969331741333,0.6781134009361267,0.53885418176651,0.5187346339225769
1631118435745,0.5052626132965088,0.6788507103919983,0.5366968512535095,0.5187346339225769
1631118436136,0.5251711010932922,0.6799165606498718,0.5097475647926331,0.5187346339225769
1631118436137,0.5302062034606934,0.6830844283103943,0.3533286154270172,0.5187346339225769
1631118436413,0.5047650337219238,-0.2133507430553436,0.3533286154270172,0.5187346339225769
1631118436495,0.4343890249729156,-0.1448507606983184,0.3533286154270172,0.5187346339225769
1631118436504,0.3128279447555542,0.6829096674919128,0.3533286154270172,0.5187346339225769
1631118436513,0.1492886692285537,1.275595784187317,0.3533286154270172,0.4434547424316406
1631118436565,-0.0107154576107859,1.3047151565551758,0.3533286154270172,0.4344501197338104
1631118436567,-0.0946342349052429,1.3359756469726562,0.3653660118579864,0.4554024934768677
1631118436575,-0.0911448895931243,1.3698419332504272,0.3949682414531708,0.4787200093269348
1631118436637,-0.0338823795318603,1.4475882053375244,0.4350218474864959,0.4927408099174499
1631118436639,-0.0338823795318603,1.4068573713302612,0.4254256784915924,0.4927408099174499
1631118436671,-0.0338823795318603,1.4470674991607666,0.3020914196968078,0.4927408099174499
1631118436725,-0.0338823795318603,1.4450831413269043,0.1313748061656952,0.4927408099174499
1631118436781,-0.0338823795318603,1.4456040859222412,0.0312724709510803,0.4927408099174499
1631118436875,-0.0338823795318603,1.4907978773117063,0.3486579358577728,0.4927408099174499
1631118437037,-0.0338823795318603,1.5411455631256104,1.065348982810974,0.4927408099174499
1631118437144,-0.0338823795318603,1.66241455078125,1.243521213531494,0.4927408099174499
1631118437144,-0.0338823795318603,1.597726583480835,1.243521213531494,0.4927408099174499
1631118437254,-0.0338823795318603,1.6334021091461182,1.243521213531494,0.4927408099174499
1631118437254,-0.0338823795318603,1.738607406616211,1.243521213531494,0.4927408099174499
1631118437395,-0.0338823795318603,1.0596098899841309,1.243521213531494,0.4927408099174499
1631118437568,-0.0338823795318603,0.9892743229866028,1.243521213531494,0.4927408099174499
1631118437572,-0.0338823795318603,0.926642656326294,1.243521213531494,0.4927408099174499
1631118437832,-0.0338823795318603,0.8714088797569275,1.243521213531494,0.4927408099174499
1631118438024,-0.0338823795318603,0.8226636648178101,1.243521213531494,0.4927408099174499
1631118438186,-0.0338823795318603,0.7801770567893982,1.243521213531494,0.4927408099174499
1631118438251,-0.0338823795318603,0.7846950888633728,1.3214147090911863,0.4927408099174499
1631118438420,-0.0338823795318603,0.7889763712882996,1.4158915281295776,0.4927408099174499
1631118438704,-0.0338823795318603,0.7893955707550049,1.4158915281295776,0.4927408099174499
1631118439152,-0.0338823795318603,0.7520071268081665,1.4158915281295776,0.4927408099174499
