timestamp,TP9,AF7,AF8,TP10
1631118271105,0.1533981561660766,2.3193178176879883,1.234606146812439,-0.3478703796863556
1631118271501,0.1533981561660766,2.382485866546631,1.234606146812439,-0.3478703796863556
1631118271808,0.1533981561660766,2.3377392292022705,1.234606146812439,-0.3478703796863556
1631118271829,0.1533981561660766,2.4295101165771484,1.234606146812439,-0.3478703796863556
1631118271881,0.1533981561660766,2.4295101165771484,1.234606146812439,-0.3478703796863556
1631118272053,0.1533981561660766,2.4295101165771484,1.234606146812439,-0.3478703796863556
1631118272073,0.1533981561660766,2.4295101165771484,1.234606146812439,-0.3478703796863556
1631118272115,0.1533981561660766,2.4295101165771484,1.234606146812439,-0.3478703796863556
1631118272386,0.1533981561660766,2.4295101165771484,1.234606146812439,-0.3478703796863556
1631118272552,0.1533981561660766,2.4153573513031006,1.234606146812439,-0.3478703796863556
1631118272584,0.1533981561660766,2.4153573513031006,1.234606146812439,-0.3478703796863556
1631118272587,0.1533981561660766,2.510347843170166,1.234606146812439,-0.3478703796863556
1631118272588,0.1533981561660766,2.4153573513031006,1.234606146812439,-0.3478703796863556
1631118273051,0.1533981561660766,2.510347843170166,1.234606146812439,-0.3478703796863556
1631118273115,0.1533981561660766,2.510347843170166,1.234606146812439,-0.3478703796863556
1631118273535,0.1533981561660766,2.510347843170166,1.234606146812439,-0.3478703796863556
1631118274069,0.1533981561660766,2.510347843170166,1.234606146812439,-0.3478703796863556
1631118274303,0.1533981561660766,2.510347843170166,1.234606146812439,-0.3478703796863556
1631118274306,0.1533981561660766,2.510347843170166,1.234606146812439,-0.3478703796863556
1631118274522,0.1533981561660766,2.510347843170166,1.234606146812439,-0.3478703796863556
1631118274902,0.1533981561660766,2.510347843170166,1.234606146812439,-0.3478703796863556
1631118274985,0.1533981561660766,2.510347843170166,1.234606146812439,-0.3478703796863556
1631118275068,0.1533981561660766,2.510347843170166,1.234606146812439,-0.3478703796863556
1631118275132,0.1533981561660766,2.510347843170166,1.234606146812439,-0.3478703796863556
1631118275137,0.1533981561660766,2.510347843170166,1.234606146812439,-0.3478703796863556
1631118275139,0.1533981561660766,2.510347843170166,1.234606146812439,-0.3478703796863556
1631118275153,0.1533981561660766,2.510347843170166,1.234606146812439,-0.3478703796863556
1631118275180,0.1533981561660766,2.510347843170166,1.234606146812439,-0.3478703796863556
1631118275291,0.1533981561660766,2.510347843170166,1.234606146812439,-0.3478703796863556
1631118275420,0.1533981561660766,2.510347843170166,1.234606146812439,-0.3478703796863556
1631118275439,0.1533981561660766,3.495233058929444,1.234606146812439,-0.3478703796863556
1631118275451,0.1533981561660766,3.62525486946106,1.234606146812439,-0.3478703796863556
1631118275725,0.1533981561660766,3.90071177482605,2.805027484893799,-0.3478703796863556
1631118275729,0.1533981561660766,3.848713636398315,1.234606146812439,-0.3478703796863556
1631118275733,0.1533981561660766,3.90071177482605,2.805027484893799,-0.3478703796863556
1631118275737,4.265964984893799,3.90071177482605,2.805027484893799,-0.3478703796863556
1631118275755,4.133571147918701,3.862213134765625,3.1086432933807373,-0.3478703796863556
1631118275762,4.190475940704346,3.90071177482605,2.805027484893799,-0.3478703796863556
1631118275831,4.133571147918701,3.881702184677124,3.03010892868042,-0.3478703796863556
1631118275918,4.133571147918701,3.881702184677124,3.03010892868042,-0.3478703796863556
1631118276152,4.133571147918701,3.881702184677124,2.968658447265625,-0.3478703796863556
1631118276239,4.133571147918701,3.881702184677124,2.929788589477539,-0.3478703796863556
1631118276307,4.133571147918701,3.881702184677124,2.9010963439941406,-0.3478703796863556
1631118276451,4.133571147918701,3.881702184677124,2.978125810623169,-0.3478703796863556
1631118276499,4.133571147918701,3.9578640460968018,2.978125810623169,-0.3478703796863556
1631118276547,4.133571147918701,3.950901508331299,3.0055744647979736,-0.3478703796863556
1631118276605,4.133571147918701,3.955073595046997,3.05655837059021,-0.3478703796863556
1631118276696,4.085015296936035,3.955073595046997,3.1144700050354004,-0.3478703796863556
1631118276762,3.971047163009644,3.955073595046997,3.0133090019226074,-0.3478703796863556
1631118276829,3.971047163009644,3.955073595046997,2.955711603164673,-0.3478703796863556
1631118276896,3.971047163009644,3.955073595046997,2.904919147491455,-0.3478703796863556
1631118276947,3.971047163009644,3.955073595046997,2.88893461227417,-0.3478703796863556
1631118277019,3.971047163009644,3.955073595046997,2.588731288909912,-0.3478703796863556
1631118277065,3.971047163009644,3.955073595046997,2.6188957691192627,-0.3478703796863556
1631118277135,3.971047163009644,3.955073595046997,2.754772186279297,3.877349615097046
1631118277180,3.971047163009644,3.955073595046997,2.734107255935669,3.877349615097046
1631118277224,3.971047163009644,3.955073595046997,2.707231044769287,3.877349615097046
1631118277256,3.971047163009644,2.904432773590088,2.5137290954589844,3.877349615097046
1631118277324,3.971047163009644,2.904432773590088,2.5137290954589844,3.877349615097046
1631118277371,3.971047163009644,2.904432773590088,2.5137290954589844,3.877349615097046
1631118277407,3.971047163009644,2.904432773590088,2.5137290954589844,3.877349615097046
1631118277459,3.971047163009644,2.904432773590088,2.5137290954589844,3.877349615097046
1631118277496,3.971047163009644,2.904432773590088,2.523109197616577,3.877349615097046
1631118277555,3.971047163009644,2.904432773590088,2.5733115673065186,3.877349615097046
1631118277622,3.971047163009644,2.5554850101470947,2.630433797836304,3.877349615097046
1631118277683,3.971047163009644,2.459916591644287,2.615595579147339,3.877349615097046
1631118277750,3.971047163009644,2.7086663246154785,2.694145917892456,3.877349615097046
1631118277946,3.971047163009644,2.657965421676636,2.737154483795166,3.877349615097046
1631118278075,3.971047163009644,2.6008663177490234,2.737154483795166,3.877349615097046
1631118278107,3.971047163009644,2.586287498474121,2.737154483795166,3.877349615097046
1631118278305,3.971047163009644,2.5946614742279053,2.737154483795166,3.877349615097046
1631118278344,3.971047163009644,2.7418158054351807,2.737154483795166,3.877349615097046
1631118278446,3.971047163009644,2.712401390075684,2.737154483795166,3.877349615097046
1631118278569,3.971047163009644,2.712401390075684,2.737154483795166,3.877349615097046
1631118278684,3.971047163009644,2.671205520629883,2.737154483795166,3.877349615097046
1631118278725,3.971047163009644,2.6408228874206543,2.737154483795166,3.877349615097046
1631118278726,3.971047163009644,2.6408228874206543,2.737154483795166,3.877349615097046
1631118278925,3.971047163009644,2.6408228874206543,2.737154483795166,3.877349615097046
1631118279420,3.971047163009644,2.6408228874206543,2.737154483795166,3.877349615097046
1631118279508,3.971047163009644,2.6421163082122803,2.737154483795166,3.877349615097046
1631118279791,3.971047163009644,2.6533005237579346,2.737154483795166,3.877349615097046
1631118280087,3.971047163009644,2.4589881896972656,2.737154483795166,3.877349615097046
1631118280115,3.971047163009644,2.4473438262939453,2.737154483795166,3.877349615097046
1631118280274,3.971047163009644,2.456267833709717,2.737154483795166,3.877349615097046
1631118280384,3.971047163009644,2.5906832218170166,2.737154483795166,3.877349615097046
1631118280507,3.971047163009644,2.695068597793579,2.737154483795166,3.877349615097046
1631118280539,3.971047163009644,2.469794273376465,2.737154483795166,3.877349615097046
1631118280569,3.971047163009644,2.650218963623047,2.737154483795166,3.877349615097046
1631118280648,3.971047163009644,2.887700080871582,2.737154483795166,3.877349615097046
1631118280665,3.971047163009644,3.285767078399658,2.737154483795166,3.877349615097046
1631118280706,3.971047163009644,3.282911777496338,2.737154483795166,3.877349615097046
1631118280736,3.971047163009644,3.218913555145264,2.737154483795166,3.877349615097046
1631118280739,3.971047163009644,3.2240238189697266,2.737154483795166,3.877349615097046
1631118280740,3.971047163009644,3.2508859634399414,2.737154483795166,3.877349615097046
1631118280834,3.971047163009644,3.2921910285949707,2.737154483795166,3.877349615097046
1631118280865,3.971047163009644,3.445000171661377,2.737154483795166,3.877349615097046
1631118280871,3.971047163009644,3.47493839263916,2.737154483795166,3.877349615097046
1631118281099,3.971047163009644,3.5066988468170166,2.737154483795166,3.877349615097046
1631118281210,3.971047163009644,3.5407872200012207,2.737154483795166,3.877349615097046
1631118281268,3.971047163009644,3.52754807472229,2.737154483795166,3.877349615097046
1631118281350,3.971047163009644,3.518697023391724,2.737154483795166,3.877349615097046
1631118281422,3.971047163009644,3.520286798477173,2.737154483795166,3.877349615097046
1631118281491,3.971047163009644,3.536050796508789,2.737154483795166,3.877349615097046
1631118281901,3.971047163009644,3.5243444442749023,2.737154483795166,3.877349615097046
1631118281932,3.971047163009644,3.334563970565796,2.737154483795166,3.877349615097046
1631118281965,3.971047163009644,3.3857100009918213,2.331221342086792,3.877349615097046
1631118282288,3.971047163009644,3.382481336593628,2.242286443710327,3.877349615097046
1631118282621,3.971047163009644,3.382267713546753,2.1673953533172607,3.877349615097046
1631118282653,3.971047163009644,3.362894058227539,2.195294141769409,3.877349615097046
1631118282675,3.971047163009644,3.335911750793457,2.1397478580474854,3.877349615097046
1631118282737,3.971047163009644,2.781342029571533,2.0887577533721924,3.877349615097046
1631118282754,3.971047163009644,2.828009605407715,2.1319289207458496,3.877349615097046
1631118282768,3.971047163009644,2.782357692718506,2.091222047805786,3.877349615097046
1631118282853,3.971047163009644,2.8121590614318848,2.058466911315918,3.877349615097046
1631118282883,3.971047163009644,2.947319746017456,2.011488199234009,3.877349615097046
1631118283002,3.971047163009644,2.940857172012329,1.976662039756775,3.877349615097046
1631118283020,3.971047163009644,3.290933609008789,1.976662039756775,3.877349615097046
1631118283026,3.971047163009644,3.1664113998413086,1.976662039756775,3.877349615097046
1631118283039,3.971047163009644,3.290933609008789,1.976662039756775,3.877349615097046
1631118283068,3.971047163009644,3.290933609008789,1.8090004920959477,3.877349615097046
1631118283173,3.971047163009644,3.3256707191467285,1.8533871173858645,3.877349615097046
1631118283481,3.971047163009644,3.370640993118286,1.9127275943756104,3.877349615097046
1631118283579,3.971047163009644,3.362034797668457,1.7410897016525269,3.877349615097046
1631118283864,3.971047163009644,3.3089969158172607,1.8281164169311523,3.877349615097046
1631118283904,3.971047163009644,3.308806896209717,1.8281164169311523,3.877349615097046
1631118284085,3.971047163009644,3.324321985244751,1.8281164169311523,3.877349615097046
1631118284165,3.971047163009644,3.365687131881714,1.8281164169311523,3.877349615097046
1631118284170,3.971047163009644,3.3907670974731445,1.8281164169311523,3.877349615097046
1631118284181,3.971047163009644,3.332580804824829,2.917843103408813,3.877349615097046
1631118284218,3.971047163009644,3.340937614440918,2.917843103408813,3.877349615097046
1631118284268,3.971047163009644,3.3422188758850098,2.917843103408813,3.877349615097046
1631118284279,3.971047163009644,3.163285493850708,2.917843103408813,3.877349615097046
1631118284299,3.971047163009644,2.771013736724853,2.917843103408813,3.877349615097046
1631118284475,3.971047163009644,2.725267171859741,2.917843103408813,3.877349615097046
1631118284502,3.971047163009644,2.68595290184021,2.917843103408813,3.877349615097046
1631118284718,3.971047163009644,2.6482090950012207,2.917843103408813,3.877349615097046
1631118284737,3.971047163009644,2.574486017227173,2.917843103408813,3.877349615097046
1631118284923,3.971047163009644,2.5378835201263428,2.917843103408813,3.877349615097046
1631118285202,3.971047163009644,2.537829160690308,2.917843103408813,3.877349615097046
1631118285264,3.971047163009644,2.5391740798950195,2.917843103408813,3.877349615097046
1631118285309,3.971047163009644,2.712735176086426,2.917843103408813,3.877349615097046
1631118285444,2.8683338165283203,2.7011139392852783,2.917843103408813,3.877349615097046
1631118285558,2.7829298973083496,2.6754164695739746,2.917843103408813,3.877349615097046
1631118285620,2.704176425933838,2.677468061447144,2.917843103408813,3.877349615097046
1631118285651,2.637694835662842,2.6561107635498047,2.917843103408813,3.877349615097046
1631118285666,2.606688499450684,2.694699287414551,2.917843103408813,3.877349615097046
1631118285791,2.5563535690307617,2.6096651554107666,2.917843103408813,3.877349615097046
1631118286004,2.5541555881500244,2.612531900405884,1.1939014196395874,3.877349615097046
1631118286104,2.509054660797119,2.6125450134277344,1.1558932065963743,3.877349615097046
1631118286196,2.468191146850586,2.6439361572265625,1.0998587608337402,3.877349615097046
1631118286378,2.4308180809021,2.64394211769104,1.0430887937545776,2.08879017829895
1631118286471,2.396339178085327,2.493084669113159,0.9883663058280944,1.995137333869934
1631118286720,2.364349842071533,2.4775383472442627,0.9387384653091432,1.9454872608184812
1631118286752,2.3397085666656494,2.47745680809021,1.085610032081604,2.433688879013061
1631118286769,2.3870089054107666,2.63193941116333,1.0456597805023191,2.3970754146575928
1631118286788,1.8621615171432493,2.4129958152771,1.010421633720398,2.351525068283081
1631118286864,1.6967219114303589,2.375056028366089,0.979817032814026,2.3328733444213867
1631118287008,1.649757742881775,2.3665966987609863,1.241545557975769,2.374569892883301
1631118287009,1.6529929637908936,2.3541393280029297,1.2342579364776611,2.337416648864746
1631118287119,1.684362530708313,2.3366968631744385,1.2788968086242676,2.326883316040039
1631118287143,1.5784286260604858,2.38787055015564,1.279018521308899,2.326883316040039
1631118287200,1.6055924892425537,2.3879494667053223,1.2765178680419922,2.326883316040039
1631118287516,1.6354314088821411,2.3996059894561768,1.2818557024002075,2.3609719276428223
1631118287674,1.6691138744354248,2.529392004013061,1.4609174728393557,2.33227276802063
1631118287789,1.7071644067764282,2.492527961730957,1.473332166671753,2.3562991619110107
1631118287819,1.7502756118774414,2.4925050735473637,1.4810951948165894,2.35679292678833
1631118287995,1.799614191055298,2.49249005317688,1.4850072860717771,2.4010801315307617
1631118288209,1.8563499450683596,2.5336296558380127,1.592880129814148,2.4407958984375
1631118288370,1.887353539466858,2.533641576766968,1.5520868301391602,2.143182277679444
1631118288370,1.1990125179290771,2.4529833793640137,2.101279258728028,2.162031888961792
1631118288419,1.2152042388916016,2.4518797397613525,2.1015427112579346,2.217763900756836
1631118288553,1.2152042388916016,2.451871633529663,2.1022448539733887,2.2357406616210938
1631118288653,1.2152042388916016,2.4518322944641118,2.068429470062256,2.00715708732605
1631118288893,1.2152042388916016,2.4517581462860107,2.0698533058166504,2.00715708732605
1631118288942,1.2152042388916016,2.5046133995056152,2.0582237243652344,2.00715708732605
1631118289028,1.2152042388916016,2.681488037109375,2.0255441665649414,2.00715708732605
1631118289037,1.2152042388916016,3.1682589054107666,2.068498373031616,2.00715708732605
1631118289139,1.2152042388916016,3.166344165802002,2.050833225250244,2.00715708732605
1631118289217,1.2152042388916016,3.141225814819336,2.0362069606781006,2.00715708732605
1631118289328,1.2152042388916016,3.143263101577759,2.0764360427856445,2.00715708732605
1631118289460,1.2152042388916016,3.1433231830596924,2.0779964923858643,2.00715708732605
1631118289491,1.2152042388916016,3.157371282577514,2.079103708267212,2.00715708732605
1631118289508,1.2152042388916016,3.1474123001098637,2.055032730102539,2.00715708732605
1631118289541,1.2152042388916016,3.334878444671631,2.0689520835876465,2.00715708732605
1631118289716,1.2152042388916016,3.350276470184326,1.6983319520950315,2.00715708732605
1631118289953,1.2152042388916016,3.3824539184570312,1.6991355419158936,2.00715708732605
1631118290072,1.2152042388916016,3.382528781890869,1.699237585067749,2.00715708732605
1631118290078,1.2152042388916016,3.382533311843872,1.7019610404968262,2.00715708732605
1631118290120,1.2152042388916016,3.382533311843872,1.699101448059082,2.00715708732605
1631118290380,1.2152042388916016,3.3598992824554443,1.8413772583007808,2.00715708732605
1631118290620,1.2152042388916016,3.073462724685669,1.7352038621902466,2.00715708732605
1631118290654,1.2152042388916016,3.072253465652466,1.734494924545288,2.00715708732605
1631118290654,1.2152042388916016,3.070316791534424,1.7204809188842771,2.00715708732605
1631118290814,1.2152042388916016,3.0657107830047607,1.638425350189209,2.00715708732605
1631118291122,1.2152042388916016,3.066962242126465,1.6492927074432373,2.00715708732605
1631118291168,1.2152042388916016,3.047065019607544,1.6625434160232544,2.00715708732605
1631118291219,1.2152042388916016,3.061330556869507,1.7754902839660645,2.00715708732605
1631118291233,1.2152042388916016,2.442804336547852,1.7768834829330444,2.00715708732605
1631118291342,1.2152042388916016,2.410764694213867,1.766302227973938,2.00715708732605
1631118291540,1.2152042388916016,2.380913019180298,1.799329161643982,2.00715708732605
1631118291631,1.2152042388916016,2.4153707027435303,1.819256067276001,2.00715708732605
1631118291664,1.2152042388916016,2.455150604248047,1.8582128286361692,2.00715708732605
1631118291670,1.2152042388916016,2.6742846965789795,1.8946715593338013,2.00715708732605
1631118291698,1.2152042388916016,2.6744000911712646,1.9320768117904663,2.00715708732605
1631118291732,1.2152042388916016,2.483839988708496,1.7923437356948853,2.00715708732605
1631118291969,1.2152042388916016,2.644043207168579,1.7670764923095703,2.00715708732605
1631118292008,1.2152042388916016,2.708214521408081,2.288604736328125,2.00715708732605
1631118292008,1.2152042388916016,2.7085297107696533,2.2928779125213623,2.00715708732605
1631118292063,1.2152042388916016,2.707744598388672,2.280400276184082,2.00715708732605
1631118292238,1.2152042388916016,2.7051405906677246,2.2735111713409424,2.00715708732605
1631118292418,1.2152042388916016,2.9329516887664795,2.2669146060943604,2.00715708732605
1631118292520,1.2152042388916016,2.982719659805298,2.588589668273926,2.00715708732605
1631118292620,1.2152042388916016,2.983985662460327,2.548827648162842,2.00715708732605
1631118293030,1.2152042388916016,2.983968496322632,2.507878541946411,2.00715708732605
1631118293060,1.2152042388916016,2.983972787857056,2.4715681076049805,2.00715708732605
1631118293339,1.2152042388916016,2.9781088829040527,2.4736104011535645,2.00715708732605
1631118293359,1.2152042388916016,2.882920980453491,2.442802906036377,2.00715708732605
1631118293359,1.2152042388916016,2.9747908115386963,2.4699387550354004,2.00715708732605
1631118293432,1.2152042388916016,2.8843493461608887,2.416001796722412,2.00715708732605
1631118293511,1.2152042388916016,2.924809217453003,2.387895107269287,2.00715708732605
1631118293606,1.2152042388916016,3.0091843605041504,2.402387380599976,2.00715708732605
1631118293885,1.2152042388916016,3.00796127319336,2.224159479141236,2.00715708732605
1631118294168,1.2152042388916016,3.0401084423065186,2.2198944091796875,2.00715708732605
1631118294471,1.2152042388916016,3.0400781631469727,2.219564437866211,2.00715708732605
1631118294496,1.2152042388916016,3.049800395965576,2.2709693908691406,2.00715708732605
1631118294550,1.2152042388916016,2.8557345867156982,2.306088447570801,2.00715708732605
1631118294721,1.2152042388916016,2.7488327026367188,1.823440790176392,2.00715708732605
1631118294991,1.2152042388916016,2.746229410171509,1.86236834526062,2.00715708732605
1631118295068,1.2152042388916016,3.221653938293457,1.9008362293243408,2.00715708732605
1631118295085,1.2152042388916016,3.4225175380706787,2.4343206882476807,2.00715708732605
1631118295103,1.2152042388916016,3.387771844863892,1.982102632522583,2.00715708732605
1631118295139,3.395857334136963,3.4179298877716064,2.429640531539917,2.00715708732605
1631118295152,3.3195745944976807,3.435706615447998,2.5483667850494385,2.00715708732605
1631118295185,3.2404325008392334,3.4351959228515625,2.544705629348755,2.00715708732605
1631118295238,3.1815402507781982,3.4228975772857666,2.5443813800811768,2.00715708732605
1631118295252,3.197625160217285,3.375571250915528,2.53376579284668,2.00715708732605
1631118295299,3.146653652191162,3.3414669036865234,2.5329573154449463,2.00715708732605
1631118295363,3.1010546684265137,3.309303998947144,2.5524206161499023,2.00715708732605
1631118295476,3.0597593784332275,3.359058618545532,2.552452087402344,2.00715708732605
1631118295570,3.042640447616577,3.379855871200561,2.57446551322937,2.00715708732605
1631118295587,3.0144314765930176,3.423024892807007,2.5719289779663086,2.00715708732605
1631118295763,3.057393789291382,3.451054096221924,2.65309739112854,2.00715708732605
1631118295889,3.0361268520355225,3.454514741897583,2.6470303535461426,2.00715708732605
1631118295977,2.866734027862549,3.2597360610961914,2.6401705741882324,2.00715708732605
1631118296059,2.8070170879364014,3.060121536254883,2.636059522628784,2.00715708732605
1631118296116,2.6889827251434326,3.030489683151245,2.406848192214966,2.00715708732605
1631118296200,2.723701000213623,3.0310957431793213,2.41093373298645,2.00715708732605
1631118296280,2.6894993782043457,2.994228839874268,2.2327959537506104,2.00715708732605
1631118296368,2.692969560623169,3.1708240509033203,2.24111008644104,2.00715708732605
1631118296422,2.6784799098968506,3.203939199447632,2.239349126815796,2.00715708732605
1631118296436,2.532182216644287,3.1760079860687256,2.3870937824249268,2.00715708732605
1631118296662,2.572965145111084,3.1751909255981445,2.3870227336883545,2.00715708732605
1631118296686,2.618187665939331,3.1787753105163574,2.357918262481689,2.00715708732605
1631118296715,2.6182196140289307,3.1066551208496094,2.357646942138672,2.00715708732605
1631118296755,2.591231107711792,3.074168920516968,2.297391653060913,2.00715708732605
1631118296923,2.620274543762207,2.9794957637786865,2.269392490386963,2.00715708732605
1631118297106,1.802995085716248,2.897141933441162,2.039186477661133,2.00715708732605
1631118297353,1.0646663904190063,2.885394096374512,2.0297908782958984,2.00715708732605
1631118297563,1.141662836074829,2.885481595993042,2.037156581878662,2.00715708732605
1631118297902,1.141662836074829,2.8589179515838623,2.0116212368011475,2.00715708732605
1631118297964,1.141662836074829,2.858933448791504,2.042794704437256,2.00715708732605
1631118298076,1.141662836074829,2.856416702270508,2.0436182022094727,2.00715708732605
1631118298211,1.141662836074829,2.866406202316284,2.081126928329468,2.00715708732605
1631118298314,1.141662836074829,2.3817174434661865,2.1058292388916016,2.00715708732605
1631118298603,1.141662836074829,2.041931390762329,2.1512014865875244,2.00715708732605
1631118298735,1.141662836074829,1.9678353071212769,1.4383784532546997,2.00715708732605
1631118299034,1.141662836074829,1.9700820446014404,1.4954204559326172,2.00715708732605
1631118299254,1.141662836074829,2.2491817474365234,1.71116042137146,2.00715708732605
1631118299257,1.141662836074829,1.937841892242432,1.6444472074508667,2.00715708732605
1631118299276,1.141662836074829,2.1864490509033203,1.4950977563858032,2.00715708732605
1631118299284,1.141662836074829,2.2138442993164062,1.5295337438583374,2.00715708732605
1631118299287,1.141662836074829,2.2462189197540283,1.5601496696472168,2.00715708732605
1631118299526,1.141662836074829,2.283794641494751,2.0842864513397217,2.00715708732605
1631118299779,1.141662836074829,2.3245067596435547,2.1433722972869877,2.00715708732605
1631118299827,1.141662836074829,2.364745140075684,2.051254272460937,2.00715708732605
1631118299889,1.141662836074829,2.665334701538086,2.0310330390930176,2.00715708732605
1631118299889,1.141662836074829,2.453303813934326,1.9763587713241575,2.00715708732605
1631118299987,1.141662836074829,2.6893136501312256,2.1663947105407715,2.00715708732605
1631118299999,1.141662836074829,2.745880365371704,2.2291030883789062,2.00715708732605
1631118300057,1.141662836074829,2.811495065689087,2.2291030883789062,2.00715708732605
1631118300071,1.141662836074829,2.8646481037139893,2.2291030883789062,2.00715708732605
1631118300148,1.141662836074829,3.142336130142212,2.2291030883789062,2.00715708732605
1631118300273,1.141662836074829,3.13763427734375,2.2538719177246094,2.00715708732605
1631118300537,1.141662836074829,3.047358751296997,2.224968194961548,2.00715708732605
1631118300788,1.141662836074829,2.971800804138184,2.1998162269592285,2.00715708732605
1631118300874,1.141662836074829,2.971800804138184,2.185886859893799,2.00715708732605
1631118300923,1.141662836074829,2.971800804138184,2.235698938369751,2.00715708732605
1631118300939,1.141662836074829,2.971800804138184,2.2897446155548096,2.00715708732605
1631118301086,1.141662836074829,2.9126906394958496,2.649826765060425,2.00715708732605
1631118301184,1.141662836074829,2.9126906394958496,2.683701276779175,2.00715708732605
1631118301251,1.141662836074829,2.941265344619751,2.7080271244049072,2.00715708732605
1631118301515,1.141662836074829,2.847858428955078,2.695694923400879,2.00715708732605
1631118301985,1.141662836074829,2.847858428955078,2.6740877628326416,2.00715708732605
1631118302028,1.141662836074829,2.7687876224517822,2.643893003463745,2.00715708732605
1631118302190,1.141662836074829,2.674910068511963,2.577827453613281,2.00715708732605
1631118302191,1.141662836074829,2.724886417388916,2.606220245361328,2.00715708732605
1631118302418,1.141662836074829,1.8304979801177976,2.622134208679199,2.00715708732605
1631118302441,1.141662836074829,2.376576662063598,2.6312577724456787,2.00715708732605
1631118302632,1.141662836074829,2.946702241897583,2.6262450218200684,2.00715708732605
1631118302723,1.141662836074829,3.410316705703736,2.621340751647949,2.00715708732605
1631118302757,1.141662836074829,3.410316705703736,2.6282143592834477,2.00715708732605
1631118302988,1.141662836074829,3.410316705703736,2.613194465637207,2.00715708732605
1631118303115,1.141662836074829,3.365741491317749,2.5918660163879395,2.00715708732605
1631118303133,2.8782155513763428,3.371625661849976,2.3527421951293945,2.00715708732605
1631118303224,3.1353108882904053,3.3996331691741943,2.584348678588867,2.00715708732605
1631118303569,3.0567758083343506,3.4945876598358154,2.5603644847869877,2.00715708732605
1631118303585,3.106499671936035,3.4945876598358154,2.63631534576416,2.00715708732605
1631118303653,3.161215782165528,3.4945876598358154,2.627571582794189,2.00715708732605
1631118303669,3.6046109199523926,3.579292297363281,2.9184436798095703,2.00715708732605
1631118303669,3.3476834297180176,3.535969018936157,2.708346366882324,2.00715708732605
1631118303702,3.5918493270874023,3.612267255783081,2.8872382640838623,2.00715708732605
1631118303710,3.60424280166626,3.611036777496338,2.916327714920044,2.00715708732605
1631118303989,3.6661956310272217,3.6345953941345215,2.9657745361328125,2.00715708732605
1631118304100,3.6468985080718994,3.675439834594727,2.978422164916992,2.00715708732605
1631118304123,3.618582010269165,3.560473680496216,2.9879472255706787,2.00715708732605
1631118304171,3.5845749378204346,3.560473680496216,2.9839231967926025,2.00715708732605
1631118304178,3.691236734390259,3.560473680496216,3.0246951580047607,2.00715708732605
1631118304209,3.703135013580322,3.6137502193450928,3.14939284324646,2.00715708732605
1631118304232,3.728003978729248,3.6748085021972656,3.167412519454956,2.00715708732605
1631118304367,3.748113632202149,3.7460665702819824,3.1202640533447266,2.00715708732605
1631118304538,3.821885585784912,3.684480667114258,3.1202380657196045,2.00715708732605
1631118304807,3.812745094299317,3.684480667114258,3.0968034267425537,2.00715708732605
1631118304935,3.806041955947876,3.684480667114258,3.1074764728546143,2.00715708732605
1631118304967,3.729991912841797,3.684480667114258,3.0007200241088867,2.00715708732605
1631118304971,3.7817862033844,3.684480667114258,3.0806541442871094,2.00715708732605
1631118304986,3.830393314361572,3.730781316757202,3.204899311065674,2.00715708732605
1631118305055,3.8299059867858887,3.730781316757202,3.202291250228882,2.00715708732605
1631118305099,3.837334156036377,3.730781316757202,3.147273063659668,2.00715708732605
1631118305134,3.8502252101898193,3.730781316757202,3.138740301132202,2.00715708732605
1631118305167,3.867936134338379,3.730781316757202,3.1360013484954834,2.00715708732605
1631118305242,3.867609977722168,3.730781316757202,3.134559631347656,2.00715708732605
1631118305268,3.8824942111968994,3.730781316757202,3.112220287322998,2.00715708732605
1631118305358,3.914655923843384,3.730781316757202,2.964837074279785,2.00715708732605
1631118305435,3.924776077270508,3.730781316757202,3.1303019523620605,2.00715708732605
1631118305486,3.915204524993897,3.730781316757202,3.215749263763428,2.00715708732605
1631118305547,3.857359170913696,3.730781316757202,3.2189667224884038,2.00715708732605
1631118305623,3.857241630554199,3.476426362991333,3.2184841632843018,2.00715708732605
1631118305722,3.884369611740112,3.751500368118286,3.211049795150757,2.00715708732605
1631118305767,3.88598108291626,3.796478748321533,3.217594861984253,2.00715708732605
1631118305804,3.861537218093872,3.8045403957366943,3.251450777053833,2.00715708732605
1631118305866,3.768779039382935,3.7485387325286874,3.07273006439209,2.00715708732605
1631118305984,3.7687737941741934,3.6974070072174072,3.0727028846740723,2.00715708732605
1631118306019,3.714360475540161,3.700083017349243,3.0726680755615234,2.00715708732605
1631118306225,3.689134359359741,3.659178972244263,3.0991218090057373,2.00715708732605
1631118306529,3.685245275497437,3.605108976364136,3.095759868621826,2.00715708732605
1631118306555,3.7174065113067623,3.6131646633148193,3.101378917694092,2.00715708732605
1631118306562,3.575442314147949,3.634388208389282,3.0921218395233154,2.00715708732605
1631118306707,3.389057874679565,3.634388208389282,3.092108964920044,2.00715708732605
1631118306797,3.2652549743652344,3.634388208389282,2.8779044151306152,2.00715708732605
1631118306987,3.157564163208008,3.634388208389282,2.630419969558716,2.00715708732605
1631118307004,3.153301954269409,3.632966041564941,2.6177690029144287,2.00715708732605
1631118307035,3.190959930419922,3.630506992340088,2.644443988800049,2.00715708732605
1631118307053,2.952162027359009,3.465090274810791,2.6396634578704834,2.00715708732605
1631118307224,2.769821882247925,3.3329081535339355,2.6135082244873047,2.00715708732605
1631118307271,2.306443452835083,3.4882514476776123,2.234647750854492,2.00715708732605
1631118307318,2.362200975418091,3.523622751235962,2.246119737625122,2.00715708732605
1631118307654,2.42793083190918,3.5649898052215576,2.246203184127808,2.00715708732605
1631118308560,2.0627787113189697,3.5021214485168457,2.0085809230804443,2.00715708732605
1631118308569,2.5063822269439697,3.499729633331299,2.246262550354004,2.00715708732605
1631118308672,2.0627787113189697,3.500180721282959,1.996249437332153,2.00715708732605
1631118309018,2.0627787113189697,3.435286045074463,2.05871844291687,2.00715708732605
1631118309098,1.993991732597351,3.3159375190734863,2.064011573791504,2.00715708732605
1631118309114,1.9982776641845703,3.2745540142059326,2.063957691192627,2.00715708732605
1631118309232,2.4107978343963623,3.2761685848236084,1.9326491355896,2.00715708732605
1631118309262,2.7476720809936523,3.2416329383850098,2.0979244709014893,2.00715708732605
1631118309277,2.769594192504883,3.262385368347168,2.097902774810791,2.00715708732605
1631118309325,2.692070245742798,3.3159103393554688,1.9990217685699463,2.00715708732605
1631118309345,2.8443613052368164,3.3506622314453125,2.192115545272827,2.00715708732605
1631118309514,3.0599968433380127,3.3860411643981934,2.1651618480682373,2.00715708732605
1631118309618,3.372091293334961,2.933016538619995,2.148146629333496,2.00715708732605
1631118309643,3.621362447738648,2.933016538619995,2.133801221847534,2.00715708732605
1631118309652,3.77048134803772,2.933016538619995,2.248622179031372,2.00715708732605
1631118309669,3.833965539932251,2.95222806930542,2.6119613647460938,2.00715708732605
1631118309687,3.81982684135437,2.891808032989502,2.6418631076812744,2.00715708732605
1631118309717,3.79361343383789,2.8917596340179443,2.673997402191162,2.00715708732605
1631118309879,3.79361343383789,2.888031005859375,2.639096736907959,2.00715708732605
1631118310104,3.825644016265869,2.93247652053833,2.672205924987793,2.00715708732605
1631118310111,3.8603763580322266,2.983604431152344,2.709972858428955,2.00715708732605
1631118310187,3.891907215118408,2.913646697998047,2.749561548233032,2.00715708732605
1631118310281,3.92557692527771,2.9796979427337646,2.74668025970459,2.00715708732605
1631118310603,3.970569372177124,2.9652414321899414,2.7978196144104004,2.00715708732605
1631118310655,4.021663665771484,2.4383857250213623,2.8547182083129883,2.00715708732605
1631118310684,4.069524765014648,2.4383857250213623,2.842147827148437,2.00715708732605
1631118310699,4.113159656524658,2.4383857250213623,2.9212899208068848,2.00715708732605
1631118310793,4.1195502281188965,2.4383857250213623,3.0107977390289307,2.00715708732605
1631118310825,4.05333423614502,2.4383857250213623,3.0107977390289307,2.00715708732605
1631118310842,4.05333423614502,2.4383857250213623,3.0107977390289307,2.00715708732605
1631118310930,4.05333423614502,2.4383857250213623,3.0107977390289307,2.00715708732605
1631118311207,4.05333423614502,2.4383857250213623,3.0107977390289307,2.00715708732605
1631118311246,4.05333423614502,2.4383857250213623,3.0107977390289307,2.00715708732605
1631118311562,4.05333423614502,2.4383857250213623,3.0107977390289307,2.00715708732605
1631118311577,4.05333423614502,2.4383857250213623,3.0107977390289307,2.00715708732605
1631118311809,4.05333423614502,2.4383857250213623,3.0107977390289307,2.00715708732605
1631118311809,4.05333423614502,2.4383857250213623,3.0107977390289307,2.00715708732605
1631118311819,4.05333423614502,2.4383857250213623,3.0107977390289307,2.00715708732605
1631118312086,4.05333423614502,2.4383857250213623,3.0107977390289307,2.00715708732605
1631118312851,4.05333423614502,2.4383857250213623,3.0107977390289307,2.00715708732605
1631118313012,4.05333423614502,2.4383857250213623,3.0107977390289307,2.00715708732605
1631118313122,4.05333423614502,2.4383857250213623,3.0107977390289307,2.00715708732605
1631118313199,4.05333423614502,2.4383857250213623,3.0107977390289307,2.00715708732605
1631118313221,4.05333423614502,2.4383857250213623,3.0107977390289307,2.00715708732605
1631118313238,4.05333423614502,2.4383857250213623,3.0107977390289307,2.00715708732605
1631118313255,4.05333423614502,2.4383857250213623,3.0107977390289307,2.00715708732605
1631118313255,4.05333423614502,2.4383857250213623,3.0107977390289307,2.00715708732605
1631118313270,4.05333423614502,2.4383857250213623,3.0107977390289307,2.00715708732605
1631118313421,4.05333423614502,2.4383857250213623,3.0107977390289307,2.00715708732605
1631118313619,4.05333423614502,2.4383857250213623,3.0107977390289307,2.00715708732605
1631118313669,4.05333423614502,2.4383857250213623,3.0107977390289307,2.00715708732605
1631118313720,4.05333423614502,2.4383857250213623,3.0107977390289307,2.00715708732605
1631118313783,4.05333423614502,2.4383857250213623,3.0107977390289307,2.00715708732605
1631118313799,4.05333423614502,2.4383857250213623,3.0107977390289307,2.00715708732605
1631118313819,4.05333423614502,2.4383857250213623,3.0107977390289307,2.00715708732605
1631118313819,4.05333423614502,2.4383857250213623,3.0107977390289307,2.00715708732605
1631118313882,4.05333423614502,2.4383857250213623,3.0107977390289307,2.00715708732605
1631118313958,4.05333423614502,2.4383857250213623,3.0107977390289307,2.00715708732605
1631118314018,4.05333423614502,2.4383857250213623,3.0107977390289307,2.00715708732605
1631118314085,4.05333423614502,2.4383857250213623,3.0107977390289307,2.00715708732605
1631118314269,4.05333423614502,2.4383857250213623,3.0107977390289307,2.00715708732605
1631118314340,4.05333423614502,2.4383857250213623,3.0107977390289307,2.00715708732605
1631118314411,4.05333423614502,2.4383857250213623,3.0107977390289307,2.00715708732605
1631118314538,4.05333423614502,2.4383857250213623,3.0107977390289307,2.00715708732605
1631118314588,4.05333423614502,2.4383857250213623,3.0107977390289307,2.00715708732605
1631118314628,4.05333423614502,2.4383857250213623,3.0107977390289307,2.00715708732605
1631118314671,4.05333423614502,2.4383857250213623,3.0107977390289307,2.00715708732605
1631118314725,4.05333423614502,2.4383857250213623,3.0107977390289307,2.00715708732605
1631118314784,4.05333423614502,2.4383857250213623,3.0107977390289307,2.00715708732605
1631118314847,4.05333423614502,2.4383857250213623,3.0107977390289307,2.00715708732605
1631118314896,4.05333423614502,2.4383857250213623,3.0107977390289307,2.00715708732605
1631118314928,4.05333423614502,2.4383857250213623,3.0107977390289307,2.00715708732605
1631118314955,4.05333423614502,2.4383857250213623,3.0107977390289307,2.00715708732605
1631118315031,4.05333423614502,2.4383857250213623,3.0107977390289307,2.00715708732605
1631118315097,4.05333423614502,2.4383857250213623,3.0107977390289307,2.00715708732605
1631118315333,4.05333423614502,2.4383857250213623,3.0107977390289307,2.00715708732605
1631118315351,4.05333423614502,2.4383857250213623,3.0107977390289307,2.00715708732605
1631118315383,4.05333423614502,2.4383857250213623,3.0107977390289307,2.00715708732605
1631118315395,4.05333423614502,2.4383857250213623,3.0107977390289307,2.00715708732605
1631118315418,4.05333423614502,2.4383857250213623,3.0107977390289307,2.00715708732605
1631118315670,4.05333423614502,2.4383857250213623,3.0107977390289307,2.00715708732605
1631118315886,4.05333423614502,2.4383857250213623,3.0107977390289307,2.00715708732605
1631118315906,4.05333423614502,2.4383857250213623,3.0107977390289307,2.00715708732605
1631118315919,4.05333423614502,2.4383857250213623,3.0107977390289307,2.00715708732605
1631118315938,4.05333423614502,2.4383857250213623,3.0107977390289307,2.00715708732605
1631118316030,4.05333423614502,2.4383857250213623,3.0107977390289307,2.00715708732605
1631118316402,4.05333423614502,2.4383857250213623,3.0107977390289307,2.00715708732605
1631118316434,4.05333423614502,2.4383857250213623,3.0107977390289307,2.00715708732605
1631118316480,4.05333423614502,2.4383857250213623,3.0107977390289307,2.00715708732605
1631118316541,4.05333423614502,2.917353391647339,2.924318790435791,2.00715708732605
1631118316560,4.05333423614502,2.8207385540008545,2.827869415283203,2.00715708732605
1631118316868,4.05333423614502,2.741933584213257,2.749068260192871,2.00715708732605
1631118317037,4.05333423614502,2.905042886734009,2.682410717010498,2.00715708732605
1631118317058,4.05333423614502,2.905042886734009,2.682410717010498,2.00715708732605
1631118317061,4.05333423614502,2.905042886734009,2.682410717010498,2.00715708732605
1631118317068,4.05333423614502,2.905042886734009,2.682410717010498,2.00715708732605
1631118317119,4.05333423614502,2.905042886734009,2.7211263179779053,2.00715708732605
1631118317434,4.05333423614502,2.848494529724121,2.6711158752441406,2.00715708732605
1631118317553,4.05333423614502,2.811115264892578,2.679807186126709,2.00715708732605
1631118317679,4.05333423614502,2.7659361362457275,2.634187936782837,2.00715708732605
1631118317710,4.05333423614502,2.7437424659729004,2.592895030975342,2.00715708732605
1631118317873,4.05333423614502,2.7435944080352783,2.555172920227051,2.00715708732605
1631118317986,4.05333423614502,2.463939666748047,1.964277386665344,2.00715708732605
1631118318181,4.05333423614502,2.4998891353607178,2.0123579502105717,2.00715708732605
1631118318341,4.05333423614502,2.54337739944458,1.9985809326171875,2.00715708732605
1631118318743,4.05333423614502,2.5446763038635254,1.9975672960281368,2.00715708732605
1631118318988,2.6290981769561768,2.544289350509644,1.9969242811203003,2.00715708732605
1631118319235,2.5331170558929443,1.7857738733291626,1.9967767000198364,2.00715708732605
1631118319270,2.493478298187256,1.855483055114746,1.9714866876602173,2.00715708732605
1631118319427,2.493478298187256,2.294640064239502,2.090550661087036,2.00715708732605
1631118319537,2.493478298187256,2.2882609367370605,2.0613996982574463,2.00715708732605
1631118319569,2.4289417266845703,2.254033088684082,1.7796696424484253,1.283721923828125
1631118319621,2.3713223934173584,2.251682043075561,1.7754781246185305,1.283721923828125
1631118319638,2.3713223934173584,2.2509422302246094,1.7783310413360596,1.283721923828125
1631118319638,2.3713223934173584,2.2906110286712646,1.7887587547302246,1.283721923828125
1631118319656,2.3713223934173584,2.273366451263428,1.9714329242706297,1.283721923828125
1631118319677,3.287768840789795,2.3231987953186035,2.0025994777679443,1.2074140310287476
1631118319682,3.287893056869507,2.3231987953186035,1.972806930541992,1.2669496536254885
1631118319779,3.271134376525879,2.3231987953186035,2.003414869308472,1.2074140310287476
1631118319780,3.271134376525879,2.3231987953186035,1.9700268507003784,1.2074140310287476
1631118319808,3.271134376525879,2.3784420490264893,2.0304477214813232,2.832944869995117
1631118319888,3.3289787769317627,2.4452927112579346,2.093332052230835,3.4701099395751958
1631118320028,3.329026937484741,2.5243821144104004,2.0938286781311035,3.470275640487671
1631118320151,3.593010187149048,3.179979085922241,2.1172611713409424,3.470275640487671
1631118320247,3.624100685119629,3.1932566165924072,2.242837429046631,3.470275640487671
1631118320347,3.624100685119629,3.1932566165924072,2.24345326423645,3.470275640487671
1631118320739,3.6819584369659424,3.1932566165924072,2.277993440628052,3.5280356407165527
1631118320892,3.6820476055145264,3.1932566165924072,2.280078172683716,3.4555177688598637
1631118321191,3.624112844467163,3.1932566165924072,2.2510697841644287,3.389029264450073
1631118321369,3.5790364742279053,3.1932566165924072,2.2462892532348637,3.389029264450073
1631118321393,3.533696174621582,3.1932566165924072,2.1692397594451904,3.389029264450073
1631118321437,3.313385009765625,3.1932566165924072,2.180197238922119,3.4555811882019043
1631118321455,3.321514368057251,3.1932566165924072,2.234722852706909,3.4555811882019043
1631118321470,3.2985498905181885,3.1932566165924072,2.200040578842163,3.4555811882019043
1631118321487,3.280641555786133,3.1932566165924072,2.353738307952881,3.4555811882019043
1631118321504,3.308688879013061,3.1932566165924072,2.343019485473633,3.4608726501464844
1631118321522,3.427984952926636,3.1932566165924072,2.3493478298187256,2.7803359031677246
1631118321522,3.618584632873535,3.1932566165924072,2.583991050720215,2.7803359031677246
1631118321556,3.693608045578003,3.1932566165924072,2.575448989868164,2.7803359031677246
1631118321621,3.649257659912109,3.1932566165924072,2.4809765815734863,2.7803359031677246
1631118321788,3.649257659912109,3.1932566165924072,2.4995102882385254,2.7803359031677246
1631118321900,3.649257659912109,3.1932566165924072,2.5153181552886963,2.7803359031677246
1631118322016,3.6839559078216553,3.1932566165924072,2.5143425464630127,2.7803359031677246
1631118322123,3.825998067855835,3.1932566165924072,2.6759870052337646,2.7803359031677246
1631118322230,3.929695844650269,3.1932566165924072,2.690540075302124,2.7803359031677246
1631118322342,3.986862897872925,3.1932566165924072,2.68055272102356,2.7803359031677246
1631118322453,4.00779390335083,3.1932566165924072,2.711665630340576,2.7803359031677246
1631118322660,4.011591911315918,3.1932566165924072,2.689699649810791,2.7803359031677246
1631118322683,4.011840343475342,3.1932566165924072,2.694291830062866,2.7803359031677246
1631118322776,4.009042739868164,3.0393083095550537,2.624591588973999,2.7803359031677246
1631118322778,3.99765419960022,3.104773998260498,2.641563892364502,2.7803359031677246
1631118322869,3.9580636024475098,3.0390305519104004,2.6249678134918213,2.7803359031677246
1631118323038,3.873919725418091,2.9722940921783447,2.4347541332244877,2.7803359031677246
1631118323070,3.750634670257568,2.9577910900115967,2.4353582859039307,2.7803359031677246
1631118323086,3.788354635238648,3.092198848724365,2.4376509189605717,2.7803359031677246
1631118323105,3.788354635238648,3.1076700687408447,2.417072296142578,2.7803359031677246
1631118323125,3.7505931854248047,3.0082027912139893,2.3591504096984863,2.7803359031677246
1631118323240,3.7505931854248047,3.0082027912139893,2.3889331817626958,2.7803359031677246
1631118323366,3.613208770751953,3.0082027912139893,1.9701138734817505,2.7803359031677246
1631118323415,3.361548662185669,2.950239896774292,1.9073015451431277,2.7803359031677246
1631118323462,2.980170488357544,2.899168968200684,1.9447661638259888,2.7803359031677246
1631118323520,2.543473482131958,2.853584289550781,1.5889825820922852,2.7803359031677246
1631118323671,2.273310422897339,2.853584289550781,1.6192255020141602,2.7803359031677246
1631118323675,2.3158857822418213,2.894937753677368,1.5683372020721436,2.7803359031677246
1631118323716,2.268887758255005,2.9264931678771973,1.6254335641860962,2.7803359031677246
1631118323922,2.220076084136963,2.833336114883423,0.8475936651229858,2.7803359031677246
1631118324043,2.220076084136963,2.881677389144897,0.9204074144363404,2.7803359031677246
1631118324137,2.220076084136963,2.881507158279419,0.98944753408432,2.7803359031677246
1631118324286,2.220076084136963,2.810379266738892,0.98944753408432,2.7803359031677246
1631118324457,2.220076084136963,0.2587428092956543,0.98944753408432,2.7803359031677246
1631118324567,2.220076084136963,0.3467904031276703,0.98944753408432,2.7803359031677246
1631118324687,2.220076084136963,0.4386111497879028,0.98944753408432,2.7803359031677246
1631118324710,2.220076084136963,0.5075695514678955,0.98944753408432,2.7803359031677246
1631118324767,2.220076084136963,0.5368021726608276,0.98944753408432,2.7803359031677246
1631118324785,2.220076084136963,0.575828492641449,0.98944753408432,2.7803359031677246
1631118324798,2.220076084136963,0.6031683087348938,0.98944753408432,2.7803359031677246
1631118325049,2.220076084136963,0.6260976195335388,0.98944753408432,2.7803359031677246
1631118325217,2.220076084136963,0.6379647254943848,0.98944753408432,2.7803359031677246
1631118325400,2.220076084136963,0.6331996321678162,0.98944753408432,2.7803359031677246
1631118325408,2.220076084136963,0.6425911784172058,0.98944753408432,2.7803359031677246
1631118325643,2.220076084136963,0.6123524308204651,0.98944753408432,2.7803359031677246
1631118325984,2.220076084136963,0.5865142941474915,0.98944753408432,2.7803359031677246
1631118326186,2.220076084136963,1.1144437789916992,0.98944753408432,2.7803359031677246
1631118326199,2.220076084136963,1.2948265075683594,0.98944753408432,2.7803359031677246
1631118326293,2.220076084136963,1.2905138731002808,0.98944753408432,2.7803359031677246
1631118326420,2.220076084136963,1.284242868423462,0.98944753408432,2.7803359031677246
1631118326499,2.220076084136963,2.04448676109314,1.5769789218902588,2.7803359031677246
1631118326524,2.220076084136963,1.3715806007385254,1.5807398557662964,2.7803359031677246
1631118326580,2.220076084136963,2.073021173477173,1.5769789218902588,2.7803359031677246
1631118326785,2.220076084136963,2.104231119155884,1.5769789218902588,2.7803359031677246
1631118326836,2.220076084136963,2.1687159538269043,1.5769789218902588,2.7803359031677246
1631118326900,2.220076084136963,2.167755365371704,1.5769789218902588,2.7803359031677246
1631118326929,2.220076084136963,2.2237253189086914,1.5769789218902588,2.7803359031677246
1631118327070,2.220076084136963,2.223051071166992,1.5769789218902588,2.7803359031677246
1631118327185,2.220076084136963,2.22278094291687,1.5769789218902588,2.7803359031677246
1631118327304,2.220076084136963,2.222862720489502,1.5769789218902588,2.7803359031677246
1631118327471,2.220076084136963,2.2575154304504395,1.5769789218902588,2.7803359031677246
1631118327471,2.220076084136963,2.2666289806365967,1.5769789218902588,2.7803359031677246
1631118327510,2.220076084136963,2.28560733795166,1.3343349695205688,2.7803359031677246
1631118327789,2.220076084136963,2.2872159481048584,1.3343349695205688,2.7803359031677246
1631118327959,2.220076084136963,2.3163704872131348,1.3343349695205688,2.7803359031677246
1631118327985,2.220076084136963,2.302686929702759,1.3343349695205688,2.7803359031677246
1631118328023,2.220076084136963,1.842767596244812,1.3343349695205688,2.7803359031677246
1631118328036,2.220076084136963,1.9731966257095337,1.3343349695205688,2.7803359031677246
1631118328201,2.220076084136963,1.9361047744750977,1.3343349695205688,2.7803359031677246
1631118328436,2.220076084136963,1.8065139055252075,1.3343349695205688,2.7803359031677246
1631118328499,2.220076084136963,2.1976943016052246,1.3343349695205688,2.7803359031677246
1631118328499,2.220076084136963,2.077016830444336,1.3343349695205688,2.7803359031677246
1631118328538,2.220076084136963,2.1978445053100586,1.3343349695205688,2.7803359031677246
1631118328753,2.220076084136963,2.197934150695801,1.3343349695205688,2.7803359031677246
1631118328908,2.220076084136963,2.163379907608032,1.3343349695205688,2.7803359031677246
1631118328929,2.220076084136963,2.197909355163574,1.3343349695205688,2.7803359031677246
1631118328938,2.220076084136963,2.248411178588867,1.3343349695205688,2.7803359031677246
1631118328986,2.220076084136963,2.2480080127716064,1.3343349695205688,2.7803359031677246
1631118329109,2.220076084136963,2.247065782546997,1.3343349695205688,2.7803359031677246
1631118329342,2.220076084136963,2.2505269050598145,1.3343349695205688,2.7803359031677246
1631118329357,2.220076084136963,2.7033562660217285,1.3343349695205688,2.7803359031677246
1631118329517,2.220076084136963,2.7135260105133057,1.3343349695205688,2.7803359031677246
1631118329654,2.220076084136963,2.6942708492279053,1.3343349695205688,2.7803359031677246
1631118329819,2.220076084136963,2.694296360015869,1.3343349695205688,2.7803359031677246
1631118330032,2.220076084136963,2.6835882663726807,1.7008657455444336,2.7803359031677246
1631118330032,2.220076084136963,2.69439697265625,1.3343349695205688,2.7803359031677246
1631118330140,2.220076084136963,2.6662886142730717,1.7008657455444336,2.7803359031677246
1631118330148,2.220076084136963,2.7008936405181885,1.7008657455444336,2.7803359031677246
1631118330176,2.220076084136963,2.73852276802063,1.7008657455444336,2.7803359031677246
1631118330256,2.220076084136963,2.779787302017212,1.7969571352005005,2.7803359031677246
1631118330335,2.220076084136963,2.8254716396331787,1.7969571352005005,2.7803359031677246
1631118330366,2.220076084136963,2.8321003913879395,1.7969571352005005,2.7803359031677246
1631118330398,2.220076084136963,2.825775146484375,1.7969571352005005,2.7803359031677246
1631118330421,2.220076084136963,2.8265938758850098,1.7969571352005005,2.7803359031677246
1631118330562,2.220076084136963,2.814860820770264,1.7670084238052368,2.7803359031677246
1631118330705,2.220076084136963,1.6483012437820437,1.7670084238052368,2.7803359031677246
1631118330952,2.220076084136963,1.3272643089294434,1.7670084238052368,2.7803359031677246
1631118331335,2.220076084136963,1.4010820388793943,1.7670084238052368,2.7803359031677246
1631118331368,2.220076084136963,1.516113042831421,1.7670084238052368,2.7803359031677246
1631118331466,2.220076084136963,1.5160292387008667,1.7670084238052368,2.7803359031677246
1631118331688,2.220076084136963,1.5160292387008667,1.7670084238052368,2.7803359031677246
1631118331705,2.220076084136963,1.5160292387008667,1.7670084238052368,2.7803359031677246
1631118331749,2.220076084136963,1.5160292387008667,1.7670084238052368,2.7803359031677246
1631118331844,2.220076084136963,1.5488795042037964,1.7670084238052368,2.7803359031677246
1631118331893,2.220076084136963,2.2985734939575195,1.7670084238052368,2.7803359031677246
1631118331893,2.220076084136963,2.2985734939575195,1.7670084238052368,2.7803359031677246
1631118332088,2.220076084136963,2.2985734939575195,1.7670084238052368,2.7803359031677246
1631118332204,2.220076084136963,2.334444284439087,1.7670084238052368,2.7803359031677246
1631118332250,2.220076084136963,2.3316123485565186,1.7670084238052368,2.7803359031677246
1631118332384,2.220076084136963,2.327887773513794,1.7670084238052368,2.7803359031677246
1631118332470,2.220076084136963,2.327887773513794,1.565979242324829,2.7803359031677246
1631118332603,2.220076084136963,2.327887773513794,1.565979242324829,2.7803359031677246
1631118332653,2.220076084136963,2.327887773513794,1.565979242324829,2.7803359031677246
1631118332687,2.220076084136963,2.3931455612182617,1.565979242324829,2.7803359031677246
1631118332732,2.220076084136963,2.489078521728516,1.565979242324829,2.7803359031677246
1631118333004,2.220076084136963,2.489078521728516,1.565979242324829,2.7803359031677246
1631118333146,2.220076084136963,2.392824649810791,1.565979242324829,2.7803359031677246
1631118333173,2.220076084136963,2.31390380859375,1.565979242324829,2.7803359031677246
1631118333279,2.220076084136963,2.296742677688598,1.565979242324829,2.7803359031677246
1631118333535,2.220076084136963,0.1780638843774795,1.303514003753662,2.7803359031677246
1631118333658,2.220076084136963,1.4025967121124268,1.4596505165100098,2.7803359031677246
1631118333682,2.220076084136963,2.163159132003784,1.3941415548324585,2.7803359031677246
1631118333717,2.220076084136963,2.1685023307800293,1.6964478492736816,2.7803359031677246
1631118333749,2.220076084136963,2.2156968116760254,1.7618987560272217,2.7803359031677246
1631118333959,2.220076084136963,2.215659618377685,1.8388054370880127,2.7803359031677246
1631118334122,2.220076084136963,2.170598268508911,1.836669683456421,2.7803359031677246
1631118334202,2.220076084136963,2.197162628173828,1.836669683456421,2.7803359031677246
1631118334294,2.220076084136963,2.648056983947754,1.836669683456421,2.7803359031677246
1631118334353,2.220076084136963,2.6192800998687744,1.836669683456421,2.7803359031677246
1631118334529,2.220076084136963,2.5871565341949463,1.836669683456421,2.7803359031677246
1631118334771,2.220076084136963,2.6064693927764893,1.836669683456421,2.7803359031677246
1631118334788,2.220076084136963,2.606384515762329,1.836669683456421,2.7803359031677246
1631118335072,2.220076084136963,2.608037233352661,1.7870588302612305,2.7803359031677246
1631118335136,2.220076084136963,2.6913866996765137,1.906694293022156,2.7803359031677246
1631118335247,2.220076084136963,2.691466808319092,1.9363380670547483,2.7803359031677246
1631118335294,2.220076084136963,2.681602478027344,1.917901396751404,2.7803359031677246
1631118335655,2.220076084136963,2.6883816719055176,1.9930342435836792,2.7803359031677246
1631118335655,2.220076084136963,2.7722768783569336,1.864458918571472,2.7803359031677246
1631118335678,2.220076084136963,2.794562816619873,1.864458918571472,2.7803359031677246
1631118335689,2.220076084136963,2.826646327972412,1.864458918571472,2.7803359031677246
1631118335705,2.220076084136963,2.861290216445923,1.864458918571472,2.7803359031677246
1631118335751,2.220076084136963,2.8633148670196533,1.864458918571472,2.7803359031677246
1631118335752,2.220076084136963,2.886399269104004,1.864458918571472,2.7803359031677246
1631118335914,2.220076084136963,2.859757661819458,1.864458918571472,2.7803359031677246
1631118335944,2.220076084136963,2.8630285263061523,1.864458918571472,2.7803359031677246
1631118335991,2.220076084136963,2.8299591541290283,1.864458918571472,2.7803359031677246
1631118336014,2.220076084136963,2.871312141418457,1.864458918571472,2.7803359031677246
1631118336035,2.220076084136963,2.9156744480133057,1.864458918571472,2.7803359031677246
1631118336190,2.220076084136963,2.88396430015564,1.864458918571472,2.7803359031677246
1631118336484,2.220076084136963,3.008601427078247,1.864458918571472,2.7803359031677246
1631118336904,2.220076084136963,3.001625061035156,1.864458918571472,2.7803359031677246
1631118337153,2.220076084136963,2.9160850048065186,1.864458918571472,2.7803359031677246
1631118337382,2.220076084136963,2.9160850048065186,1.864458918571472,2.7803359031677246
1631118337509,2.220076084136963,2.9160850048065186,1.864458918571472,2.7803359031677246
1631118337817,2.220076084136963,2.9160850048065186,1.864458918571472,2.7803359031677246
1631118337839,2.220076084136963,2.9160850048065186,1.864458918571472,2.7803359031677246
1631118337864,2.220076084136963,2.9160850048065186,1.864458918571472,2.7803359031677246
1631118338062,2.220076084136963,2.9160850048065186,1.864458918571472,2.7803359031677246
1631118338062,2.220076084136963,2.9160850048065186,1.864458918571472,2.7803359031677246
1631118338146,2.220076084136963,2.9160850048065186,1.864458918571472,2.7803359031677246
1631118338171,2.220076084136963,2.9160850048065186,1.864458918571472,2.7803359031677246
1631118338291,2.220076084136963,2.9160850048065186,1.864458918571472,2.7803359031677246
1631118338298,2.220076084136963,2.9160850048065186,1.864458918571472,2.7803359031677246
1631118338406,2.220076084136963,2.9160850048065186,1.864458918571472,2.7803359031677246
1631118338420,2.220076084136963,2.9160850048065186,1.864458918571472,2.7803359031677246
1631118338444,2.220076084136963,2.9160850048065186,1.864458918571472,2.7803359031677246
1631118338474,2.220076084136963,2.9160850048065186,1.864458918571472,2.7803359031677246
1631118338482,2.220076084136963,2.9160850048065186,1.864458918571472,2.7803359031677246
1631118338582,2.220076084136963,2.9160850048065186,1.864458918571472,2.7803359031677246
1631118338709,2.220076084136963,2.9160850048065186,1.864458918571472,2.7803359031677246
1631118338811,2.220076084136963,2.9160850048065186,1.864458918571472,2.7803359031677246
1631118338866,2.220076084136963,2.9160850048065186,1.864458918571472,2.7803359031677246
1631118338977,2.220076084136963,2.9160850048065186,1.864458918571472,2.7803359031677246
1631118339057,2.220076084136963,2.9160850048065186,1.864458918571472,2.7803359031677246
1631118339123,2.220076084136963,2.9160850048065186,1.864458918571472,2.7803359031677246
1631118339181,2.220076084136963,2.9160850048065186,1.864458918571472,2.7803359031677246
1631118339470,2.220076084136963,2.9160850048065186,1.864458918571472,2.7803359031677246
1631118339747,2.220076084136963,2.9160850048065186,1.864458918571472,2.7803359031677246
1631118339814,2.220076084136963,2.9160850048065186,1.864458918571472,2.7803359031677246
1631118339952,2.220076084136963,2.9160850048065186,1.864458918571472,2.7803359031677246
1631118339952,2.220076084136963,2.9160850048065186,1.864458918571472,2.7803359031677246
1631118339981,2.220076084136963,2.9160850048065186,1.864458918571472,2.7803359031677246
1631118340050,2.220076084136963,2.9160850048065186,1.864458918571472,2.7803359031677246
1631118340357,2.220076084136963,2.9160850048065186,1.864458918571472,2.7803359031677246
1631118340388,2.220076084136963,2.9160850048065186,1.864458918571472,2.7803359031677246
1631118340403,2.220076084136963,2.9160850048065186,1.864458918571472,2.7803359031677246
1631118340447,2.220076084136963,2.9160850048065186,1.864458918571472,2.7803359031677246
1631118340571,2.220076084136963,2.9160850048065186,1.864458918571472,2.7803359031677246
1631118340589,2.220076084136963,2.9160850048065186,1.864458918571472,2.7803359031677246
1631118340650,2.220076084136963,2.9160850048065186,1.864458918571472,2.7803359031677246
1631118340654,2.220076084136963,2.9160850048065186,1.864458918571472,2.7803359031677246
1631118340929,2.220076084136963,2.9160850048065186,1.864458918571472,2.7803359031677246
1631118340955,2.220076084136963,2.9160850048065186,1.864458918571472,2.7803359031677246
1631118340966,2.220076084136963,2.9160850048065186,1.864458918571472,2.7803359031677246
1631118341074,2.220076084136963,2.9160850048065186,1.864458918571472,2.7803359031677246
1631118341256,2.220076084136963,2.9160850048065186,1.864458918571472,2.7803359031677246
1631118341286,2.220076084136963,2.9160850048065186,1.864458918571472,2.7803359031677246
1631118341720,2.220076084136963,2.9160850048065186,1.864458918571472,2.7803359031677246
1631118341806,2.220076084136963,2.9160850048065186,1.864458918571472,2.7803359031677246
1631118341896,2.220076084136963,1.5869978666305542,1.864458918571472,2.7803359031677246
1631118342023,2.220076084136963,1.745763897895813,1.864458918571472,2.7803359031677246
1631118342063,2.220076084136963,1.6685433387756348,1.864458918571472,2.7803359031677246
1631118342071,2.220076084136963,1.6685433387756348,1.864458918571472,2.7803359031677246
1631118342137,2.220076084136963,1.6685433387756348,1.864458918571472,2.7803359031677246
1631118342355,2.220076084136963,1.6685433387756348,1.864458918571472,2.7803359031677246
1631118342388,2.220076084136963,1.6434907913208008,1.864458918571472,2.7803359031677246
1631118342400,2.220076084136963,1.7004706859588623,1.864458918571472,2.7803359031677246
1631118342428,2.220076084136963,1.684417724609375,1.864458918571472,2.7803359031677246
1631118342614,2.220076084136963,1.684417724609375,1.864458918571472,2.7803359031677246
1631118342624,2.220076084136963,1.684417724609375,1.864458918571472,2.7803359031677246
1631118342681,2.220076084136963,1.684417724609375,1.864458918571472,2.7803359031677246
1631118342853,2.220076084136963,1.684417724609375,1.864458918571472,2.7803359031677246
1631118343487,2.220076084136963,1.684417724609375,1.864458918571472,2.7803359031677246
1631118343567,2.220076084136963,1.6695469617843628,1.864458918571472,2.7803359031677246
1631118343694,2.220076084136963,1.6695469617843628,1.864458918571472,2.7803359031677246
1631118343694,2.220076084136963,1.6695469617843628,1.864458918571472,2.7803359031677246
1631118343787,2.220076084136963,1.6695469617843628,1.864458918571472,2.7803359031677246
1631118343885,2.220076084136963,1.6695469617843628,1.864458918571472,2.7803359031677246
1631118344069,2.220076084136963,1.6695469617843628,1.864458918571472,2.7803359031677246
1631118344127,2.220076084136963,1.6695469617843628,1.864458918571472,2.7803359031677246
1631118344128,2.220076084136963,1.6695469617843628,1.864458918571472,2.7803359031677246
1631118344158,2.220076084136963,1.6695469617843628,1.864458918571472,2.7803359031677246
1631118344262,2.220076084136963,1.6695469617843628,1.864458918571472,2.7803359031677246
1631118344274,2.220076084136963,1.6695469617843628,1.864458918571472,2.7803359031677246
1631118344276,2.220076084136963,1.6695469617843628,1.864458918571472,2.7803359031677246
1631118344496,2.220076084136963,1.6695469617843628,1.864458918571472,2.7803359031677246
1631118344592,2.220076084136963,1.6695469617843628,1.864458918571472,2.7803359031677246
1631118345002,2.220076084136963,1.6695469617843628,1.864458918571472,2.7803359031677246
1631118345234,2.220076084136963,1.6695469617843628,1.864458918571472,2.7803359031677246
1631118345331,2.220076084136963,1.6695469617843628,1.864458918571472,2.7803359031677246
1631118345379,2.220076084136963,1.6695469617843628,1.864458918571472,2.7803359031677246
1631118345721,2.220076084136963,1.6695469617843628,1.864458918571472,2.7803359031677246
1631118345737,2.220076084136963,1.6695469617843628,1.864458918571472,2.7803359031677246
1631118345739,2.220076084136963,1.6695469617843628,1.864458918571472,2.7803359031677246
1631118345746,2.220076084136963,1.6695469617843628,1.864458918571472,2.7803359031677246
1631118345758,2.220076084136963,1.6695469617843628,1.864458918571472,2.7803359031677246
1631118345788,2.220076084136963,1.6695469617843628,1.864458918571472,2.7803359031677246
1631118345801,2.220076084136963,1.6695469617843628,1.864458918571472,2.7803359031677246
1631118345818,2.220076084136963,1.6695469617843628,1.864458918571472,2.7803359031677246
1631118345821,2.220076084136963,1.6695469617843628,1.864458918571472,2.7803359031677246
1631118345821,2.220076084136963,1.6695469617843628,1.864458918571472,2.7803359031677246
1631118345821,2.220076084136963,1.6695469617843628,1.864458918571472,2.7803359031677246
1631118346037,2.220076084136963,1.6695469617843628,1.864458918571472,2.7803359031677246
1631118346166,2.220076084136963,1.6695469617843628,1.864458918571472,2.7803359031677246
1631118346269,2.220076084136963,3.387367010116577,1.864458918571472,2.7803359031677246
1631118346399,2.220076084136963,3.2905704975128174,1.864458918571472,2.7803359031677246
1631118346689,2.220076084136963,3.2905704975128174,1.864458918571472,2.7803359031677246
1631118346768,2.220076084136963,3.2905704975128174,1.864458918571472,2.7803359031677246
1631118347015,2.220076084136963,3.2905704975128174,1.864458918571472,2.7803359031677246
1631118347295,2.220076084136963,3.2905704975128174,1.864458918571472,2.7803359031677246
1631118347347,2.220076084136963,3.2194948196411133,1.864458918571472,2.7803359031677246
1631118347349,2.220076084136963,3.2194948196411133,1.864458918571472,2.7803359031677246
1631118347393,2.220076084136963,3.225449085235596,1.864458918571472,2.7803359031677246
1631118347396,2.220076084136963,3.225449085235596,1.864458918571472,2.7803359031677246
1631118347444,2.220076084136963,3.225449085235596,1.864458918571472,2.7803359031677246
1631118347459,2.220076084136963,3.225449085235596,1.864458918571472,2.7803359031677246
1631118347930,2.220076084136963,3.225449085235596,1.864458918571472,2.7803359031677246
1631118347960,2.220076084136963,2.70625901222229,1.864458918571472,2.7803359031677246
1631118347977,2.220076084136963,2.230640172958374,1.864458918571472,2.7803359031677246
1631118348001,2.220076084136963,2.8615410327911377,1.864458918571472,2.7803359031677246
1631118348252,2.220076084136963,2.8615410327911377,1.864458918571472,2.7803359031677246
1631118348331,2.220076084136963,2.8615410327911377,1.864458918571472,2.7803359031677246
1631118348362,2.220076084136963,2.8615410327911377,1.864458918571472,2.7803359031677246
1631118348477,2.220076084136963,2.8615410327911377,1.864458918571472,2.7803359031677246
1631118348521,2.220076084136963,2.8615410327911377,1.864458918571472,2.7803359031677246
1631118348569,2.220076084136963,2.8615410327911377,1.864458918571472,2.7803359031677246
1631118348571,2.220076084136963,2.8615410327911377,1.864458918571472,2.7803359031677246
1631118348574,2.220076084136963,2.8615410327911377,1.864458918571472,2.7803359031677246
1631118348585,2.220076084136963,2.8615410327911377,1.864458918571472,2.7803359031677246
1631118348776,2.220076084136963,2.8615410327911377,1.864458918571472,2.7803359031677246
1631118348889,2.220076084136963,2.8615410327911377,1.864458918571472,2.7803359031677246
1631118348908,2.220076084136963,3.1663460731506348,1.864458918571472,2.7803359031677246
1631118349017,2.220076084136963,3.0701780319213867,1.864458918571472,2.7803359031677246
1631118349206,2.220076084136963,3.0465567111968994,1.864458918571472,2.7803359031677246
1631118349620,2.220076084136963,2.8971056938171387,1.864458918571472,2.7803359031677246
1631118349924,2.220076084136963,2.8971056938171387,1.864458918571472,2.7803359031677246
1631118349926,2.220076084136963,2.8971056938171387,1.864458918571472,2.7803359031677246
1631118350134,2.220076084136963,2.8971056938171387,1.864458918571472,2.7803359031677246
1631118350248,2.220076084136963,2.800450086593628,1.864458918571472,2.7803359031677246
1631118350618,2.220076084136963,2.721562147140503,1.864458918571472,2.7803359031677246
1631118350920,2.220076084136963,2.727145195007324,1.864458918571472,2.7803359031677246
1631118350982,2.220076084136963,2.7518115043640137,1.864458918571472,2.7803359031677246
1631118351029,2.220076084136963,2.9865477085113525,1.864458918571472,2.7803359031677246
1631118351070,2.220076084136963,2.9865477085113525,1.864458918571472,2.7803359031677246
1631118351162,2.220076084136963,2.9865477085113525,1.864458918571472,2.7803359031677246
1631118351384,2.220076084136963,3.021974563598633,1.864458918571472,2.7803359031677246
1631118351386,2.220076084136963,2.901553153991699,1.864458918571472,2.7803359031677246
1631118351404,2.220076084136963,2.9677183628082275,1.864458918571472,2.7803359031677246
1631118351404,2.220076084136963,3.0468297004699707,1.864458918571472,2.7803359031677246
1631118351436,2.220076084136963,3.0468297004699707,1.864458918571472,2.7803359031677246
1631118351501,2.220076084136963,3.0468297004699707,1.864458918571472,2.7803359031677246
1631118351604,2.220076084136963,3.0468297004699707,1.864458918571472,2.7803359031677246
1631118351637,2.220076084136963,3.0468297004699707,1.864458918571472,2.7803359031677246
1631118351829,2.220076084136963,3.1435954570770264,1.864458918571472,2.7803359031677246
1631118351847,2.220076084136963,3.1435954570770264,1.864458918571472,2.7803359031677246
1631118352123,2.220076084136963,3.1435954570770264,1.864458918571472,2.7803359031677246
1631118352124,2.220076084136963,3.1435954570770264,1.864458918571472,2.7803359031677246
1631118352199,2.220076084136963,3.1435954570770264,1.864458918571472,2.7803359031677246
1631118352248,2.220076084136963,3.1435954570770264,1.864458918571472,2.7803359031677246
1631118352481,2.220076084136963,3.1435954570770264,1.864458918571472,2.7803359031677246
1631118352509,2.220076084136963,3.1435954570770264,1.864458918571472,2.7803359031677246
1631118352512,2.220076084136963,3.1435954570770264,1.864458918571472,2.7803359031677246
1631118352818,2.220076084136963,3.1435954570770264,1.864458918571472,2.7803359031677246
1631118353102,2.220076084136963,3.1435954570770264,1.864458918571472,2.7803359031677246
1631118353271,2.220076084136963,3.1435954570770264,1.864458918571472,2.7803359031677246
1631118353348,2.220076084136963,3.270991563796997,1.864458918571472,2.7803359031677246
1631118353380,2.220076084136963,3.4301154613494877,1.864458918571472,2.7803359031677246
1631118353398,2.220076084136963,3.4301154613494877,1.864458918571472,2.7803359031677246
1631118353402,2.220076084136963,3.4301154613494877,1.864458918571472,2.7803359031677246
1631118353452,2.220076084136963,3.4301154613494877,1.864458918571472,2.7803359031677246
1631118353557,2.220076084136963,3.3666868209838867,1.864458918571472,2.7803359031677246
1631118353601,2.220076084136963,3.3007185459136963,1.864458918571472,2.7803359031677246
1631118353618,2.220076084136963,3.272766351699829,2.227825164794922,2.7803359031677246
1631118353802,2.220076084136963,3.2063639163970947,2.132357358932495,2.7803359031677246
1631118353896,2.220076084136963,3.258505582809448,2.445744514465332,2.7803359031677246
1631118353942,2.220076084136963,3.258505582809448,2.371591329574585,2.7803359031677246
1631118354039,2.220076084136963,3.258505582809448,2.371591329574585,2.7803359031677246
1631118354061,2.220076084136963,3.258505582809448,2.371591329574585,2.7803359031677246
1631118354082,2.220076084136963,3.233981132507324,2.2204902172088623,2.7803359031677246
1631118354181,2.220076084136963,3.305250644683838,2.3113279342651367,2.7803359031677246
1631118354251,2.220076084136963,3.388730525970459,2.3113279342651367,2.7803359031677246
1631118354348,2.220076084136963,3.275232076644897,2.3113279342651367,2.7803359031677246
1631118354415,2.220076084136963,3.2384698390960693,2.3113279342651367,2.7803359031677246
1631118354470,2.220076084136963,3.3826241493225098,2.286346912384033,2.7803359031677246
1631118354703,2.220076084136963,3.37985634803772,2.224576950073242,2.7803359031677246
1631118354954,2.220076084136963,3.3758349418640137,2.2503161430358887,2.7803359031677246
1631118355024,2.220076084136963,3.3831701278686523,2.227644681930542,2.7803359031677246
1631118355040,2.220076084136963,3.416586399078369,2.2134506702423096,2.7803359031677246
1631118355119,3.177565813064575,3.4885971546173096,2.9113922119140625,2.7803359031677246
1631118355471,3.15552830696106,3.465041399002075,2.9359688758850098,2.7803359031677246
1631118355487,3.15552830696106,3.432173252105713,2.9379031658172607,2.7803359031677246
1631118355501,3.15552830696106,3.400871992111206,2.8913395404815674,2.7803359031677246
1631118355665,3.0768842697143555,3.37105393409729,2.8463375568389893,2.7803359031677246
1631118355665,3.0768842697143555,3.3665595054626465,2.805528163909912,2.7803359031677246
1631118355710,3.0768842697143555,3.390340566635132,2.767768383026123,2.7803359031677246
1631118355710,3.0768842697143555,3.305655002593994,2.7330360412597656,2.7803359031677246
1631118355855,3.0768842697143555,3.314305067062378,2.720029830932617,2.7803359031677246
1631118355887,3.1426799297332764,3.3636434078216557,2.713078260421753,3.131398916244507
1631118355904,3.084784030914306,3.2181854248046875,2.704817771911621,3.035623073577881
1631118355997,3.040131092071533,3.183038711547852,2.7026312351226807,2.9664621353149414
1631118356028,3.0978200435638428,3.249329090118408,2.699918746948242,2.9664621353149414
1631118356029,3.307978630065918,3.4207546710968018,2.6979238986968994,2.9664621353149414
1631118356141,3.451655864715576,3.4139294624328613,2.697932720184326,2.9664621353149414
1631118356237,3.390707492828369,3.372198820114136,2.2257115840911865,2.9664621353149414
1631118356331,3.372509717941284,3.356135845184326,1.9662684202194212,2.9664621353149414
1631118356462,3.372509717941284,3.353473663330078,1.952234148979187,2.9664621353149414
1631118356552,3.423480987548828,3.383202314376831,2.2549245357513428,2.3526339530944824
1631118356573,3.372509717941284,3.374934196472168,2.2270612716674805,2.834488868713379
1631118356662,3.423480987548828,3.413776397705078,2.2854790687561035,2.2858150005340576
1631118356785,3.423480987548828,3.378361463546753,2.286172151565552,2.813995361328125
1631118357355,3.3853068351745605,3.378361463546753,2.322814702987671,2.8167591094970703
1631118357499,3.3396716117858887,3.332676887512207,2.2697529792785645,2.8632657527923584
1631118357520,3.285974740982056,3.2502684593200684,2.1943252086639404,2.8909618854522705
1631118357688,3.285989284515381,3.2502686977386475,2.194267988204956,2.956778287887573
1631118357805,3.282723188400269,3.2360386848449707,2.194286346435547,2.950270652770996
1631118357910,3.243168354034424,3.136704206466675,2.15147066116333,2.903069972991944
1631118357910,3.0044543743133545,2.332638740539551,2.157759666442871,2.879767179489136
1631118357926,2.4920427799224854,2.527308940887451,2.195056915283203,2.829348087310791
1631118357943,2.459650039672852,2.9151852130889893,2.428246021270752,2.783711671829224
1631118357988,2.97092080116272,2.94463324546814,2.8963305950164795,2.7441651821136475
1631118358004,3.352392673492432,2.9860079288482666,2.9309685230255127,2.7441651821136475
1631118358017,3.592991828918457,2.967646598815918,2.9117090702056885,2.7489864826202397
1631118358020,3.560180902481079,2.991271734237671,2.9117090702056885,2.7740211486816406
1631118358229,3.528082609176636,2.991271734237671,2.874077081680298,2.7750535011291504
1631118358269,3.528082609176636,2.977303504943848,2.8738956451416016,2.273131847381592
1631118358343,3.5543100833892822,3.0928843021392822,2.875225782394409,2.064131259918213
1631118358415,3.5890145301818848,3.138514995574951,2.875323534011841,2.064131259918213
1631118358831,3.752305030822754,3.1891376972198486,2.912431240081787,2.064131259918213
1631118359023,3.8324167728424072,3.247093677520752,2.9537601470947266,2.006531000137329
1631118359354,3.860859870910645,3.3140079975128174,2.9994473457336426,2.470304012298584
1631118359461,3.8986427783966064,3.3931589126586914,3.05053186416626,2.442468881607056
1631118359545,3.939515829086304,3.4865710735321045,3.1037633419036865,2.3980190753936768
1631118359577,3.984400749206543,3.44079852104187,3.162407159805298,2.462414264678955
1631118359722,4.026940822601318,3.5656025409698486,3.0821359157562256,2.541172504425049
1631118359805,4.04935359954834,3.5656025409698486,2.214324712753296,2.631566047668457
1631118360037,4.021291732788086,3.5656025409698486,2.1533641815185547,2.631566047668457
1631118360093,3.909234046936035,3.468696355819702,2.063202142715454,2.4642045497894287
1631118360110,3.911356925964356,3.5656025409698486,2.1091270446777344,2.5387041568756104
1631118360386,3.909225225448608,3.4038374423980717,2.1989645957946777,2.4650888442993164
1631118363760,3.2033252716064453,3.2164878845214844,2.4825356006622314,3.081063985824585
1631118363951,3.0943825244903564,3.108220100402832,2.292236804962158,3.1819398403167725
1631118364007,3.094434261322021,3.108454465866089,2.293434858322144,3.1819398403167725
1631118364445,3.0757408142089844,3.086209297180176,2.2727160453796387,3.2231593132019043
1631118364476,3.074639320373535,3.085781574249268,2.2720043659210205,3.2184417247772217
1631118364617,3.0743908882141118,3.085761547088623,2.2712514400482178,3.2245168685913086
1631118364748,2.90368914604187,2.926094055175781,2.277073383331299,3.1956703662872314
1631118364764,2.866565704345703,2.891842603683472,2.257591485977173,3.1474363803863525
1631118364908,3.030808925628662,3.04934310913086,2.2501375675201416,2.7465803623199463
1631118364956,2.7696127891540527,2.795543670654297,2.2502472400665283,2.9395105838775635
1631118364988,2.6741201877593994,2.7178385257720947,1.6819602251052856,2.939398765563965
1631118365138,2.6621744632720947,2.740148067474365,1.550710916519165,2.910433053970337
1631118365161,2.6621246337890625,2.7779226303100586,1.5514544248580933,2.872721910476685
1631118365287,2.670600891113281,2.803652048110962,1.660011649131775,2.841453313827514
1631118365559,2.6706483364105225,2.815739631652832,1.6602758169174194,2.841578960418701
1631118365583,2.6769227981567383,2.847601413726806,1.7168850898742676,2.874216079711914
1631118365586,3.0601372718811035,3.4325993061065674,2.2114174365997314,2.5931787490844727
1631118365623,3.0867552757263184,3.4738285541534424,2.2094976902008057,2.5931787490844727
1631118365625,3.112687349319458,3.519548892974853,2.207928419113159,2.817720651626587
1631118365651,3.1448559761047363,3.5705642700195312,2.221500873565674,2.9880099296569824
1631118365689,3.179598331451416,3.6285512447357178,2.221702337265014,3.0167839527130127
1631118365698,3.2162914276123047,3.6948421001434326,2.2135701179504395,3.058114528656006
1631118365947,3.115984916687012,3.6686954498291016,2.1869795322418213,3.134762763977051
1631118365956,3.22955060005188,3.756990194320679,2.2023730278015137,3.102738857269287
1631118366045,3.167116165161133,3.6686954498291016,2.218836784362793,3.046318531036377
1631118366166,3.21790623664856,3.612663507461548,2.2533035278320312,3.113218307495117
1631118366247,3.284818410873413,3.612663507461548,2.2908291816711426,3.1780855655670166
1631118366317,3.363948345184326,3.5457866191864014,2.3320040702819824,3.2749035358428955
1631118366438,3.455643653869629,3.5473413467407227,2.301397562026977,3.2749035358428955
1631118366568,3.455643653869629,3.5438733100891118,2.3017194271087646,3.2749035358428955
1631118366603,3.455643653869629,3.539072036743164,2.3404507637023926,3.2749035358428955
1631118366645,3.455643653869629,2.5520780086517334,1.66067373752594,3.2749035358428955
1631118366690,3.455643653869629,2.57016396522522,1.747183084487915,3.2749035358428955
1631118367075,3.455643653869629,2.5191378593444824,1.707023859024048,3.2749035358428955
1631118367258,3.455643653869629,2.5018904209136963,1.7906134128570557,3.2749035358428955
1631118367398,3.455643653869629,2.9748189449310303,1.7902783155441284,3.2749035358428955
1631118367438,3.455643653869629,2.9596738815307617,2.04065489768982,3.2749035358428955
1631118367714,3.455643653869629,2.9250268936157227,2.036185503005981,3.2749035358428955
1631118367745,3.455643653869629,2.924875020980835,2.027600049972534,3.2749035358428955
1631118367860,2.828923225402832,2.8927571773529053,1.9900919198989868,3.2749035358428955
1631118367967,2.820601224899292,2.8841569423675537,2.0140717029571533,3.2749035358428955
1631118367994,2.7449047565460205,2.8552238941192627,1.9902414083480835,3.2749035358428955
1631118368009,2.7449047565460205,2.892550230026245,2.191370964050293,3.2749035358428955
1631118368033,2.6873035430908203,2.876916885375977,2.2032928466796875,3.2749035358428955
1631118368039,2.842450857162476,2.9861128330230717,2.2328786849975586,2.0890932083129883
1631118368062,2.802841186523437,3.126830101013184,2.1990909576416016,2.103535413742065
1631118368085,2.76882266998291,3.1185662746429443,2.230540037155152,2.272585391998291
1631118368147,2.76882266998291,3.125904083251953,2.345562696456909,2.29644775390625
1631118368246,2.769097328186035,3.125921726226806,2.377524852752685,2.7126269340515137
1631118368340,2.7547049522399902,3.121551275253296,2.3846325874328613,2.6549267768859863
1631118368526,2.549203872680664,2.926091194152832,2.422175884246826,2.712728977203369
1631118368589,2.549203872680664,2.927572250366211,2.432798147201538,2.712728977203369
1631118368892,2.549203872680664,2.927508354187012,2.4331414699554443,2.712728977203369
1631118368933,2.549203872680664,2.957385778427124,2.482922315597534,2.712728977203369
1631118369105,2.565079689025879,2.986312866210937,2.4809296131134038,2.777664422988892
1631118369105,2.599590539932251,2.98951268196106,2.484596967697144,2.712728977203369
1631118369147,2.627501964569092,3.023149251937866,2.518906354904175,2.777664422988892
1631118369263,2.627501964569092,3.026684284210205,2.4152157306671143,2.777664422988892
1631118369301,1.894209742546081,2.925863265991211,2.453085660934448,2.7961409091949463
1631118369304,2.694124460220337,3.069288969039917,2.453085660934448,2.777664422988892
1631118369335,1.894209742546081,2.277972936630249,2.4243741035461426,2.872644424438477
1631118369444,1.894209742546081,2.2762248516082764,2.389358758926392,2.872644424438477
1631118369475,1.894209742546081,2.0428528785705566,2.19188928604126,2.872644424438477
1631118369569,1.894209742546081,2.044924020767212,2.141901731491089,2.872644424438477
1631118369678,1.894209742546081,2.095602512359619,2.0963945388793945,2.872644424438477
1631118369706,1.894209742546081,2.148188829421997,2.1739919185638428,2.872644424438477
1631118369973,2.131165742874145,1.80827796459198,1.973732590675354,3.457399606704712
1631118370204,2.0354559421539307,1.8078588247299197,1.9724540710449217,3.3605546951293945
1631118370256,1.957284688949585,1.7421607971191406,1.784732699394226,3.281434774398804
1631118370318,1.891274333000183,1.690844178199768,1.7763733863830566,3.281434774398804
1631118370503,1.8340760469436648,1.6420761346817017,1.6715377569198608,3.281434774398804
1631118370742,1.7835296392440796,1.5986212491989136,1.634100079536438,3.2145166397094727
1631118370805,1.9394840002059937,1.810078263282776,1.807105541229248,3.158291816711426
1631118370808,2.52693247795105,2.470996856689453,1.786457657814026,3.178063154220581
1631118371139,2.4893040657043457,2.437863826751709,1.756959319114685,3.1323485374450684
1631118371390,2.454811811447144,2.4374732971191406,1.7553517818450928,3.091045618057251
1631118371590,2.423026323318481,2.4372119903564453,1.7554779052734375,3.0533947944641118
1631118371671,2.3972084522247314,2.42632794380188,1.7176096439361572,3.0194482803344727
1631118371693,2.499334812164306,2.5421042442321777,2.0705785751342773,3.0206305980682373
1631118371837,2.451647520065308,2.507566213607788,2.071148633956909,2.5828306674957275
1631118371873,2.497034311294556,2.5252413749694824,1.9914463758468628,2.3574790954589844
1631118371935,2.717161178588867,2.5252413749694824,2.031454801559448,2.6516900062561035
1631118371970,2.746246814727783,2.5573651790618896,2.062835693359375,2.68632435798645
1631118372042,2.7483673095703125,2.592024564743042,2.0708096027374268,2.723991870880127
1631118372149,2.7782700061798096,2.669334650039673,2.07218599319458,2.723991870880127
1631118372202,2.8104031085968018,2.6695001125335693,2.0747203826904297,2.723991870880127
1631118372281,2.845125675201416,2.676281213760376,2.0958902835845947,2.7653286457061768
1631118372489,2.865875482559204,2.694233655929565,2.14804744720459,2.8075850009918213
1631118372568,2.71984601020813,2.413663148880005,2.149387121200561,2.6692419052124023
1631118372721,2.7654905319213867,2.4512758255004883,2.150909662246704,2.7270777225494385
1631118372785,2.8164525032043457,2.492392539978028,2.15152359008789,2.793698787689209
1631118372949,2.874161958694458,2.537784576416016,2.2020559310913086,2.872378349304199
1631118372982,2.938150644302368,2.599177837371826,2.273258686065674,2.96630597114563
1631118373291,2.9022958278656006,2.5500895977020264,2.1165482997894287,2.96630597114563
1631118373306,2.902843713760376,2.5513083934783936,2.117798089981079,2.96630597114563
1631118373366,2.937294006347656,2.4797372817993164,2.0959129333496094,2.96630597114563
1631118373619,2.469625234603882,2.451061964035034,2.060147523880005,2.96630597114563
1631118373622,2.469625234603882,2.434061050415039,2.0618340969085693,2.96630597114563
1631118373665,2.469625234603882,2.4150397777557373,2.0833170413970947,2.96630597114563
1631118373811,2.469625234603882,2.364870071411133,2.1162803173065186,2.96630597114563
1631118373811,2.469625234603882,2.364678382873535,2.118348360061645,2.96630597114563
1631118373921,2.469625234603882,2.3293285369873047,1.9688403606414795,2.96630597114563
1631118373926,2.469625234603882,2.388115882873535,2.1307690143585205,2.96630597114563
1631118373956,2.469625234603882,2.372039318084717,2.0008695125579834,2.96630597114563
1631118374111,2.469625234603882,2.372039318084717,2.047983407974243,2.96630597114563
1631118374388,2.469625234603882,2.372039318084717,2.103514671325684,2.96630597114563
1631118374388,2.469625234603882,2.4189581871032715,2.0160200595855717,2.96630597114563
1631118374468,2.469625234603882,2.3289358615875244,1.509987473487854,2.96630597114563
1631118374492,2.469625234603882,2.230475902557373,0.861517608165741,2.96630597114563
1631118374672,2.469625234603882,2.278456926345825,0.861517608165741,2.96630597114563
1631118374694,2.469625234603882,2.330034017562866,0.861517608165741,2.96630597114563
1631118374843,2.469625234603882,2.396833658218384,0.861517608165741,2.96630597114563
1631118374921,2.469625234603882,2.344468355178833,0.861517608165741,2.96630597114563
1631118374996,2.469625234603882,2.4363722801208496,0.861517608165741,2.96630597114563
1631118375013,2.469625234603882,2.3512253761291504,0.861517608165741,2.96630597114563
1631118375090,2.469625234603882,2.4733030796051025,0.861517608165741,2.96630597114563
1631118375235,2.469625234603882,2.41569447517395,0.861517608165741,2.96630597114563
1631118375436,2.469625234603882,2.338432788848877,0.861517608165741,2.96630597114563
1631118375635,2.469625234603882,2.2990365028381348,0.861517608165741,2.96630597114563
1631118375666,2.469625234603882,2.31167221069336,0.861517608165741,2.96630597114563
1631118375788,2.469625234603882,2.26262640953064,0.861517608165741,2.96630597114563
1631118375802,2.469625234603882,2.119821786880493,0.861517608165741,2.96630597114563
1631118375876,2.469625234603882,2.276827335357666,0.861517608165741,2.96630597114563
1631118375970,2.469625234603882,2.232544183731079,0.861517608165741,2.96630597114563
1631118375997,2.469625234603882,2.232544183731079,0.861517608165741,2.96630597114563
1631118376118,2.469625234603882,2.1916263103485107,0.861517608165741,2.96630597114563
1631118376148,2.469625234603882,2.16393780708313,0.861517608165741,2.96630597114563
1631118376335,2.469625234603882,2.145715951919556,0.861517608165741,2.96630597114563
1631118376636,2.469625234603882,2.0126962661743164,0.861517608165741,2.96630597114563
1631118376653,2.469625234603882,1.9140989780426023,0.5394051671028137,2.96630597114563
1631118376687,2.469625234603882,2.193272352218628,0.5228039622306824,2.96630597114563
1631118376736,2.469625234603882,2.2207417488098145,0.5337266325950623,2.96630597114563
1631118376754,2.469625234603882,2.585810661315918,0.5337266325950623,2.96630597114563
1631118376806,2.469625234603882,2.566321611404419,0.5337266325950623,2.96630597114563
1631118376949,2.469625234603882,2.565920114517212,0.5337266325950623,2.96630597114563
1631118376970,2.469625234603882,2.619077444076538,0.713649570941925,2.96630597114563
1631118377251,2.469625234603882,2.5839240550994877,1.087071657180786,2.96630597114563
1631118377265,2.469625234603882,2.5843429565429688,1.132384181022644,2.96630597114563
1631118377456,0.5618411898612976,2.554004192352295,1.0478609800338743,2.96630597114563
1631118377803,0.5328938364982605,2.5539138317108154,1.012465476989746,2.96630597114563
1631118377948,0.4996921420097351,2.5507612228393555,0.9795267581939696,2.96630597114563
1631118378300,1.8510255813598635,2.5861613750457764,1.7153549194335938,2.7321970462799072
1631118378579,1.9116679430007932,2.622210741043091,1.81023108959198,2.65234375
1631118378580,1.850922703742981,2.5862762928009038,1.714560866355896,2.740537643432617
1631118378659,1.9881267547607424,2.6520516872406006,1.8465209007263184,2.586630821228028
1631118378682,1.9881267547607424,2.596557378768921,1.886329174041748,2.548869371414185
1631118378691,1.9881267547607424,2.6185805797576904,1.9299134016036987,2.490947961807251
1631118378744,1.9881267547607424,2.221887826919556,2.16910457611084,2.4398624897003174
1631118378744,1.9105116128921509,2.2610530853271484,2.1279592514038086,2.4356040954589844
1631118379144,2.0277984142303467,2.2232537269592285,2.1918601989746094,2.3676273822784424
1631118379145,1.8455960750579836,2.3060462474823,2.090611219406128,2.394257068634033
1631118379288,2.02236270904541,2.6769111156463623,2.17557430267334,2.3676273822784424
1631118379405,1.97856080532074,2.676989793777466,2.176133871078491,2.3676273822784424
1631118379675,2.022906541824341,2.697507619857788,2.309352159500122,2.3676273822784424
1631118379697,2.0729267597198486,2.8595945835113525,2.43916654586792,2.405208110809326
1631118379789,2.1300435066223145,2.910654067993164,2.4457478523254395,2.4460458755493164
1631118380202,1.8907890319824217,2.932452917098999,2.411726474761963,1.869562149047852
1631118380233,2.051600694656372,2.9991531372070312,2.4530181884765625,1.8240541219711304
1631118380330,2.657994747161865,3.0400407314300537,2.4734389781951904,1.7321932315826416
1631118380352,2.709058284759521,3.0400407314300537,2.4734389781951904,1.840513110160828
1631118380358,2.063541412353516,3.0400407314300537,2.4734389781951904,1.8416589498519895
1631118380504,2.657994747161865,3.0400407314300537,2.4734389781951904,1.810834288597107
1631118380551,2.657994747161865,2.968721866607666,2.355381965637207,1.9072299003601076
1631118380801,2.708960771560669,2.9567081928253174,2.4825096130371094,1.9072299003601076
1631118380894,2.766709804534912,2.9410030841827397,2.533423662185669,1.9072299003601076
1631118380929,2.861391305923462,2.794662952423096,2.588224411010742,1.9072299003601076
1631118380936,2.7933802604675293,2.973552227020264,2.521951198577881,1.9072299003601076
1631118380963,2.8691048622131348,2.87368392944336,2.6666975021362305,1.9072299003601076
1631118381032,2.8691048622131348,2.9679672718048096,2.751835823059082,1.9072299003601076
1631118381075,2.8691048622131348,2.815372467041016,2.624854564666748,1.9072299003601076
1631118381118,2.8691048622131348,2.915515184402466,2.710991859436035,1.9072299003601076
1631118381134,2.8691048622131348,2.8364059925079346,2.710991859436035,1.9072299003601076
1631118407165,2.247978687286377,2.59022855758667,2.15824818611145,1.0972927808761597
1631118407241,2.182226181030273,2.5449531078338623,2.014755725860596,1.0972927808761597
1631118407339,2.124831438064575,2.4005050659179688,2.0142054557800293,2.1803998947143555
1631118407504,2.074047803878784,2.3928112983703613,1.9930390119552608,2.1803998947143555
1631118407916,2.1053035259246826,2.476479768753052,2.0362548828125,2.1803998947143555
1631118407921,2.069272041320801,2.393937110900879,1.991631031036377,2.1803998947143555
1631118407939,2.0686798095703125,2.4598751068115234,1.9924250841140747,2.1803998947143555
1631118407998,2.029219627380371,2.4596164226531982,1.990878939628601,2.1803998947143555
1631118408174,1.9932236671447756,2.4404420852661133,1.990026831626892,2.1803998947143555
1631118408304,1.9930258989334104,2.4379143714904785,1.9897640943527224,2.0869977474212646
1631118408337,1.3742561340332031,2.3968544006347656,1.6264774799346924,2.298950433731079
1631118408352,1.3825713396072388,2.685333251953125,2.189297914505005,2.298950433731079
1631118408355,1.3825713396072388,2.6850314140319824,2.200309991836548,2.298950433731079
1631118408367,1.3825713396072388,2.717082262039185,2.232395648956299,2.2335422039031982
1631118408399,1.6495314836502075,2.656725645065308,2.2460405826568604,2.1847846508026123
1631118408585,1.5710914134979248,2.651728630065918,2.23341703414917,2.530716180801392
1631118408838,1.7362562417984009,2.665856122970581,2.267383337020874,2.595759868621826
1631118408857,1.736894965171814,2.6657874584198,2.2677323818206787,2.6732451915740967
1631118409006,1.7375767230987549,2.6649162769317627,2.2679152488708496,2.6732451915740967
1631118409152,3.0336499214172363,2.7018041610717773,2.268035888671875,3.2049028873443604
1631118409429,3.1538219451904297,2.6397829055786133,2.6972556114196777,3.217537879943848
1631118409655,3.1720235347747803,2.683052062988281,2.7432117462158203,3.1664414405822754
1631118409721,3.17643404006958,2.7419822216033936,2.7539610862731934,3.1664414405822754
1631118409892,3.1763463020324707,2.7421350479125977,2.7540643215179443,3.1153571605682373
1631118410141,3.1473305225372314,2.7769417762756348,2.7660839557647705,3.1064462661743164
1631118410156,3.1763219833374023,2.744479894638061,2.7541794776916504,3.115262985229492
1631118410209,3.1191930770874023,2.36523175239563,2.6655757427215576,3.070594549179077
1631118410341,3.098144769668579,2.407219886779785,2.667797565460205,3.070594549179077
1631118410503,3.068307638168335,2.366171360015869,2.635953664779663,3.116195678710937
1631118410554,3.062425136566162,2.431243419647217,2.6063249111175537,3.116843938827514
1631118410570,3.083168268203736,2.7728991508483887,2.606039762496948,3.097674369812012
1631118410652,3.078709602355957,2.8191487789154053,2.5943679809570312,3.097674369812012
1631118410740,3.10861611366272,2.8282663822174072,2.5968525409698486,3.097674369812012
1631118410803,3.140482187271118,2.894357442855835,2.6309196949005127,3.097674369812012
1631118410958,2.7922213077545166,3.1366539001464844,2.6310856342315674,2.595261812210083
1631118411049,2.5051608085632324,3.104489088058472,2.2216062545776367,2.1369283199310303
1631118411581,2.471693515777588,3.1011013984680176,2.1661694049835205,2.105527639389038
1631118411719,2.4564244747161865,3.0900490283966064,2.141023635864258,2.105527639389038
1631118411877,2.473198890686035,3.1874499320983887,2.170609712600708,2.201178550720215
1631118411877,2.8286468982696533,3.2436563968658447,2.370560884475708,2.201178550720215
1631118412324,2.820040702819824,3.2273173332214355,2.328242063522339,2.201178550720215
1631118412372,2.807697534561157,3.223151206970215,2.293263912200928,2.201178550720215
1631118412558,2.85621976852417,3.405341148376465,2.3081562519073486,2.201178550720215
1631118412562,2.818711280822754,3.344287633895874,2.302639961242676,2.201178550720215
1631118413076,2.8931634426116943,3.372800827026367,2.468079090118408,2.201178550720215
1631118413076,2.896878242492676,3.4033725261688232,2.317096948623657,2.201178550720215
1631118413104,2.9438862800598145,3.42726469039917,2.467773914337158,2.201178550720215
1631118413109,2.893430233001709,3.425554037094116,2.4655532836914062,2.201178550720215
1631118413156,3.071471691131592,3.3744001388549805,2.451953649520874,2.201178550720215
1631118413167,3.0766544342041016,3.385222911834717,2.489737033843994,2.201178550720215
1631118413170,3.0796127319335938,3.385999917984009,2.489779472351074,2.201178550720215
1631118413185,2.9269495010375977,3.4320549964904785,2.4581284523010254,2.201178550720215
1631118413205,3.122373580932617,3.4110782146453857,2.447829246520996,2.201178550720215
1631118413268,3.1177213191986084,3.3557000160217285,2.432288646697998,3.5534043312072754
1631118413288,3.1584150791168213,3.411634922027588,2.5067527294158936,3.685133457183838
1631118413307,3.18174409866333,3.489647388458252,2.510950326919556,3.768632888793945
1631118413419,3.1820616722106934,3.48974609375,2.512155294418335,3.701992988586426
1631118413608,3.2287826538085938,3.4396421909332275,2.478431701660156,3.8118817806243896
1631118413772,3.2157142162323,3.396585464477539,2.4876441955566406,3.857506275177002
1631118413874,3.1810100078582764,3.3906171321868896,2.481374263763428,3.815909624099731
1631118414060,3.1494181156158447,3.3752481937408447,2.3384478092193604,3.771348476409912
1631118414181,3.1494181156158447,3.343013048171997,2.5446016788482666,3.744728803634644
1631118414242,3.181354522705078,3.406557321548462,2.822464227676392,3.7776732444763184
1631118414306,3.1712918281555176,3.41401743888855,2.834156036376953,3.7776732444763184
1631118414410,3.054734945297241,3.39213228225708,2.8511476516723637,3.7776732444763184
1631118414474,3.055267095565796,3.425999164581299,2.8857839107513428,3.7776732444763184
1631118414533,3.052820920944214,3.42487907409668,2.890432834625244,3.7776732444763184
1631118414596,3.0394859313964844,3.378640651702881,2.8950517177581787,3.819042682647705
1631118414640,3.0806357860565186,3.410112142562866,2.910072565078736,3.759044885635376
1631118414721,2.813117265701294,3.2818102836608887,2.8075575828552246,3.717711925506592
1631118414757,2.7864034175872803,3.144465446472168,2.842625617980957,3.642894744873047
1631118414811,2.841780185699463,3.1852028369903564,2.8824703693389893,3.7094898223876953
1631118414848,2.38080096244812,3.1188085079193115,2.917057752609253,3.4503536224365234
1631118414897,1.846173644065857,3.127243757247925,2.9599545001983643,3.317811965942383
1631118414931,1.9398170709609983,3.185222148895264,3.0178263187408447,3.317811965942383
1631118414971,1.9398170709609983,3.251103401184082,3.083221197128296,3.317811965942383
1631118415032,1.9398170709609983,3.1781108379364014,3.023431301116944,3.317811965942383
1631118415099,1.9398170709609983,2.7629640102386475,2.14108681678772,3.317811965942383
1631118415147,1.9398170709609983,2.6661834716796875,2.14108681678772,3.317811965942383
1631118415212,1.9398170709609983,2.6661834716796875,2.14108681678772,3.317811965942383
1631118415282,1.9398170709609983,2.5922622680664062,2.14108681678772,3.317811965942383
1631118415338,1.9398170709609983,2.656421661376953,2.14108681678772,3.317811965942383
1631118415453,1.9398170709609983,2.644707441329956,2.14108681678772,3.317811965942383
1631118415489,1.9398170709609983,0.9357304573059082,2.14108681678772,3.317811965942383
1631118415691,1.9398170709609983,0.9357304573059082,2.14108681678772,3.317811965942383
1631118415735,1.9398170709609983,0.9357304573059082,2.14108681678772,3.317811965942383
1631118415914,1.9398170709609983,1.160672903060913,1.595372200012207,3.317811965942383
1631118416056,1.9398170709609983,1.0711290836334229,1.5004758834838867,3.317811965942383
1631118416253,1.9398170709609983,0.9994421005249025,1.4246881008148191,3.317811965942383
1631118416808,1.9398170709609983,1.0134730339050293,1.372810125350952,3.317811965942383
1631118416833,1.9398170709609983,0.9690309166908264,1.372810125350952,3.317811965942383
1631118417087,1.9398170709609983,0.9451370239257812,1.372810125350952,3.317811965942383
1631118417138,1.9398170709609983,1.6630209684371948,1.372810125350952,3.317811965942383
1631118417149,1.9398170709609983,1.6799867153167725,1.372810125350952,3.317811965942383
1631118417358,1.9398170709609983,1.6508780717849731,1.372810125350952,3.317811965942383
1631118417394,1.9398170709609983,2.1649065017700195,1.372810125350952,3.317811965942383
1631118417407,1.9398170709609983,1.6212574243545532,1.372810125350952,3.317811965942383
1631118417408,1.9398170709609983,1.6316583156585691,1.372810125350952,3.317811965942383
1631118417541,1.9398170709609983,2.145599126815796,0.9547945261001588,3.317811965942383
1631118417544,1.9398170709609983,2.145599126815796,0.9015142917633056,3.317811965942383
1631118417555,1.9398170709609983,2.145599126815796,0.8885651230812073,3.317811965942383
1631118417649,1.9398170709609983,2.1737401485443115,0.9547945261001588,3.317811965942383
1631118417727,1.9398170709609983,2.211288452148437,0.9547945261001588,3.317811965942383
1631118417915,1.9398170709609983,2.252432107925415,0.9547945261001588,3.317811965942383
1631118417934,1.9398170709609983,2.2501981258392334,0.9547945261001588,3.317811965942383
1631118417963,1.9398170709609983,2.25049352645874,0.9547945261001588,3.317811965942383
1631118418220,1.9398170709609983,2.37471604347229,0.9547945261001588,3.317811965942383
1631118418458,1.9398170709609983,2.3000807762146,0.9547945261001588,3.317811965942383
1631118418756,1.9398170709609983,2.341677665710449,0.9547945261001588,3.317811965942383
1631118418756,1.9398170709609983,2.3898026943206787,0.9547945261001588,3.317811965942383
1631118418835,1.9398170709609983,2.4462575912475586,0.9547945261001588,3.317811965942383
1631118418997,1.9398170709609983,2.506342649459839,0.9547945261001588,3.317811965942383
1631118419059,1.9398170709609983,2.2113025188446045,0.9547945261001588,3.317811965942383
1631118419059,1.9398170709609983,2.08544921875,0.9547945261001588,3.317811965942383
1631118419061,1.9398170709609983,2.1480600833892822,0.9547945261001588,3.317811965942383
1631118419072,1.9398170709609983,2.0530385971069336,0.9547945261001588,3.317811965942383
1631118419094,1.9398170709609983,2.422724485397339,0.9547945261001588,3.317811965942383
1631118419125,1.9398170709609983,2.1805264949798584,0.9547945261001588,3.317811965942383
1631118419203,1.9398170709609983,2.382180690765381,0.9547945261001588,3.317811965942383
1631118419231,1.9398170709609983,3.0807433128356934,0.9547945261001588,3.317811965942383
1631118419232,1.9398170709609983,2.486614942550659,0.9547945261001588,3.317811965942383
1631118419271,1.9398170709609983,3.0718557834625244,0.9547945261001588,3.317811965942383
1631118419373,1.9398170709609983,3.0843513011932373,2.396328449249268,3.317811965942383
1631118419458,3.058134794235229,3.046585321426392,2.302492618560791,3.317811965942383
1631118419575,3.058134794235229,3.0162129402160645,2.302492618560791,3.317811965942383
1631118419736,3.058134794235229,2.984046459197998,2.302492618560791,3.317811965942383
1631118420130,3.058134794235229,2.9885060787200928,2.302492618560791,3.317811965942383
1631118420376,3.058134794235229,2.98962664604187,2.302492618560791,3.317811965942383
1631118420986,3.058134794235229,3.016134023666382,2.302492618560791,3.317811965942383
1631118421237,3.058134794235229,3.0406625270843506,2.302492618560791,3.317811965942383
1631118421447,3.058134794235229,3.0656731128692627,2.302492618560791,3.317811965942383
1631118421453,3.058134794235229,3.097377061843872,2.348691463470459,3.317811965942383
1631118421462,3.058134794235229,3.073643207550049,2.348691463470459,3.317811965942383
1631118421468,3.058134794235229,3.0594475269317627,2.348691463470459,3.317811965942383
1631118421480,3.058134794235229,3.09707260131836,2.348691463470459,3.317811965942383
1631118421480,3.058134794235229,2.5175280570983887,2.348691463470459,3.317811965942383
1631118421536,3.058134794235229,2.495344877243042,2.348691463470459,3.317811965942383
1631118421576,3.058134794235229,2.6373794078826904,2.348691463470459,3.317811965942383
1631118421576,3.058134794235229,2.678708791732788,2.348691463470459,3.317811965942383
1631118421586,3.058134794235229,2.7119364738464355,2.348691463470459,3.317811965942383
1631118421613,3.058134794235229,2.7632081508636475,2.348691463470459,4.108227252960205
1631118421615,3.058134794235229,2.701770544052124,2.348691463470459,4.108227252960205
1631118421637,3.058134794235229,2.763036012649536,2.348691463470459,3.317811965942383
1631118421666,3.058134794235229,2.7632081508636475,2.348691463470459,4.108227252960205
1631118421753,3.058134794235229,2.7632081508636475,2.348691463470459,4.108227252960205
1631118421995,3.058134794235229,2.7632081508636475,2.348691463470459,4.108227252960205
1631118422193,3.058134794235229,2.673682451248169,2.348691463470459,4.108227252960205
1631118422321,3.058134794235229,2.765565156936645,1.3776285648345947,4.108227252960205
1631118422449,3.058134794235229,2.765565156936645,1.410628318786621,4.108227252960205
1631118422543,3.058134794235229,2.765565156936645,1.410628318786621,4.108227252960205
1631118422645,3.058134794235229,2.765565156936645,1.410628318786621,4.108227252960205
1631118422730,3.058134794235229,2.765565156936645,1.4432239532470703,4.108227252960205
1631118422903,3.058134794235229,2.765565156936645,1.4432239532470703,4.108227252960205
1631118423018,3.058134794235229,2.765565156936645,1.4432239532470703,4.108227252960205
1631118423323,3.058134794235229,2.765565156936645,1.4432239532470703,4.108227252960205
1631118423600,3.058134794235229,2.765565156936645,1.4432239532470703,4.108227252960205
1631118423682,3.058134794235229,2.765565156936645,1.4432239532470703,4.108227252960205
1631118423890,3.058134794235229,2.765565156936645,1.4432239532470703,4.108227252960205
1631118424035,3.058134794235229,2.765565156936645,1.4432239532470703,4.108227252960205
1631118424119,3.058134794235229,2.765565156936645,1.4432239532470703,4.108227252960205
1631118424121,3.058134794235229,2.765565156936645,1.4432239532470703,4.108227252960205
1631118424220,3.058134794235229,2.765565156936645,1.4432239532470703,4.108227252960205
1631118424297,3.058134794235229,2.474671602249145,1.4432239532470703,4.108227252960205
1631118424298,3.058134794235229,2.474671602249145,1.4432239532470703,4.108227252960205
1631118424409,3.058134794235229,2.474671602249145,1.4432239532470703,4.108227252960205
1631118424455,3.058134794235229,2.3833861351013184,1.4432239532470703,4.108227252960205
1631118424536,3.058134794235229,2.639225721359253,1.4432239532470703,4.108227252960205
1631118424552,3.058134794235229,2.3529655933380127,1.4432239532470703,4.108227252960205
1631118424604,3.058134794235229,2.6329586505889893,1.4432239532470703,4.108227252960205
1631118424656,3.058134794235229,2.5879180431365967,1.4432239532470703,4.108227252960205
1631118424727,3.058134794235229,2.5734405517578125,1.4432239532470703,4.108227252960205
1631118424889,3.058134794235229,2.562892436981201,1.4432239532470703,4.108227252960205
1631118424948,3.058134794235229,2.8413336277008057,1.4432239532470703,4.108227252960205
1631118424959,3.058134794235229,2.844151735305786,1.4432239532470703,4.108227252960205
1631118425188,3.058134794235229,2.812141180038452,1.4432239532470703,4.108227252960205
1631118425349,3.058134794235229,2.7744972705841064,1.4432239532470703,4.108227252960205
1631118425503,3.058134794235229,2.824518918991089,1.4432239532470703,4.108227252960205
1631118425503,3.058134794235229,2.842440605163574,1.4432239532470703,4.108227252960205
1631118425752,3.058134794235229,2.824518918991089,1.4432239532470703,4.108227252960205
1631118425758,3.058134794235229,2.8614635467529297,1.4432239532470703,4.108227252960205
1631118425763,3.058134794235229,2.824518918991089,1.4432239532470703,4.108227252960205
1631118425769,3.058134794235229,2.8949837684631348,1.4432239532470703,4.108227252960205
1631118425819,3.058134794235229,2.8092494010925293,1.4432239532470703,4.108227252960205
1631118425819,3.058134794235229,2.8330910205841064,1.4432239532470703,4.108227252960205
1631118425825,3.058134794235229,2.790771007537842,1.4432239532470703,4.108227252960205
1631118425890,3.058134794235229,2.865397691726685,1.4432239532470703,4.108227252960205
1631118426036,3.058134794235229,2.923335552215576,1.4432239532470703,4.108227252960205
1631118426179,3.058134794235229,2.574857473373413,1.4432239532470703,4.108227252960205
1631118426250,3.058134794235229,2.570767879486084,1.4432239532470703,4.108227252960205
1631118426379,3.058134794235229,2.654414653778076,1.4432239532470703,4.108227252960205
1631118426568,3.058134794235229,2.65482234954834,1.4432239532470703,4.108227252960205
1631118426785,3.058134794235229,2.2545268535614014,1.4432239532470703,4.108227252960205
1631118427084,3.058134794235229,2.1967740058898926,1.4432239532470703,4.108227252960205
1631118427134,3.058134794235229,2.58564567565918,1.4432239532470703,4.108227252960205
1631118427187,3.058134794235229,2.556713581085205,1.4432239532470703,4.108227252960205
1631118427201,3.058134794235229,2.5980727672576904,1.4432239532470703,4.108227252960205
1631118427435,3.058134794235229,2.518953323364258,1.4432239532470703,4.108227252960205
1631118427488,3.058134794235229,2.485882520675659,1.4432239532470703,4.108227252960205
1631118427523,3.058134794235229,2.471869945526123,1.4432239532470703,4.108227252960205
1631118427538,3.058134794235229,2.437206506729126,1.4432239532470703,4.108227252960205
1631118427538,1.887262463569641,2.4137215614318848,1.9903713464736936,4.108227252960205
1631118427580,1.9088536500930784,2.3961572647094727,1.9957410097122192,3.459347486495972
1631118427601,2.5045058727264404,2.5396881103515625,1.92075514793396,3.769610643386841
1631118427729,2.4386861324310303,2.5326151847839355,1.8646233081817627,3.690440654754639
1631118428033,2.4002788066864014,2.4757561683654785,1.8793320655822756,3.624487161636353
1631118428098,2.410029649734497,2.503793478012085,1.8582381010055544,3.5670766830444336
1631118428279,2.410029649734497,2.504154920578003,1.8582381010055544,3.5670766830444336
1631118428279,2.410029649734497,2.503925323486328,1.8582381010055544,3.5670766830444336
1631118428572,2.410029649734497,2.2367184162139893,1.8582381010055544,3.5670766830444336
1631118428622,2.410029649734497,2.147287130355835,1.8582381010055544,3.5670766830444336
1631118428622,2.410029649734497,2.2899060249328613,1.8582381010055544,3.5670766830444336
1631118428818,2.410029649734497,2.319830894470215,1.8582381010055544,3.5670766830444336
1631118428866,2.460914134979248,2.3519532680511475,1.9088550806045528,3.5670766830444336
1631118429123,2.5186309814453125,2.373074531555176,1.9177900552749636,3.6240792274475098
1631118429187,2.5243279933929443,2.37429141998291,1.6353800296783447,3.686328887939453
1631118429381,2.6031370162963867,2.382636308670044,1.712857365608215,3.7264459133148193
1631118429384,2.6785571575164795,2.400457859039306,1.5861142873764038,3.6533238887786874
1631118429397,2.6785571575164795,2.1647865772247314,1.5861142873764038,3.6533238887786874
1631118429443,2.6785571575164795,2.2023696899414062,1.5861142873764038,3.6533238887786874
1631118429523,2.6785571575164795,2.223881721496582,1.5861142873764038,3.6533238887786874
1631118429711,2.6785571575164795,2.182474136352539,1.5861142873764038,3.6533238887786874
1631118429733,2.6785571575164795,2.232863664627075,1.5861142873764038,3.6533238887786874
1631118429763,2.6785571575164795,2.2898309230804443,1.5861142873764038,3.6533238887786874
1631118429942,2.6785571575164795,2.3548600673675537,1.5861142873764038,3.6533238887786874
1631118429986,2.6785571575164795,2.4290568828582764,1.5861142873764038,3.6533238887786874
1631118430082,2.6785571575164795,2.117288112640381,1.5861142873764038,3.6533238887786874
1631118430412,2.6785571575164795,2.128028392791748,1.5861142873764038,3.6533238887786874
1631118430498,2.6785571575164795,2.188840389251709,1.811934351921081,3.6533238887786874
1631118430503,2.6785571575164795,2.048979520797729,1.9079821109771729,3.6533238887786874
1631118430536,2.6785571575164795,3.2634880542755127,1.793628215789795,3.6533238887786874
1631118430540,2.6785571575164795,2.3154046535491943,1.793628215789795,3.6533238887786874
1631118430680,2.6785571575164795,3.2811923027038574,1.793628215789795,3.6533238887786874
1631118430777,2.6785571575164795,3.2146241664886475,1.793628215789795,3.6533238887786874
1631118430853,2.6785571575164795,3.204581022262573,1.793628215789795,3.6533238887786874
1631118430886,2.6785571575164795,3.1563124656677246,1.629244089126587,3.6533238887786874
1631118430950,2.6785571575164795,3.1106691360473637,1.6842585802078247,3.6533238887786874
1631118431045,2.6785571575164795,3.069380044937134,1.6842585802078247,3.6533238887786874
1631118431247,2.6785571575164795,3.031663656234741,1.6842585802078247,3.6533238887786874
1631118431369,2.6785571575164795,2.9969682693481445,1.6842585802078247,3.6533238887786874
1631118431513,2.6785571575164795,2.9806039333343506,1.6842585802078247,3.6533238887786874
1631118431578,2.6785571575164795,2.9484894275665283,1.6842585802078247,3.6533238887786874
1631118431588,2.6785571575164795,2.951627492904663,1.6842585802078247,3.6533238887786874
1631118431627,2.6785571575164795,2.9563896656036377,1.6842585802078247,3.6533238887786874
1631118431627,2.6785571575164795,2.958547830581665,1.6842585802078247,3.6533238887786874
1631118431669,2.6785571575164795,2.9484081268310547,1.6842585802078247,3.6533238887786874
1631118431690,2.6785571575164795,2.3613357543945312,1.6842585802078247,3.6533238887786874
1631118431690,2.6785571575164795,2.265765190124512,1.6842585802078247,3.6533238887786874
1631118431909,2.6785571575164795,2.266594409942627,1.6842585802078247,3.6533238887786874
1631118431944,2.6785571575164795,2.0489327907562256,1.6842585802078247,3.6533238887786874
1631118432081,2.6785571575164795,2.029942750930786,1.2469778060913086,3.6533238887786874
1631118432161,2.6785571575164795,2.071253776550293,1.2081629037857056,3.6533238887786874
1631118432221,2.6785571575164795,2.0718834400177,1.1589206457138062,3.6533238887786874
1631118432363,2.6785571575164795,2.1625497341156006,1.858929753303528,3.6533238887786874
1631118432408,2.6785571575164795,2.1624200344085693,1.8017778396606443,3.6533238887786874
1631118432704,2.6785571575164795,2.054919481277466,1.7514631748199463,3.6533238887786874
1631118432726,2.6785571575164795,2.093247890472412,1.837979912757873,3.6533238887786874
1631118432961,2.6785571575164795,2.0813262462615967,1.796960949897766,3.6533238887786874
1631118433019,2.6785571575164795,2.018300294876098,1.7595423460006714,3.6533238887786874
1631118433047,2.6785571575164795,1.8636739253997805,1.7251192331314087,3.6533238887786874
1631118433137,2.6785571575164795,1.860591411590576,1.693207025527954,3.6533238887786874
1631118433166,2.6785571575164795,1.850960612297058,1.663413405418396,3.6533238887786874
1631118433302,0.12873075902462,1.845657229423523,1.65032160282135,0.4248452186584472
1631118433395,0.1186893731355667,1.8395341634750368,1.638030767440796,0.38492351770401
1631118433487,0.1014435738325119,1.7215532064437866,1.6267647743225098,0.3737789094448089
1631118433689,0.0809720158576965,1.714177489280701,1.6169978380203247,0.371873527765274
1631118434029,0.0625489652156829,1.6114991903305054,1.6100544929504397,0.370328277349472
1631118434061,0.047961950302124,1.6076804399490356,1.6065905094146729,0.3802046477794647
1631118434074,0.0463311783969402,1.1147761344909668,1.107155680656433,0.3802046477794647
1631118434194,0.0642091557383537,1.11458420753479,1.1390169858932495,0.3802046477794647
1631118434250,0.1883151531219482,1.2702091932296753,0.6423993706703186,0.3802046477794647
1631118434257,0.1112330555915832,1.1167408227920532,1.2081831693649292,0.3802046477794647
1631118434388,0.2884213030338287,1.2735140323638916,0.6703730225563049,0.3802046477794647
1631118434571,0.3755636215209961,1.2767568826675415,0.7009242177009583,0.3802046477794647
1631118434632,0.4446407556533813,1.2790734767913818,0.7348137497901917,0.5264846682548523
1631118434718,0.4741589426994324,1.2799012660980225,0.7730447053909302,0.5866156220436096
1631118434790,0.4788597822189331,1.279611110687256,0.8142138123512268,0.6338806748390198
1631118434938,0.4787667989730835,1.2791790962219238,0.8290519118309021,0.6783657670021057
1631118434956,0.477913498878479,1.2792203426361084,0.823015570640564,0.6644614338874817
1631118435159,0.4888680279254913,1.2797446250915527,0.8381186723709106,0.6745412945747375
1631118435255,0.5027633309364319,1.2805376052856443,0.8508581519126892,0.667223334312439
1631118435286,0.5173247456550598,1.2863476276397705,0.8654183745384216,0.6935219764709473
1631118435517,0.5308212041854858,1.2866172790527344,0.8745378255844116,0.6925120949745178
1631118435745,0.5515189170837402,1.2864680290222168,0.8569024801254272,0.6925120949745178
1631118436137,0.5692930221557617,1.285553812980652,0.7965417504310608,0.6925120949745178
1631118436152,0.5785509347915649,1.284648060798645,0.3911682367324829,0.6925120949745178
1631118436413,0.5705116391181946,0.1544681638479232,0.3911682367324829,0.6925120949745178
1631118436474,0.4498538076877594,1.1584932804107666,0.3911682367324829,0.6925120949745178
1631118436499,0.5285944938659668,0.2302138209342956,0.3911682367324829,0.6925120949745178
1631118436517,0.3559082448482513,2.17517638206482,0.3911682367324829,0.6058468818664551
1631118436567,0.2957749664783478,2.204918622970581,0.3911682367324829,0.5442638993263245
1631118436567,0.2943916618824005,2.23699951171875,0.2860205769538879,0.4798865914344787
1631118436576,0.3226921260356903,2.2716739177703857,0.3015694320201874,0.4388160705566406
1631118436629,0.3632102310657501,2.3093578815460205,0.3411738574504852,0.4349537491798401
1631118436630,0.3632102310657501,2.3506052494049072,0.3720117211341858,0.4349537491798401
1631118436671,0.3632102310657501,2.3506648540496826,0.3035449385643005,0.4349537491798401
1631118436725,0.3632102310657501,2.3502237796783447,0.1781899780035019,0.4349537491798401
1631118436781,0.3632102310657501,2.350741147994995,0.0596297159790992,0.4349537491798401
1631118436875,0.3632102310657501,2.396397113800049,0.677959144115448,0.4349537491798401
1631118437033,0.3632102310657501,2.44742751121521,1.560589075088501,0.4349537491798401
1631118437144,0.3632102310657501,2.571504592895508,1.719675898551941,0.4349537491798401
1631118437144,0.3632102310657501,2.505180835723877,1.719675898551941,0.4349537491798401
1631118437254,0.3632102310657501,2.6125404834747314,1.719675898551941,0.4349537491798401
1631118437254,0.3632102310657501,2.64939022064209,1.719675898551941,0.4349537491798401
1631118437393,0.3632102310657501,1.682933330535889,1.719675898551941,0.4349537491798401
1631118437572,0.3632102310657501,1.5503525733947754,1.719675898551941,0.4349537491798401
1631118437575,0.3632102310657501,1.6130272150039673,1.719675898551941,0.4349537491798401
1631118437832,0.3632102310657501,1.4939522743225098,1.719675898551941,0.4349537491798401
1631118438024,0.3632102310657501,1.4443843364715576,1.719675898551941,0.4349537491798401
1631118438186,0.3632102310657501,1.4006259441375732,1.719675898551941,0.4349537491798401
1631118438250,0.3632102310657501,1.400758147239685,1.7976772785186768,0.4349537491798401
1631118438420,0.3632102310657501,1.399273157119751,1.8936700820922847,0.4349537491798401
1631118438704,0.3632102310657501,1.3952045440673828,1.8936700820922847,0.4349537491798401
1631118439152,0.3632102310657501,1.355309009552002,1.8936700820922847,0.4349537491798401
1631118439336,0.3632102310657501,1.3193353414535522,1.8936700820922847,0.2198586463928222
1631118439570,0.3632102310657501,1.2865159511566162,1.8936700820922847,0.2080862522125244
1631118439721,0.3632102310657501,1.2558777332305908,1.8936700820922847,0.1996759176254272
1631118439763,0.3632102310657501,1.2558777332305908,1.8936700820922847,0.1996759176254272
1631118439780,0.3632102310657501,0.1616914570331573,1.8936700820922847,0.1996759176254272
1631118439785,0.3632102310657501,0.0453937985002994,1.8936700820922847,0.1996759176254272
1631118439797,0.3632102310657501,1.2674951553344729,1.8936700820922847,0.1996759176254272
1631118439846,0.3632102310657501,-0.0097161959856748,1.8936700820922847,0.1996759176254272
1631118439847,0.3632102310657501,-0.0065079694613814,1.8936700820922847,0.1996759176254272
1631118440254,0.3632102310657501,-0.0024946841876953,1.8936700820922847,0.1996759176254272
1631118440595,0.3632102310657501,-0.0126583501696586,1.8936700820922847,0.1996759176254272
1631118440637,0.3632102310657501,-0.0259913075715303,1.8936700820922847,0.1996759176254272
1631118440670,0.3632102310657501,-0.0086432630196213,1.8936700820922847,0.1889328509569168
1631118440671,0.3632102310657501,-0.0257392283529043,1.8936700820922847,0.1928248554468155
1631118440738,0.3632102310657501,-0.0086432630196213,1.8936700820922847,0.1889328509569168
