timestamp,TP9,AF7,AF8,TP10
1631632613063,0.3198925256729126,0.0955633223056793,-0.1596820205450058,0.1940939277410507
1631632613131,0.3198925256729126,0.0996544584631919,-0.1353977173566818,0.1940939277410507
1631632613240,0.3198925256729126,0.0903127193450927,-0.0970868170261383,0.1940939277410507
1631632613301,0.3198925256729126,0.0736816748976707,-0.0625344440340995,0.1940939277410507
1631632613473,0.3198925256729126,0.0684458911418914,-0.0238445606082677,0.1940939277410507
1631632613549,0.3198925256729126,0.0689056143164634,0.0259237308055162,0.1940939277410507
1631632613633,0.3198925256729126,0.0779459327459335,0.0430659614503383,0.1940939277410507
1631632613741,0.3198925256729126,0.0932857543230056,0.0592188723385334,0.1940939277410507
1631632613838,0.3198925256729126,0.103225901722908,0.0712407752871513,0.1940939277410507
1631632613929,0.3198925256729126,0.0908909440040588,0.0712407752871513,0.1940939277410507
1631632614066,0.3198925256729126,0.0908909440040588,0.0502972118556499,0.1940939277410507
1631632614164,0.3198925256729126,0.0908909440040588,0.0281362328678369,0.1940939277410507
1631632614231,0.3198925256729126,0.0891449898481369,0.0071940431371331,0.1940939277410507
1631632614349,0.3198925256729126,0.0925401672720909,-0.0112295467406511,0.1940939277410507
1631632614435,0.3198925256729126,0.0977915674448013,-0.0243872106075286,0.1940939277410507
1631632614546,0.3198925256729126,0.0967162325978279,-0.0364375188946723,0.1940939277410507
1631632614682,0.3198925256729126,0.1020812392234802,-0.0449610613286495,0.1940939277410507
1631632614781,0.3198925256729126,0.1173803880810737,-0.0500093959271907,0.3582026958465576
1631632614864,0.3198925256729126,0.1366427689790725,-0.056213092058897,0.3582026958465576
1631632614947,0.3198925256729126,0.1366427689790725,-0.0717503428459167,0.3582026958465576
1631632615064,0.3198925256729126,0.1366427689790725,-0.0989059507846832,0.3582026958465576
1631632615151,0.3198925256729126,0.1366427689790725,-0.0659864470362663,0.3582026958465576
1631632615280,0.3198925256729126,0.1366427689790725,-0.0659864470362663,0.3582026958465576
1631632615372,0.3198925256729126,0.1366427689790725,-0.0659864470362663,0.3582026958465576
1631632615461,0.3198925256729126,0.1366427689790725,-0.0659864470362663,0.3582026958465576
1631632615552,0.3198925256729126,0.1366427689790725,-0.0602990575134754,0.3582026958465576
1631632615649,0.3198925256729126,0.1366427689790725,-0.0479867681860923,0.3582026958465576
1631632615754,0.3198925256729126,0.1467767059803009,-0.0305184088647365,0.3582026958465576
1631632615886,0.3198925256729126,0.1556999385356903,-0.0089358007535338,0.3582026958465576
1631632615978,0.3198925256729126,0.1556999385356903,0.0138245606794953,0.3582026958465576
1631632616066,0.3198925256729126,0.1556999385356903,0.0335749238729476,0.3582026958465576
1631632616158,0.3198925256729126,0.1556999385356903,0.0249711070209741,0.3582026958465576
1631632616250,0.3198925256729126,0.1556999385356903,0.0122038377448916,0.3582026958465576
1631632616364,0.3198925256729126,0.1556999385356903,0.0193479862064123,0.3582026958465576
1631632616504,0.3198925256729126,0.1556999385356903,0.0289305485785007,0.3582026958465576
1631632616595,0.3198925256729126,0.1556999385356903,0.0289305485785007,0.3582026958465576
1631632616739,0.3198925256729126,0.1556999385356903,0.0289305485785007,0.3582026958465576
1631632616805,0.3198925256729126,0.1556999385356903,0.0289305485785007,0.3582026958465576
1631632616901,0.3198925256729126,0.1556999385356903,0.0289305485785007,0.3582026958465576
1631632616980,0.3198925256729126,0.1556999385356903,0.0289305485785007,0.3582026958465576
1631632617118,0.3198925256729126,0.1556999385356903,0.0289305485785007,0.3582026958465576
1631632617235,0.3198925256729126,0.1556999385356903,0.0289305485785007,0.3582026958465576
1631632617317,0.3198925256729126,0.1556999385356903,0.0289305485785007,0.3582026958465576
1631632617407,0.3198925256729126,0.1556999385356903,0.0289305485785007,0.3582026958465576
1631632617513,0.3198925256729126,0.1556999385356903,-0.1775606870651245,0.3582026958465576
1631632617615,0.3198925256729126,0.1556999385356903,-0.1628621518611908,0.3582026958465576
1631632617720,0.3198925256729126,0.1556999385356903,-0.1464363187551498,0.3582026958465576
1631632617810,0.3198925256729126,0.1556999385356903,-0.1580744981765747,0.3582026958465576
1631632617914,0.3198925256729126,0.1556999385356903,-0.1580744981765747,0.3582026958465576
1631632617990,0.3198925256729126,0.1556999385356903,-0.1580744981765747,0.3582026958465576
1631632618085,0.3198925256729126,0.1556999385356903,-0.1580744981765747,0.3582026958465576
1631632618200,0.3198925256729126,0.1556999385356903,-0.1580744981765747,0.3582026958465576
1631632618324,0.3198925256729126,0.1556999385356903,-0.1580744981765747,0.3582026958465576
1631632618438,0.3198925256729126,0.1556999385356903,-0.1674002557992935,0.3582026958465576
1631632618531,0.3198925256729126,0.1556999385356903,-0.1749985218048095,0.3582026958465576
1631632618645,0.3198925256729126,0.1556999385356903,-0.1604281365871429,0.3582026958465576
1631632618714,0.3198925256729126,0.1556999385356903,-0.1604281365871429,0.3582026958465576
1631632618801,0.3198925256729126,0.1556999385356903,-0.1604281365871429,0.3582026958465576
1631632618930,0.3198925256729126,0.1556999385356903,-0.1398768424987793,0.3582026958465576
1631632619019,0.3198925256729126,0.1556999385356903,-0.1265140175819397,0.3582026958465576
1631632619159,0.3198925256729126,0.1556999385356903,-0.1311133354902267,0.3582026958465576
1631632619241,0.3198925256729126,0.1556999385356903,-0.1311133354902267,0.3582026958465576
1631632619317,0.3198925256729126,0.1556999385356903,-0.1311133354902267,0.3582026958465576
1631632619406,0.3198925256729126,0.1556999385356903,-0.1311133354902267,0.3582026958465576
1631632619531,0.3198925256729126,0.1556999385356903,-0.1311133354902267,0.3582026958465576
1631632619623,0.3198925256729126,0.1556999385356903,-0.1311133354902267,0.3582026958465576
1631632619734,0.3198925256729126,0.1556999385356903,-0.1311133354902267,0.3582026958465576
1631632619830,0.3198925256729126,0.1556999385356903,-0.1311133354902267,0.3582026958465576
1631632619918,0.3198925256729126,0.1556999385356903,-0.1311133354902267,0.3582026958465576
1631632620030,0.3198925256729126,0.1556999385356903,-0.1311133354902267,0.3582026958465576
1631632620173,0.3198925256729126,0.1556999385356903,-0.1311133354902267,0.3582026958465576
1631632620264,0.3198925256729126,0.1556999385356903,-0.1311133354902267,0.3582026958465576
1631632620359,0.3198925256729126,0.1556999385356903,-0.1311133354902267,0.3582026958465576
1631632620428,0.3198925256729126,0.1556999385356903,-0.1311133354902267,0.3582026958465576
1631632620547,0.3198925256729126,0.1556999385356903,-0.1311133354902267,0.3582026958465576
1631632620659,0.3198925256729126,0.1556999385356903,-0.1311133354902267,0.3582026958465576
1631632620807,0.3198925256729126,0.1556999385356903,-0.1311133354902267,0.3582026958465576
1631632620890,0.3198925256729126,0.1556999385356903,-0.1311133354902267,0.3582026958465576
1631632620985,0.3198925256729126,0.2901636958122253,-0.1311133354902267,0.3582026958465576
1631632621043,0.3198925256729126,0.2803699672222137,-0.1311133354902267,0.3582026958465576
1631632621140,0.3198925256729126,0.2583236694335937,-0.1311133354902267,0.3582026958465576
1631632621251,0.3198925256729126,0.2326580584049224,-0.1311133354902267,0.3582026958465576
1631632621369,0.3198925256729126,0.209878534078598,-0.1311133354902267,0.3582026958465576
1631632621456,0.3198925256729126,0.1922118216753006,-0.1311133354902267,0.3582026958465576
1631632621568,0.3198925256729126,0.1773650497198104,-0.1277340054512024,0.3582026958465576
1631632621657,0.53791344165802,0.1635811626911163,-0.1074316129088401,0.3818829655647278
1631632621753,0.5761510133743286,0.1513633877038955,-0.1045180261135101,0.4010957479476928
1631632621850,0.6002075672149658,0.1425084918737411,-0.1147766411304473,0.4072625041007995
1631632621981,0.6123615503311157,0.138578787446022,-0.1291173845529556,0.4126198291778564
1631632622102,0.6203092336654663,0.1391362994909286,-0.1404456347227096,0.4236804544925689
1631632622184,0.6305661797523499,0.1353335678577423,-0.1485652178525924,0.440526008605957
1631632622265,0.6438189148902893,0.1245777308940887,-0.1569257527589798,0.4585364758968353
1631632622348,0.6555303335189819,0.1057222560048103,-0.166661724448204,0.4724273085594177
1631632622452,0.6616030335426331,0.08473801612854,-0.1744932532310485,0.4799886643886566
1631632622596,0.6609967947006226,0.071910411119461,-0.1733616888523101,0.4816685616970062
1631632622680,0.6546067595481873,0.0755043402314186,-0.1606697589159011,0.4780525863170624
1631632622774,0.6444521546363831,0.0932940989732742,-0.136693075299263,0.4697110652923584
1631632622893,0.64420086145401,0.1171096190810203,-0.1162441074848175,0.4728316366672516
1631632622962,0.6405818462371826,0.1400816589593887,-0.1097217500209808,0.465397834777832
1631632623057,0.6355865001678467,0.1610022336244583,-0.1171529293060302,0.4509576261043548
1631632623198,0.6296017169952393,0.1809860169887542,-0.1299040764570236,0.4355750977993011
1631632623300,0.6222794055938721,0.200401023030281,-0.1370645314455032,0.4258166849613189
1631632623389,0.614650547504425,0.2174097299575805,-0.1324334144592285,0.4237772524356842
1631632623495,0.6116045117378235,0.2298487573862075,-0.1174765154719352,0.4240497648715973
1631632623585,0.6181023716926575,0.2387182116508484,-0.0975774377584457,0.4173858761787414
1631632623673,0.6332398056983948,0.248239666223526,-0.0757976770401001,0.3992101550102234
1631632623800,0.650254487991333,0.2611940801143646,-0.0541272945702075,0.373311311006546
1631632623901,0.6637113690376282,0.2761277556419372,-0.0360165946185588,0.348904937505722
1631632623982,0.6727505326271057,0.2879815697669983,-0.0262080486863851,0.3310684859752655
1631632624095,0.6805018782615662,0.2920074760913849,-0.0298113133758306,0.3173924088478088
1631632624174,0.6899634003639221,0.285944253206253,-0.0478858649730682,0.3060327172279358
1631632624272,0.7012255787849426,0.2721787691116333,-0.0757504627108573,0.3005883991718292
1631632624406,0.7123343348503113,0.2560902237892151,-0.1036315560340881,0.3063415586948395
1631632624532,0.7203389406204224,0.242750883102417,-0.1216508224606514,0.3217841684818268
1631632624608,0.7265369892120361,0.2329044938087463,-0.1272037625312805,0.3412711024284363
1631632624722,0.7365664839744568,0.2237699627876281,-0.1257807165384292,0.3487496376037597
1631632624814,0.7565699219703674,0.2126971185207367,-0.1224406734108924,0.3515360653400421
1631632624903,0.7659631967544556,0.1999277919530868,-0.1160126104950904,0.3466710448265075
1631632625032,0.7744204998016357,0.188725471496582,-0.1237857267260551,0.3362480401992798
1631632625170,0.7763806581497192,0.1815014779567718,-0.1398637294769287,0.3292997479438782
1631632625251,0.7676944732666016,0.1757485568523407,-0.1645853072404861,0.3325668275356293
1631632625330,0.7501936554908752,0.1668822020292282,-0.1957419365644455,0.3426150381565094
1631632625425,0.7307966351509094,0.1540590524673462,-0.2266803681850433,0.3491984605789184
1631632625507,0.7168242335319519,0.1419575363397598,-0.2470778524875641,0.3488481044769287
1631632625637,0.7100281119346619,0.1355409920215606,-0.2481095641851425,0.3510738313198089
1631632625730,0.7086325287818909,0.1344274133443832,-0.2302052676677703,0.4819692075252533
1631632625838,0.7125747203826904,0.133433848619461,-0.1868393123149871,0.5685281157493591
1631632625904,0.6843340992927551,0.1293403804302215,-0.1624892503023147,0.6114990711212158
1631632626001,0.6600889563560486,0.1238604485988617,-0.1575573831796646,0.6254479289054871
1631632626114,0.6364185810089111,0.1232042834162712,-0.1600048393011093,0.6230615377426147
1631632626239,0.5926820635795593,0.1302234232425689,-0.1546513885259628,0.5934309363365173
1631632626353,0.4678998589515686,0.1399781852960586,-0.147297516465187,0.5934309363365173
1631632626451,0.4678998589515686,0.1452298015356063,-0.1540366560220718,0.5934309363365173
1631632626556,0.4678998589515686,0.1420805752277374,-0.1540366560220718,0.5934309363365173
1631632626644,0.4678998589515686,0.1327926069498062,-0.1540366560220718,0.5934309363365173
1631632626714,0.4678998589515686,0.1232757419347763,-0.1540366560220718,0.5934309363365173
1631632626847,0.4678998589515686,0.1180354952812194,-0.1540366560220718,0.5934309363365173
1631632626957,0.4678998589515686,0.1179253756999969,-0.1540366560220718,0.5934309363365173
1631632627050,0.4678998589515686,0.122511550784111,-0.1540366560220718,0.5934309363365173
1631632627148,0.4678998589515686,0.13167804479599,-0.1540366560220718,0.5934309363365173
1631632627232,0.4678998589515686,0.148389846086502,-0.1540366560220718,0.5491352081298828
1631632627346,0.4678998589515686,0.1719712764024734,-0.1624983847141266,0.4979443848133087
1631632627469,0.4678998589515686,0.1973994672298431,-0.153034046292305,0.4979443848133087
1631632627566,0.4678998589515686,0.2184448540210724,-0.1180232912302017,0.4979443848133087
1631632627653,0.4678998589515686,0.2296485602855682,-0.0760973915457725,0.4979443848133087
1631632627744,0.4678998589515686,0.2314291149377823,-0.0478554107248783,0.4979443848133087
1631632627850,0.7280171513557434,0.2310255914926529,-0.0362036637961864,0.6537466645240784
1631632627917,0.7114058136940002,0.2359517812728881,-0.0421383716166019,0.6472153663635254
1631632628067,0.6855951547622681,0.2465315163135528,-0.0612945184111595,0.6343023180961609
1631632628163,0.6569585800170898,0.2559213936328888,-0.0792334675788879,0.6178798079490662
1631632628253,0.6287413835525513,0.2580782473087311,-0.0893024280667305,0.5998104214668274
1631632628370,0.603814959526062,0.2534583806991577,-0.0945668891072273,0.5818386077880859
1631632628468,0.5844863653182983,0.245954692363739,-0.1026344820857048,0.5633944272994995
1631632628555,0.572968065738678,0.2372178435325622,-0.1165509968996048,0.5432724356651306
1631632628679,0.5693253874778748,0.2256839275360107,-0.1331589668989181,0.5209137201309204
1631632628812,0.570699155330658,0.2070471197366714,-0.1490972340106964,0.4981066584587097
1631632628879,0.573291540145874,0.1808350086212158,-0.1640906184911728,0.4768889248371124
1631632628999,0.5749581456184387,0.1499930322170257,-0.1822278350591659,0.458537220954895
1631632629086,0.5676331520080566,0.1187910214066505,-0.2072366029024124,0.4306627810001373
1631632629170,0.5555059313774109,0.0926100388169288,-0.2354524880647659,0.3950011432170868
1631632629348,0.5439285039901733,0.0764326378703117,-0.2608709335327148,0.355769544839859
1631632629426,0.539419412612915,0.0708957910537719,-0.2784703373908996,0.3200031220912933
1631632629504,0.5442843437194824,0.0717870146036148,-0.2861582040786743,0.2939696609973907
1631632629574,0.5577918291091919,0.0749847590923309,-0.2871861159801483,0.2789855301380157
1631632629687,0.5755476355552673,0.0791055783629417,-0.28953418135643,0.2693141400814056
1631632629754,0.5933418869972229,0.0847806930541992,-0.2974504828453064,0.2584404647350311
1631632629906,0.6067019701004028,0.0918816030025482,-0.3050540685653686,0.2431324571371078
1631632629998,0.6120145916938782,0.0999262928962707,-0.3023161888122558,0.2272181957960128
1631632630090,0.6080318689346313,0.1095180287957191,-0.2887456715106964,0.2161711901426315
1631632630184,0.5956942439079285,0.1223983019590377,-0.2737025916576385,0.2120677381753921
1631632630272,0.5790165066719055,0.140468493103981,-0.2629647254943847,0.2120261341333389
1631632630381,0.5631585121154785,0.1639431267976761,-0.2537420690059662,0.2127869427204132
1631632630521,0.5510647296905518,0.1906210035085678,-0.2431703209877014,0.2118108570575714
1631632630600,0.5424124598503113,0.2168838679790496,-0.2322126924991607,0.2083679884672165
1631632630716,0.5352668762207031,0.2385757714509964,-0.2225626856088638,0.20223169028759
1631632630802,0.5281484723091125,0.2514179348945617,-0.214651271700859,0.1931600272655487
1631632630896,0.520256757736206,0.2530801594257355,-0.2088242620229721,0.1791823357343673
1631632630983,0.5118002891540527,0.2448832988739013,-0.2052031904458999,0.157596617937088
1631632631136,0.5017490983009338,0.2314104884862899,-0.2009123116731643,0.1321278065443039
1631632631226,0.4895357191562652,0.2183341085910797,-0.1892163455486297,0.1145721897482872
1631632631298,0.4756269454956054,0.2094921469688415,-0.1675574481487274,0.1130913943052291
1631632631405,0.4628407657146454,0.2061529606580734,-0.1432712525129318,0.1238282844424247
1631632631530,0.4561402797698974,0.207727774977684,-0.1262972205877304,0.1361030340194702
1631632631588,0.4577441215515136,0.2125073820352554,-0.1185148134827613,0.1451643854379654
1631632631741,0.4675735235214233,0.2189561873674392,-0.111725777387619,0.1583166271448135
1631632631834,0.4822327792644501,0.2255551964044571,-0.0970049202442169,0.1848915964365005
1631632631921,0.4974569976329803,0.2298838496208191,-0.075956255197525,0.2234771102666854
1631632632019,0.5113959312438965,0.2288304567337036,-0.0577039569616317,0.2625702321529388
1631632632101,0.5235297679901123,0.2209472805261612,-0.0481363199651241,0.2910993099212646
1631632632191,0.532640278339386,0.2086977064609527,-0.0471090003848075,0.3080089092254638
1631632632323,0.5376467108726501,0.1981276422739029,-0.0497842654585838,0.3183296918869018
1631632632437,0.5405282378196716,0.1954589188098907,-0.0506872497498989,0.3269017338752746
1631632632529,0.5452103018760681,0.2030209600925445,-0.0472163781523704,0.334997296333313
1631632632632,0.5541883111000061,0.2170286327600479,-0.0409408621490001,0.3428090512752533
1631632632714,0.5669395923614502,0.2310074567794799,-0.038865327835083,0.349052220582962
1631632632806,0.5814684629440308,0.2404689192771911,-0.047996699810028,0.3513635396957397
1631632632948,0.5959981083869934,0.2444113492965698,-0.0675502121448516,0.3486328721046448
1631632633036,0.6083781719207764,0.2434549182653427,-0.0895308256149292,0.3538010716438293
1631632633132,0.6223496198654175,0.2387220710515976,-0.1035130247473716,0.3629437685012817
1631632633232,0.6354817152023315,0.2311003506183624,-0.1066479980945587,0.3707863688468933
1631632633330,0.6460797190666199,0.2210963070392608,-0.1054566502571106,0.3687068521976471
1631632633466,0.6539465188980103,0.2095061838626861,-0.106289155781269,0.3519297242164612
1631632633561,0.6594417691230774,0.1974648982286453,-0.1100976094603538,0.3254422843456268
1631632633653,0.6637889742851257,0.1871216148138046,-0.1155174970626831,0.3036326467990875
1631632633740,0.6693634390830994,0.1803217679262161,-0.1211624443531036,0.2961207032203674
1631632633858,0.6779816746711731,0.1761187463998794,-0.1281386613845825,0.3003289401531219
1631632633946,0.6885249614715576,0.1711333990097046,-0.1373970806598663,0.3086978197097778
1631632634035,0.6961800456047058,0.1630146205425262,-0.150086835026741,0.318685919046402
1631632634158,0.6961800456047058,0.153353214263916,-0.163628876209259,0.318685919046402
1631632634248,0.6961800456047058,0.1449400782585144,-0.1753399968147277,0.318685919046402
1631632634341,0.6961800456047058,0.1398002803325653,-0.1819255799055099,0.318685919046402
1631632634447,0.6961800456047058,0.1397800296545028,-0.182606965303421,0.318685919046402
1631632634549,0.2292751967906952,0.146664023399353,-0.179347425699234,0.1250735521316528
1631632634647,0.2368929833173751,0.1586191356182098,-0.1781880110502243,0.1455622166395187
1631632634783,0.249988317489624,0.1707690805196762,-0.1853480190038681,0.1711072623729705
1631632634881,0.2750079333782196,0.1804225891828537,-0.2031121999025344,0.1910855025053024
1631632634961,0.3185529112815857,0.1890124380588531,-0.2283765077590942,0.1981572955846786
1631632635060,0.3730472028255462,0.1990538388490677,-0.2526989579200744,0.1952267438173294
1631632635163,0.4226736426353454,0.210020825266838,-0.2655729353427887,0.1912211328744888
1631632635256,0.4572183787822723,0.2209416478872299,-0.2623450756072998,0.1934359073638916
1631632635399,0.4764623641967773,0.2324822545051574,-0.2454446107149124,0.2028321623802185
1631632635486,0.4865372776985168,0.2457325756549835,-0.2191440314054489,0.2151987254619598
1631632635577,0.4935646951198578,0.2593331336975097,-0.1854762136936187,0.2263704985380172
1631632635679,0.4989808797836303,0.2697140276432037,-0.1512103974819183,0.2358953058719635
1631632635748,0.513775110244751,0.2740719020366668,-0.1203044801950454,0.2544613182544708
1631632635836,0.5255500674247742,0.2713113725185394,-0.0919260904192924,0.2722298204898834
1631632635996,0.5365297794342041,0.2611487209796905,-0.0637160018086433,0.2876931428909302
1631632636104,0.5487542748451233,0.2441718876361847,-0.0365304574370384,0.2989807426929474
1631632636194,0.5620477199554443,0.2230691909790039,-0.0158196613192558,0.3038480579853058
1631632636282,0.5727986693382263,0.2012176066637039,-0.0052952691912651,0.3034075200557709
1631632636380,0.5759593844413757,0.1806657165288925,-0.0031205294653773,0.3039664030075073
1631632636477,0.5676389336585999,0.1611274033784866,-0.003011283930391,0.3126060664653778
1631632636591,0.5479612350463867,0.1431314498186111,0.0012461997102946,0.3284862637519836
1631632636705,0.5211355686187744,0.1286203563213348,0.0112646343186497,0.3432956635951996
1631632636797,0.4930379688739776,0.1157436966896057,0.0242688208818435,0.3503008484840393
1631632636888,0.4678696095943451,0.0983536466956138,0.0359506271779537,0.3494520783424377
1631632636984,0.4457739889621734,0.0714014992117881,0.0417105518281459,0.3446266055107116
1631632637117,0.4255111813545227,0.0375430881977081,0.0400141179561615,0.3385469019412994
1631632637247,0.4113498032093048,0.0069630751386284,0.0326767265796661,0.3313704133033752
1631632637333,0.4105901420116424,-0.0092360377311706,0.0228328723460435,0.3241374790668487
1631632637423,0.4233886301517486,-0.0069627179764211,0.0109800491482019,0.3195817470550537
1631632637513,0.4393753707408905,0.0087560797110199,-0.0038825906813144,0.3185162246227264
1631632637611,0.4479864239692688,0.0288498550653457,-0.0208747871220111,0.3185457587242126
1631632637714,0.447919636964798,0.047157060354948,-0.0353226028382778,0.3187125027179718
1631632637847,0.4456772208213806,0.0647969022393226,-0.0437683723866939,0.3191815912723541
1631632637948,0.4471161663532257,0.086952157318592,-0.0460816174745559,0.3186171352863312
1631632638023,0.4546684324741363,0.1162283793091774,-0.0446891114115715,0.3136394321918487
1631632638110,0.4689586758613586,0.1485345363616943,-0.043313879519701,0.3038522005081177
1631632638207,0.4878576993942261,0.1758804470300674,-0.0462937392294406,0.2932903170585632
1631632638305,0.5058076977729797,0.192939817905426,-0.0576232187449932,0.2847298979759216
1631632638427,0.5169873833656311,0.2001468688249588,-0.077486015856266,0.2762657105922699
1631632638517,0.5198105573654175,0.202013686299324,-0.101018987596035,0.2648862898349762
1631632638631,0.5165479779243469,0.2028812319040298,-0.1222470477223396,0.2513483166694641
1631632638719,0.5083098411560059,0.2052413076162338,-0.1379260122776031,0.2374109625816345
1631632638815,0.4957382380962372,0.2104362994432449,-0.1483995467424392,0.2214179635047912
1631632638901,0.4825736880302429,0.2185724973678589,-0.1550451964139938,0.1998951286077499
1631632639053,0.4746227264404297,0.2283994853496551,-0.1602080315351486,0.1737865805625915
1631632639125,0.4755139648914337,0.2381788194179535,-0.1656045764684677,0.1483025997877121
1631632639237,0.4843222200870514,0.2470638453960418,-0.1701785326004028,0.125603437423706
1631632639335,0.4994588792324066,0.2547685503959656,-0.1706313341856002,0.1033986583352088
1631632639416,0.5233850479125977,0.2592278122901916,-0.1666910499334335,0.0789242386817932
1631632639529,0.5569990873336792,0.2578339874744415,-0.1623494029045105,0.0533505640923976
1631632639655,0.5930894613265991,0.2505950331687927,-0.1609153300523758,0.0288351587951183
1631632639748,0.5923647880554199,0.242469310760498,-0.1599284708499908,0.0068638087250292
1631632639838,0.5926079154014587,0.2402073591947555,-0.1531490832567215,-0.0128838066011667
1631632639931,0.6005337834358215,0.2466041296720504,-0.1376672238111496,-0.0271623451262712
1631632640015,0.6193371415138245,0.2581092119216919,-0.1165134161710739,-0.0335756614804267
1631632640135,0.6464021801948547,0.2681636810302734,-0.0962321758270263,-0.0338671430945396
1631632640267,0.6772561073303223,0.2712653577327728,-0.0824839696288108,-0.0306550841778516
1631632640350,0.7078839540481567,0.2649406492710113,-0.0777732133865356,-0.0263112969696521
1631632640440,0.7351913452148438,0.2506298422813415,-0.0814093351364135,-0.0224553477019071
1631632640551,0.7593560218811035,0.2327515184879303,-0.0888392105698585,0.1061400324106216
1631632640650,0.7490068674087524,0.2163377851247787,-0.0947042256593704,0.1936200112104416
1631632640732,0.7303774952888489,0.2040841281414032,-0.0968773812055587,0.2566410303115845
1631632640880,0.7054025530815125,0.1942966282367706,-0.0982570946216583,0.3039811551570892
1631632640968,0.6666534543037415,0.1838835775852203,-0.1022643372416496,0.3383473455905914
1631632641068,0.5978831648826599,0.1705271601676941,-0.1100228950381279,0.3598830997943878
1631632641159,0.4884578585624695,0.1537881195545196,-0.1201003417372703,0.3752670884132385
1631632641239,0.4884636700153351,0.1331731528043747,-0.1307008415460586,0.3585402071475982
1631632641369,0.4978189468383789,0.1087196767330169,-0.1414991319179535,0.3469483852386474
1631632641466,0.5127005577087402,0.0814768448472023,-0.1543294191360473,0.3349277973175049
1631632641570,0.5241840481758118,0.0550828017294406,-0.1709926724433899,0.3209903538227081
1631632641691,0.5271125435829163,0.0349417552351951,-0.1897450983524322,0.3076933324337005
1631632641763,0.5247208476066589,0.0254804100841283,-0.2016050666570663,0.2979243993759155
1631632641888,0.5232932567596436,0.0279080029577016,-0.1963527947664261,0.291724145412445
1631632641986,0.5247140526771545,0.037733856588602,-0.1736128628253936,0.2875137329101562
1631632642084,0.5254799723625183,0.0462662987411022,-0.1458378434181213,0.2636042535305023
1631632642193,0.5223073959350586,0.0462575033307075,-0.126816526055336,0.2411374747753143
1631632642284,0.5165842771530151,0.0355132594704628,-0.1225390955805778,0.219993844628334
1631632642377,0.5083003044128418,0.0178499575704336,-0.1293261051177978,0.2005040198564529
1631632642467,0.4992591738700866,-0.0006650123395957,-0.1397491097450256,0.186185747385025
1631632642564,0.4934719800949096,-0.0152256553992629,-0.1470814943313598,0.1820320188999176
1631632642688,0.4923150241374969,-0.0231189969927072,-0.1460925787687301,0.1847808063030243
1631632642788,0.4914582371711731,-0.0230257511138916,-0.1354158222675323,0.1868518441915512
1631632642882,0.4843747913837433,-0.0152562474831938,-0.1188695877790451,0.1854719966650009
1631632642973,0.4712893366813659,0.0001250711939064,-0.1015921086072921,0.1866796612739563
1631632643075,0.4607333242893219,0.0231928303837776,-0.0872217565774917,0.1962458491325378
1631632643174,0.4598041176795959,0.0519136227667331,-0.077722355723381,0.2131200730800628
1631632643317,0.4647167921066284,0.0839634612202644,-0.0752517059445381,0.2308176010847091
1631632643412,0.4677864909172058,0.1160934790968895,-0.0814077779650688,0.2449112683534622
1631632643493,0.4697515368461609,0.1444088816642761,-0.0938887894153595,0.2541887164115906
1631632643606,0.4780075848102569,0.1660959273576736,-0.1062943041324615,0.2604342699050903
1631632643672,0.4948329329490661,0.1799879521131515,-0.1130702346563339,0.2672653496265411
1631632643790,0.5120794773101807,0.1877835243940353,-0.1106924042105674,0.2775894999504089
1631632643918,0.521581768989563,0.192960724234581,-0.0973091498017311,0.2910224199295044
1631632644007,0.5233719348907471,0.1983766257762909,-0.0737124904990196,0.3047337532043457
1631632644099,0.523581326007843,0.2044543325901031,-0.0473829917609691,0.3148402869701385
1631632644191,0.5285360217094421,0.2109069675207138,-0.0306739546358585,0.3192600011825561
1631632644302,0.5410188436508179,0.2175102233886718,-0.0312509983777999,0.3179299533367157
1631632644418,0.5592458248138428,0.2244012206792831,-0.0472729578614234,0.3116554617881775
1631632644544,0.5766924619674683,0.2307547330856323,-0.0708451122045517,0.3010773658752441
1631632644656,0.5858964920043945,0.2344137281179428,-0.0942093059420585,0.287693589925766
1631632644726,0.584713339805603,0.2339598089456558,-0.1136270314455032,0.2757424116134643
1631632644815,0.5783200860023499,0.2279435694217682,-0.1294469982385635,0.2697153985500335
1631632644908,0.5754801034927368,0.2156810462474823,-0.1447579562664032,0.2680722177028656
1631632645001,0.579079806804657,0.1996035277843475,-0.1633336097002029,0.264565110206604
1631632645126,0.5856221318244934,0.1855320930480957,-0.1866422295570373,0.2560898661613464
1631632645220,0.59171462059021,0.1789517849683761,-0.2101581841707229,0.2472846806049347
1631632645332,0.5986971855163574,0.1796109527349472,-0.2284606397151947,0.2456097602844238
1631632645435,0.6085799932479858,0.181829422712326,-0.2419503182172775,0.251902312040329
1631632645510,0.6189886331558228,0.1801661401987075,-0.2564460039138794,0.2591597437858581
1631632645626,0.6252380013465881,0.173601433634758,-0.2718955278396606,0.2613174319267273
1631632645773,0.6249279975891113,0.162808671593666,-0.2777411639690399,0.2586905062198639
1631632645851,0.6197559833526611,0.1500068306922912,-0.2654544413089752,0.257350742816925
1631632645980,0.6130554676055908,0.1363527327775955,-0.2399579584598541,0.2628328204154968
1631632646043,0.6082872748374939,0.1217807903885841,-0.2132326811552047,0.2740164697170257
1631632646136,0.6071943044662476,0.1055214554071426,-0.1915214210748672,0.2847583889961242
1631632646227,0.6088581085205078,0.0867308974266052,-0.1729274094104766,0.2881227433681488
1631632646355,0.6105746626853943,0.0660725831985473,-0.153919443488121,0.2826317250728607
1631632646447,0.6084355711936951,0.0469353534281253,-0.1329780668020248,0.2747240960597992
1631632646547,0.5997759699821472,0.0360640473663806,-0.111329048871994,0.2739852666854858
1631632646631,0.5836881995201111,0.0386141538619995,-0.0907670482993125,0.2814297080039978
1631632646718,0.5626178979873657,0.0518380887806415,-0.0738126412034034,0.2877054810523987
1631632646835,0.5422449707984924,0.0670875012874603,-0.0632884800434112,0.2830859422683716
1631632646980,0.5293872952461243,0.0788553059101104,-0.0606189966201782,0.2676697969436645
1631632647051,0.5252163410186768,0.0881299600005149,-0.0637118071317672,0.2531019449234009
1631632647166,0.5248407125473022,0.0982675328850746,-0.0705583095550537,0.241913765668869
1631632647254,0.5247203707695007,0.1112422496080398,-0.0723760351538658,0.2389989197254181
1631632647339,0.5203500986099243,0.12603060901165,-0.0769383609294891,0.2423549890518188
1631632647437,0.5093734264373779,0.1432297676801681,-0.0837253034114837,0.24683578312397
1631632647584,0.4926155209541321,0.1658822149038314,-0.0907969176769256,0.2497846484184265
1631632647673,0.4745625257492065,0.1755532175302505,-0.0966845080256462,0.2515323162078857
1631632647768,0.462048590183258,0.1857247203588485,-0.1032296046614646,0.2542840242385864
1631632647857,0.4586049020290375,0.196775272488594,-0.1137180030345916,0.2578596174716949
1631632647955,0.4595342576503753,0.207739308476448,-0.1293464750051498,0.257932960987091
1631632648041,0.4566579163074493,0.2142969518899917,-0.1483565270900726,0.2481829822063446
1631632648164,0.4566579163074493,0.2111643999814987,-0.1689649075269699,0.2481829822063446
1631632648288,0.4566579163074493,0.1981650739908218,-0.1892614513635635,0.2481829822063446
1631632648381,0.4566579163074493,0.1833919137716293,-0.1892614513635635,0.2481829822063446
1631632648484,0.4566579163074493,0.1774470955133438,-0.1892614513635635,0.2481829822063446
1631632648579,0.4566579163074493,0.1844351291656494,-0.1892614513635635,0.2481829822063446
1631632648642,0.4566579163074493,0.202243372797966,-0.1892614513635635,0.2481829822063446
1631632648791,0.4566579163074493,0.202243372797966,-0.1892614513635635,0.2481829822063446
1631632648885,0.4566579163074493,0.202243372797966,-0.1892614513635635,0.2481829822063446
1631632648997,0.4566579163074493,0.202243372797966,-0.1892614513635635,0.2481829822063446
1631632649087,0.4566579163074493,0.202243372797966,-0.1892614513635635,0.2481829822063446
1631632649164,0.4566579163074493,0.202243372797966,-0.1892614513635635,0.2481829822063446
1631632649267,0.4566579163074493,0.202243372797966,-0.1892614513635635,0.2481829822063446
1631632649400,0.4566579163074493,0.202243372797966,-0.1892614513635635,0.2481829822063446
1631632649499,0.4566579163074493,0.202243372797966,-0.1892614513635635,0.2481829822063446
1631632649615,0.4566579163074493,0.202243372797966,-0.1892614513635635,0.2481829822063446
1631632649704,0.4566579163074493,0.202243372797966,0.2401807010173797,0.2481829822063446
1631632649792,0.4566579163074493,0.202243372797966,0.2159072160720825,0.2481829822063446
1631632649902,0.4566579163074493,0.202243372797966,0.1830590367317199,0.2481829822063446
1631632650010,0.4566579163074493,0.202243372797966,0.1515910178422927,0.2481829822063446
1631632650111,0.4566579163074493,0.202243372797966,0.1252540498971939,0.2481829822063446
1631632650196,0.4566579163074493,0.202243372797966,0.1040865704417228,0.2481829822063446
1631632650330,0.4566579163074493,0.202243372797966,0.0862621068954467,0.2481829822063446
1631632650395,0.4566579163074493,0.202243372797966,0.071827195584774,0.2481829822063446
1631632650467,0.4566579163074493,0.202243372797966,0.0635112598538398,0.2481829822063446
1631632650633,0.4566579163074493,0.202243372797966,0.0632028728723526,0.2481829822063446
1631632650726,0.4566579163074493,0.202243372797966,0.0679607316851615,0.2481829822063446
1631632650796,0.4566579163074493,0.202243372797966,0.0730368793010711,0.2481829822063446
1631632650907,0.4566579163074493,0.202243372797966,0.0695158094167709,0.2481829822063446
1631632651024,0.4566579163074493,0.202243372797966,0.0521430112421512,0.2481829822063446
1631632651098,0.4566579163074493,0.202243372797966,0.0274013597518205,0.2481829822063446
1631632651238,0.4566579163074493,0.202243372797966,0.0038731906097382,0.2481829822063446
1631632651331,0.4566579163074493,0.202243372797966,-0.0063036037608981,0.2481829822063446
1631632651423,0.4566579163074493,0.202243372797966,-0.0036619314923882,0.2481829822063446
1631632651522,0.4566579163074493,0.202243372797966,0.0065869013778865,0.2481829822063446
1631632651602,0.4566579163074493,0.1730365753173828,0.0050336401909589,0.2481829822063446
1631632651693,0.4566579163074493,0.1511756926774978,0.0012101334286853,0.2481829822063446
1631632651826,0.504250705242157,0.0972881093621254,-0.0071473205462098,0.2481829822063446
1631632651934,0.457136869430542,0.1112600788474083,-0.0214819889515638,0.1568727195262909
1631632652020,0.4356974065303802,0.108067862689495,-0.0466229133307933,0.1909419298171997
1631632652137,0.4356974065303802,0.0933889001607894,-0.0875914394855499,0.1909419298171997
1631632652203,0.4356974065303802,0.0745989233255386,-0.1437625437974929,0.1909419298171997
1631632652298,0.4356974065303802,0.0745989233255386,-0.2040260583162307,0.1909419298171997
1631632652447,0.4356974065303802,0.0745989233255386,-0.2523409724235534,0.1909419298171997
1631632652558,0.4356974065303802,0.0745989233255386,-0.2262486666440963,0.1909419298171997
1631632652625,0.4356974065303802,0.0745989233255386,-0.2038238942623138,0.1909419298171997
1631632652719,0.4356974065303802,0.0745989233255386,-0.1950837075710296,0.1909419298171997
1631632652833,0.4356974065303802,0.0745989233255386,-0.1989487707614898,0.1909419298171997
1631632652923,0.4356974065303802,0.0745989233255386,-0.2077114731073379,0.1909419298171997
1631632653051,0.3833549320697784,0.0773374661803245,-0.2130325734615326,0.1909419298171997
1631632653141,0.3160025477409363,0.0819784179329872,-0.2178036868572235,0.147590234875679
1631632653241,0.3160025477409363,0.0758440345525741,-0.2150220721960067,0.147590234875679
1631632653359,0.3160025477409363,0.0506587140262126,-0.2028886377811432,0.147590234875679
1631632653439,0.3160025477409363,0.0506587140262126,-0.1853549629449844,0.147590234875679
1631632653524,0.3160025477409363,0.0506587140262126,-0.1686597317457199,0.147590234875679
1631632653658,0.3160025477409363,0.0506587140262126,-0.1565772444009781,0.147590234875679
1631632653746,0.3160025477409363,0.0506587140262126,-0.1470621675252914,0.147590234875679
1631632653864,0.3160025477409363,0.0506587140262126,-0.1380614340305328,0.147590234875679
1631632653953,0.3160025477409363,0.0506587140262126,-0.1308437436819076,0.147590234875679
1631632654068,0.3160025477409363,0.0506587140262126,-0.1251339763402938,0.147590234875679
1631632654132,0.3160025477409363,0.0506587140262126,-0.1175137087702751,0.147590234875679
1631632654264,0.3160025477409363,0.0506587140262126,-0.1047373786568641,0.147590234875679
1631632654371,0.5984461903572083,0.0506587140262126,-0.0893542990088462,0.147590234875679
1631632654487,0.5987076163291931,0.1509473323822021,-0.0768335238099098,0.1487457901239395
1631632654568,0.5987076163291931,0.1242172941565513,-0.0718603581190109,0.1487457901239395
1631632654667,0.5987076163291931,0.1003327891230583,-0.074793629348278,0.1487457901239395
1631632654745,0.5987076163291931,0.084433801472187,-0.0845068097114563,0.1487457901239395
1631632654886,0.5987076163291931,0.0760439112782478,-0.0982362404465675,0.1487457901239395
1631632654975,0.5987076163291931,0.0702511444687843,-0.1118702739477157,0.1487457901239395
1631632655078,0.5987076163291931,0.0651744231581687,-0.1221696585416793,0.1487457901239395
1631632655160,0.5987076163291931,0.0614714585244655,-0.1292024999856948,0.1487457901239395
1631632655255,0.5987076163291931,0.0614714585244655,-0.1341678947210312,0.1487457901239395
1631632655359,0.5987076163291931,0.0614714585244655,-0.1352115124464035,0.1487457901239395
1631632655487,0.5987076163291931,0.0614714585244655,-0.1269049644470214,0.1487457901239395
1631632655581,0.6013116240501404,0.0614714585244655,-0.1398051381111145,0.1487457901239395
1631632655685,0.6013116240501404,0.0446140393614769,-0.1593421101570129,0.1487457901239395
1631632655767,0.6013116240501404,0.0267651658505201,-0.1822268217802047,0.1487457901239395
1631632655899,0.6013116240501404,0.01036670897156,-0.2026571780443191,0.1487457901239395
1631632655971,0.6013116240501404,0.0006240285001695,-0.2157091647386551,0.1487457901239395
1631632656094,0.6013116240501404,0.0012253304012119,-0.2191186398267746,0.1487457901239395
1631632656206,0.6013116240501404,0.009723711758852,-0.1763929426670074,0.1487457901239395
1631632656296,0.6013116240501404,0.0500385873019695,-0.1477324813604354,0.1487457901239395
1631632656385,0.6013116240501404,0.0916301235556602,-0.1341955363750457,0.1487457901239395
1631632656479,0.6013116240501404,0.1331037580966949,-0.1304970681667328,0.1487457901239395
1631632656572,0.6013116240501404,0.1713566780090332,-0.1290961056947708,0.1487457901239395
1631632656697,0.6013116240501404,0.2112523317337036,-0.123848520219326,0.1487457901239395
1631632656792,0.806912899017334,0.225179448723793,-0.119400717318058,0.4764072597026825
1631632656894,0.7922093868255615,0.2358399480581283,-0.1281274706125259,0.4861029982566833
1631632656991,0.7668631672859192,0.2369290888309478,-0.1608913391828537,0.4847717881202698
1631632657088,0.7368126511573792,0.2302010506391525,-0.154838889837265,0.4785908162593841
1631632657178,0.7089114189147949,0.2245171666145324,-0.1373046040534973,0.4731501340866089
1631632657322,0.7089114189147949,0.2277073264122009,-0.1176315620541572,0.4701346755027771
1631632657436,0.7089114189147949,0.2415553033351898,-0.1033309698104858,0.4701346755027771
1631632657525,0.7089114189147949,0.2616594731807709,-0.0959418267011642,0.4701346755027771
1631632657624,0.7089114189147949,0.2799142003059387,-0.0920824408531189,0.4650666117668152
1631632657705,0.7089114189147949,0.2799142003059387,-0.0985901355743408,0.4650666117668152
1631632657824,0.7089114189147949,0.2879899442195892,-0.0952633097767829,0.4650666117668152
1631632657926,0.7089114189147949,0.2944360673427582,-0.0828976854681968,0.4650666117668152
1631632658034,0.7049440741539001,0.3004442751407623,-0.0651825219392776,0.4788564145565033
1631632658107,0.6802739500999451,0.3076222836971283,-0.0466884858906269,0.4809508323669433
1631632658227,0.6377063989639282,0.3138370513916015,-0.0326940007507801,0.4721138477325439
1631632658326,0.582147479057312,0.3168661594390869,-0.0243938956409692,0.4573382139205932
1631632658400,0.5965967178344727,0.3199248015880584,-0.0208077058196067,0.4429591298103332
1631632658575,0.6037406921386719,0.3313169777393341,-0.0215818062424659,0.4337237179279327
1631632658642,0.6004068851470947,0.3571688234806061,-0.0296631436794996,0.4337237179279327
1631632658756,0.5837119221687317,0.3452624678611755,-0.0479668900370597,0.4337237179279327
1631632658847,0.5367523431777954,0.3252919614315033,-0.0728410333395004,0.4337237179279327
1631632658940,0.5064160227775574,0.2894127964973449,-0.096945434808731,0.4337237179279327
1631632659027,0.4913413524627685,0.2368355095386505,-0.1141837015748024,0.4337237179279327
1631632659133,0.4870224297046661,0.1778703182935714,-0.1253080368041992,0.4337237179279327
1631632659256,0.4869190454483032,0.1778703182935714,-0.1345966309309005,0.4337237179279327
1631632659336,0.4858299195766449,0.1778703182935714,-0.1446470022201538,0.4337237179279327
1631632659436,0.4809470772743225,0.1778703182935714,-0.1538796871900558,0.4337237179279327
1631632659523,0.472027063369751,0.1778703182935714,-0.1602133512496948,0.2560127377510071
1631632659633,0.4614156782627105,0.1778703182935714,-0.163854032754898,0.2277232259511947
1631632659761,0.4559964537620544,0.1778703182935714,-0.1613319814205169,0.2104740887880325
1631632659852,0.4609743952751159,0.1778703182935714,-0.1517725735902786,0.2104740887880325
1631632659941,0.4464131295681,0.1778703182935714,-0.1356676965951919,0.2104740887880325
1631632660048,0.4529983401298523,0.1778703182935714,-0.115257129073143,0.2104740887880325
1631632660131,0.4706897735595703,0.1778703182935714,-0.0926230102777481,0.2104740887880325
1631632660219,0.4889860153198242,0.2014255970716476,-0.0710130929946899,0.2104740887880325
1631632660365,0.5024950504302979,0.2014255970716476,-0.0551852658390998,0.1929838508367538
1631632660450,0.5133992433547974,0.2014255970716476,-0.0461013279855251,0.1749294549226761
1631632660542,0.5217028260231018,0.2014255970716476,-0.040969219058752,0.1749294549226761
1631632660635,0.5267882347106934,0.2014255970716476,-0.0357277505099773,0.1749294549226761
1631632660750,0.5419198274612427,0.2014255970716476,-0.029046481475234,0.1749294549226761
1631632660840,0.5530965924263,0.1442955881357193,-0.0220790263265371,0.1749294549226761
1631632660967,0.5602284669876099,0.1404310017824173,-0.0168973505496978,0.1749294549226761
1631632661091,0.5653985738754272,0.1359467804431915,-0.0161063466221094,0.1749294549226761
1631632661169,0.5717682838439941,0.1278485208749771,-0.0201601777225732,0.1749294549226761
1631632661270,0.5818295478820801,0.1198562756180763,-0.0278078168630599,0.1749294549226761
1631632661376,0.5866244435310364,0.1198562756180763,-0.0278488975018262,0.1749294549226761
1631632661450,0.580154538154602,0.1198562756180763,0.0080714486539363,0.1749294549226761
1631632661616,0.5648035407066345,0.1198562756180763,0.090414747595787,0.1749294549226761
1631632661689,0.548438310623169,0.1198562756180763,0.0927221477031707,0.1749294549226761
1631632661780,0.539377748966217,0.1198562756180763,0.0975661426782608,0.1749294549226761
1631632661863,0.5421223044395447,0.1198562756180763,0.1087668910622596,0.1749294549226761
1631632662007,0.5421223044395447,0.1198562756180763,0.1266947090625763,0.1749294549226761
1631632662092,0.5421223044395447,0.1148632615804672,0.1478325128555297,0.1749294549226761
1631632662183,0.5421223044395447,0.1093422621488571,0.1686879843473434,0.1749294549226761
1631632662287,0.5162037014961243,0.1019792780280113,0.189713567495346,0.1749294549226761
1631632662389,0.4889506697654724,0.0939592272043228,0.2134756296873092,0.1749294549226761
1631632662523,0.4889506697654724,0.0939592272043228,0.2424441277980804,0.1749294549226761
1631632662585,0.4889506697654724,0.0939592272043228,0.2800300717353821,0.1749294549226761
1631632662670,0.4889506697654724,0.0939592272043228,0.3336600959300995,0.1749294549226761
1631632662809,0.4889506697654724,0.0939592272043228,0.320962131023407,0.1749294549226761
1631632662901,0.4889506697654724,0.0939592272043228,0.2874816656112671,0.1749294549226761
1631632663007,0.4889506697654724,0.0939592272043228,0.1666117459535598,0.1749294549226761
1631632663100,0.4889506697654724,0.0939592272043228,-0.2988242208957672,0.1749294549226761
1631632663185,0.4889506697654724,0.0939592272043228,-0.2913337349891662,0.1749294549226761
1631632663272,0.4889506697654724,0.0939592272043228,-0.2669297158718109,0.1749294549226761
1631632663404,0.4889506697654724,0.0939592272043228,-0.233297049999237,0.1749294549226761
1631632663498,0.4889506697654724,0.0939592272043228,-0.1966875493526458,0.1749294549226761
1631632663610,0.4889506697654724,0.0939592272043228,-0.1629526913166046,0.1749294549226761
1631632663725,0.4889506697654724,0.0939592272043228,-0.1373222172260284,0.1749294549226761
1631632663789,0.4889506697654724,0.0939592272043228,-0.1265424042940139,0.1749294549226761
1631632663905,0.4889506697654724,0.0939592272043228,-0.1270486712455749,0.1749294549226761
1631632664009,0.4889506697654724,0.0939592272043228,-0.1337654441595077,0.1749294549226761
1631632664121,0.4889506697654724,0.0449704192578792,-0.1401431113481521,0.1749294549226761
1631632664239,0.4889506697654724,0.0710079297423362,-0.1435017138719558,0.1749294549226761
1631632664319,0.4527389705181122,0.0883290916681289,-0.1394393891096115,0.0353708453476429
1631632664395,0.4519429206848144,0.1043573096394538,-0.1283649653196334,0.0413593612611293
1631632664498,0.4423843026161194,0.1244488880038261,-0.1123261526226997,0.0387596078217029
1631632664657,0.4288744330406189,0.1446900069713592,-0.0933459922671318,0.0387596078217029
1631632664735,0.4185309112071991,0.1608510613441467,-0.0741779804229736,0.0387596078217029
1631632664818,0.4185309112071991,0.1700482070446014,-0.0595620647072792,0.0387596078217029
1631632664934,0.4185309112071991,0.1733984649181366,-0.0533760823309421,0.0387596078217029
1631632665018,0.4185309112071991,0.1740909665822982,-0.0575519390404224,0.0387596078217029
1631632665136,0.4185309112071991,0.1753824949264526,-0.0698451623320579,0.0387596078217029
1631632665262,0.4185309112071991,0.1753824949264526,-0.0843933299183845,0.0387596078217029
1631632665352,0.4185309112071991,0.1879397481679916,-0.0924413949251174,0.0387596078217029
1631632665443,0.4185309112071991,0.2007923275232315,-0.0930571034550666,0.0387596078217029
1631632665548,0.4201482236385345,0.2015502899885177,-0.0901738405227661,0.0514446049928665
1631632665623,0.4157798290252685,0.1942266821861267,-0.0888004824519157,0.0600202493369579
1631632665785,0.4160305857658386,0.1845158338546753,-0.0897153466939926,0.0977985113859176
1631632665885,0.423318475484848,0.1755727976560592,-0.0915367901325225,0.1309989988803863
1631632665952,0.439179390668869,0.1667134463787078,-0.094087041914463,0.1583278328180313
1631632666050,0.4644408822059631,0.1559035629034042,-0.1002951264381408,0.1766135096549987
1631632666157,0.5003018975257874,0.1448119282722473,-0.113381490111351,0.1554149091243744
1631632666227,0.5407611727714539,0.1353476494550705,-0.1343306750059127,0.141205683350563
1631632666346,0.5559191703796387,0.1296252459287643,-0.1595549583435058,0.1370362490415573
1631632666470,0.5702551007270813,0.1289300918579101,-0.1830866038799286,0.1399378329515457
1631632666592,0.5830281972885132,0.1342691630125045,-0.2002979069948196,0.1459114402532577
1631632666648,0.5907270908355713,0.1423713862895965,-0.2094192802906036,0.1527336090803146
1631632666763,0.5893983244895935,0.1423713862895965,-0.2101258784532547,0.1583070605993271
1631632666856,0.5784463882446289,0.1423713862895965,-0.2035492956638336,0.161397248506546
1631632667009,0.5784463882446289,0.1423713862895965,-0.1883024722337722,0.161397248506546
1631632667081,0.5784463882446289,0.1476908475160598,-0.1653092503547668,0.161397248506546
1631632667163,0.5784463882446289,0.1588779240846634,-0.1391371637582779,0.161397248506546
1631632667265,0.5866968035697937,0.1722248643636703,-0.1162450313568115,0.1708377599716186
1631632667370,0.5931019186973572,0.186436116695404,-0.1010722890496254,0.1764235347509384
1631632667455,0.599417507648468,0.2003905773162841,-0.0928282514214515,0.182797223329544
1631632667573,0.588921844959259,0.2123643606901168,-0.0852040201425552,0.1966058909893036
1631632667680,0.5917155742645264,0.220816433429718,-0.0725083649158477,0.2072323411703109
1631632667765,0.5896918773651123,0.2272566854953766,-0.053530465811491,0.2193893641233444
1631632667885,0.5812437534332275,0.2272566854953766,-0.0343679748475551,0.2299066632986068
1631632667973,0.5638195872306824,0.2272566854953766,-0.0203455239534378,0.2379327416419983
1631632668079,0.5314178466796875,0.2272566854953766,-0.0053935884498059,0.2442475706338882
1631632668151,0.5314178466796875,0.2272566854953766,0.0096624456346035,0.2497410178184509
1631632668280,0.5314178466796875,0.2272566854953766,0.0219949595630168,0.257193773984909
1631632668378,0.5314178466796875,0.2272566854953766,0.0297030787914991,0.2716505527496338
1631632668463,0.5314178466796875,0.2272566854953766,0.0303417965769767,0.2716505527496338
1631632668554,0.5314178466796875,0.2272566854953766,0.0242528636008501,0.2716505527496338
1631632668668,0.5314178466796875,0.2272566854953766,0.0137109868228435,0.2716505527496338
1631632668756,0.5314178466796875,0.2272566854953766,0.0032443271484225,0.2716505527496338
1631632668883,0.5314178466796875,0.2272566854953766,-0.0010066099930554,0.2716505527496338
1631632668998,0.5314178466796875,0.2272566854953766,0.0295787267386913,0.2716505527496338
1631632669107,0.5314178466796875,0.2272566854953766,0.03976920992136,0.2716505527496338
1631632669222,0.6769466996192932,0.2272566854953766,0.0368505753576755,0.5443142056465149
1631632669272,0.6769466996192932,0.2272566854953766,0.0315201319754123,0.5169895887374878
1631632669406,0.6769466996192932,0.2272566854953766,0.0304711237549781,0.5007070302963257
1631632669508,0.6769466996192932,0.2272566854953766,0.0357780344784259,0.5040028095245361
1631632669598,0.6769466996192932,0.2272566854953766,0.0248366277664899,0.5040028095245361
1631632669688,0.6769466996192932,0.3700761198997497,0.0124928820878267,0.5040028095245361
1631632669826,0.6769466996192932,0.3639993965625763,0.0003899414732586,0.5040028095245361
1631632669898,0.6769466996192932,0.3541878461837768,-0.0114677241072058,0.5040028095245361
1631632669985,0.6769466996192932,0.3541878461837768,-0.0221853163093328,0.5040028095245361
1631632670111,0.6769466996192932,0.3541878461837768,-0.0289587266743183,0.5040028095245361
1631632670248,0.6769466996192932,0.3541878461837768,-0.0315021760761737,0.5040028095245361
1631632670338,0.6769466996192932,0.3541878461837768,-0.0332809723913669,0.5040028095245361
1631632670419,0.6769466996192932,0.3541878461837768,-0.0373621135950088,0.4881818890571594
1631632670506,0.6769466996192932,0.3541878461837768,-0.0583783723413944,0.4643200933933258
1631632670639,0.6769466996192932,0.3541878461837768,-0.0702352151274681,0.4451996386051178
1631632670730,0.6769466996192932,0.3110927939414978,-0.0778596475720405,0.4451996386051178
1631632670819,0.6769466996192932,0.2792220413684845,-0.0892238989472389,0.4451996386051178
1631632670909,0.6769466996192932,0.2353075444698333,-0.1048146560788154,0.4451996386051178
1631632671017,0.6769466996192932,0.2147433012723922,-0.114143781363964,0.4451996386051178
1631632671093,0.6769466996192932,0.1865229308605194,-0.1197363287210464,0.4451996386051178
1631632671180,0.6769466996192932,0.1402601897716522,-0.1227239146828651,0.4451996386051178
1631632671334,0.6769466996192932,0.0722782537341117,-0.1238136440515518,0.4451996386051178
1631632671431,0.6769466996192932,0.0722782537341117,-0.122623860836029,0.4451996386051178
1631632671548,0.6769466996192932,0.0722782537341117,-0.1226469054818153,0.4451996386051178
1631632671645,0.6769466996192932,0.0722782537341117,-0.1275283247232437,0.4451996386051178
1631632671723,0.6769466996192932,0.0458799563348293,-0.1372763365507125,0.4451996386051178
1631632671809,0.6769466996192932,0.0852958709001541,-0.144175574183464,0.4451996386051178
1631632671957,0.6769466996192932,0.1069919988512992,-0.1380878388881683,0.4451996386051178
1631632672049,0.6769466996192932,0.1194116249680519,-0.1200012490153312,0.4451996386051178
1631632672147,0.6769466996192932,0.1225717961788177,-0.1017778888344764,0.4451996386051178
1631632672229,0.7128949761390686,0.1396254301071167,-0.0922196507453918,0.285952478647232
1631632672323,0.7119680643081665,0.1445211768150329,-0.0906260386109352,0.285952478647232
1631632672434,0.7084617018699646,0.1383218169212341,-0.0910887345671653,0.285952478647232
1631632672561,0.7084617018699646,0.1190788000822067,-0.1000543087720871,0.285952478647232
1631632672674,0.7084617018699646,0.1190788000822067,-0.1090384051203727,0.285952478647232
1631632672767,0.7084617018699646,0.1190788000822067,-0.1203751042485237,0.285952478647232
1631632672845,0.7084617018699646,0.1190788000822067,-0.1351331770420074,0.285952478647232
1631632672931,0.7084617018699646,0.1190788000822067,-0.1507890522480011,0.285952478647232
1631632673048,0.7084617018699646,0.1190788000822067,-0.162366583943367,0.285952478647232
1631632673165,0.7084617018699646,0.1190788000822067,-0.1614446491003036,0.285952478647232
1631632673279,0.7084617018699646,0.1019020825624466,-0.1464557498693466,0.285952478647232
1631632673351,0.7084617018699646,0.0831048786640167,-0.1241161227226257,0.285952478647232
1631632673461,0.7174182534217834,0.0597628727555274,-0.1052792072296142,0.285952478647232
1631632673553,0.718834638595581,0.0290592517703771,-0.0956486463546752,0.285952478647232
1631632673638,0.718834638595581,-0.0051752319559454,-0.0935238674283027,0.285952478647232
1631632673770,0.718834638595581,-0.0051752319559454,-0.0945580974221229,0.285952478647232
1631632673861,0.718834638595581,-0.0051752319559454,-0.0969950556755065,0.285952478647232
1631632673969,0.718834638595581,-0.0051752319559454,-0.1004269868135452,0.285952478647232
1631632674047,0.718834638595581,-0.0051752319559454,-0.103924922645092,0.285952478647232
1631632674171,0.718834638595581,-0.0051752319559454,-0.0965753942728042,0.285952478647232
1631632674241,0.718834638595581,-0.0051752319559454,-0.084914818406105,0.285952478647232
1631632674396,0.718834638595581,-0.0051752319559454,-0.0668567046523094,0.285952478647232
1631632674485,0.718834638595581,-0.0051752319559454,-0.0438169427216053,0.285952478647232
1631632674600,0.718834638595581,-0.0051752319559454,-0.021783547475934,0.285952478647232
1631632674663,0.718834638595581,-0.0051752319559454,-0.0097903842106461,0.285952478647232
1631632674770,0.718834638595581,-0.0051752319559454,-0.0145074324682354,0.285952478647232
1631632674893,0.718834638595581,-0.0051752319559454,-0.0382309146225452,0.285952478647232
1631632675000,0.718834638595581,-0.0051752319559454,-0.0780594646930694,0.285952478647232
1631632675088,0.718834638595581,-0.0051752319559454,-0.1281785815954208,0.285952478647232
1631632675181,0.718834638595581,-0.0051752319559454,-0.1821503639221191,0.285952478647232
1631632675274,0.718834638595581,-0.0051752319559454,-0.1821503639221191,0.285952478647232
1631632675364,0.718834638595581,-0.0051752319559454,-0.1821503639221191,0.285952478647232
1631632675480,0.718834638595581,-0.0051752319559454,-0.1821503639221191,0.285952478647232
1631632675578,0.718834638595581,-0.0051752319559454,-0.1821503639221191,0.285952478647232
1631632675701,0.718834638595581,-0.0051752319559454,-0.1821503639221191,0.285952478647232
1631632675783,0.718834638595581,-0.0051752319559454,-0.1821503639221191,0.285952478647232
1631632675878,0.718834638595581,-0.0051752319559454,-0.1821503639221191,0.285952478647232
1631632675964,0.718834638595581,-0.0051752319559454,-0.1821503639221191,0.285952478647232
1631632676096,0.718834638595581,-0.0051752319559454,-0.1821503639221191,0.285952478647232
1631632676204,0.718834638595581,-0.0051752319559454,-0.1821503639221191,0.285952478647232
1631632676320,0.718834638595581,-0.0051752319559454,-0.1821503639221191,0.285952478647232
1631632676412,0.718834638595581,-0.0051752319559454,-0.1821503639221191,0.285952478647232
1631632676498,0.718834638595581,-0.0051752319559454,-0.1821503639221191,0.285952478647232
1631632676600,0.718834638595581,-0.0051752319559454,-0.1821503639221191,0.285952478647232
1631632676728,0.718834638595581,-0.0051752319559454,-0.1821503639221191,0.285952478647232
1631632676813,0.718834638595581,-0.0051752319559454,-0.1821503639221191,0.285952478647232
1631632676901,0.718834638595581,-0.0051752319559454,-0.1821503639221191,0.285952478647232
1631632677016,0.718834638595581,-0.0051752319559454,-0.1821503639221191,0.285952478647232
1631632677106,0.718834638595581,-0.0051752319559454,-0.1821503639221191,0.285952478647232
1631632677217,0.718834638595581,-0.0051752319559454,-0.1821503639221191,0.285952478647232
1631632677286,0.718834638595581,-0.0051752319559454,-0.1821503639221191,0.285952478647232
1631632677416,0.718834638595581,-0.0051752319559454,-0.1821503639221191,0.285952478647232
1631632677516,0.718834638595581,-0.0051752319559454,-0.1821503639221191,0.285952478647232
1631632677618,0.718834638595581,-0.0051752319559454,0.0633763894438743,0.285952478647232
1631632677711,0.5687915086746216,-0.0051752319559454,0.0478164665400981,0.3796278834342956
1631632677815,0.5355843305587769,0.1150288060307502,0.0218399818986654,0.3667338490486145
1631632677898,0.5087064504623413,0.1149332076311111,0.0015184476505964,0.3542256951332092
1631632678045,0.4945828914642334,0.1171303987503051,-0.0036414135247468,0.3493690490722656
1631632678158,0.4938909113407135,0.1259123384952545,0.0048875077627599,0.3519704639911651
1631632678247,0.5007940530776978,0.1436517983675003,0.0201477725058794,0.3587130308151245
1631632678310,0.5060848593711853,0.1640984714031219,0.0348886474967002,0.3653239607810974
1631632678424,0.5060848593711853,0.1789872944355011,0.0458722077310085,0.3672288954257965
1631632678520,0.5060848593711853,0.1864144653081894,0.0504812188446521,0.3627477288246155
1631632678668,0.5060848593711853,0.1911527961492538,0.0482868552207946,0.3627477288246155
1631632678760,0.5060848593711853,0.1911527961492538,0.0401162318885326,0.3627477288246155
1631632678848,0.5060848593711853,0.1911527961492538,0.0394067391753196,0.3627477288246155
1631632678942,0.4928915500640869,0.1911527961492538,0.037231657654047,0.3703398704528808
1631632679034,0.4746982753276825,0.1939333081245422,0.0290591586381196,0.3665708899497986
1631632679096,0.4598881006240845,0.2011469155550003,0.0229147728532552,0.3577880859375
1631632679247,0.4586087763309479,0.2122141420841217,0.0338210687041282,0.3540550768375397
1631632679343,0.4744345843791961,0.2247332781553268,0.043161679059267,0.3598779439926147
1631632679477,0.5021224617958069,0.2384177446365356,0.0450154468417167,0.3711057901382446
1631632679541,0.5021224617958069,0.2543768286705017,0.0353084653615951,0.3808114230632782
1631632679643,0.5021224617958069,0.2686209976673126,0.0150739848613739,0.3835316598415375
1631632679719,0.5021224617958069,0.2729362547397613,-0.0132057489827275,0.3835316598415375
1631632679877,0.5021224617958069,0.2622065246105194,-0.0433673150837421,0.3835316598415375
1631632679987,0.5021224617958069,0.272925317287445,-0.0718181282281875,0.3835316598415375
1631632680076,0.5021224617958069,0.3176756799221039,-0.0943019911646843,0.3835316598415375
1631632680156,0.6194522380828857,0.3743278980255127,-0.1088526844978332,0.224745512008667
1631632680237,0.5949749946594238,0.3898473680019378,-0.1157430335879325,0.2291017770767212
1631632680327,0.569410502910614,0.3890315592288971,-0.1271850764751434,0.2238672971725464
1631632680479,0.5469337105751038,0.3789889514446258,-0.1369272172451019,0.2124528437852859
1631632680570,0.5301126837730408,0.3662901818752289,-0.1466739177703857,0.2063916623592376
1631632680660,0.5178781151771545,0.3542472124099731,-0.1544737368822097,0.2147496491670608
1631632680759,0.5070298314094543,0.3439300656318664,-0.183338463306427,0.2335488647222519
1631632680837,0.4967620074748993,0.3356412947177887,-0.1969030052423477,0.2498898357152938
1631632680951,0.4967620074748993,0.3288113474845886,-0.1958177983760833,0.2498898357152938
1631632681081,0.4967620074748993,0.323347806930542,-0.1865507364273071,0.2498898357152938
1631632681185,0.4967620074748993,0.3185440301895141,-0.1748886257410049,0.2498898357152938
1631632681264,0.4967620074748993,0.3127475678920746,-0.1621378809213638,0.2498898357152938
1631632681400,0.4790676832199096,0.316381573677063,-0.1497140675783157,0.2512824833393097
1631632681488,0.4548312127590179,0.315107524394989,-0.150577113032341,0.2568762004375458
1631632681554,0.4288737773895263,0.3054616749286651,-0.1527269780635833,0.2617093920707702
1631632681686,0.4070972800254822,0.287997305393219,-0.153874322772026,0.2636303305625915
1631632681801,0.3935839235782623,0.2683721780776977,-0.1514330357313156,0.2664840519428253
1631632681902,0.3896901905536651,0.253257006406784,-0.1413011699914932,0.2791888415813446
1631632681983,0.3920138478279114,0.2451317310333252,-0.1281982958316803,0.3085186183452606
1631632682071,0.3920138478279114,0.2320981323719024,-0.1099746450781822,0.3085186183452606
1631632682189,0.3920138478279114,0.2413362115621566,-0.0864920169115066,0.3085186183452606
1631632682336,0.3920138478279114,0.2418044805526733,-0.0613249652087688,0.3085186183452606
1631632682404,0.3920138478279114,0.2416580468416214,-0.0427192077040672,0.3085186183452606
1631632682493,0.3920138478279114,0.2408647984266281,-0.0371340811252594,0.3085186183452606
1631632682629,0.3920138478279114,0.2380910068750381,-0.0441037379205226,0.3085186183452606
1631632682699,0.3920138478279114,0.2380910068750381,-0.0598110482096672,0.3085186183452606
1631632682796,0.3920138478279114,0.2380910068750381,-0.0799950361251831,0.3085186183452606
1631632682916,0.3920138478279114,0.2421954125165939,-0.1028541848063469,0.3085186183452606
1631632683039,0.3920138478279114,0.2284014821052551,-0.1138842925429344,0.3085186183452606
1631632683097,0.3920138478279114,0.2218609005212783,-0.1232549026608467,0.3085186183452606
1631632683200,0.3920138478279114,0.2252473831176757,-0.130639836192131,0.3085186183452606
1631632683327,0.3920138478279114,0.2361907809972763,-0.1349740177392959,0.3085186183452606
1631632683390,0.3920138478279114,0.2361907809972763,-0.1381063014268875,0.3085186183452606
1631632683523,0.3920138478279114,0.2361907809972763,-0.1411812007427215,0.3085186183452606
1631632683609,0.3920138478279114,0.2467581778764724,-0.1500958353281021,0.3085186183452606
1631632683760,0.3920138478279114,0.2350945472717285,-0.168267473578453,0.3085186183452606
1631632683798,0.3920138478279114,0.2350945472717285,-0.1954559683799743,0.3085186183452606
1631632683921,0.3920138478279114,0.2350945472717285,-0.2240420281887054,0.3085186183452606
1631632684020,0.3920138478279114,0.2350945472717285,-0.2412929385900497,0.3085186183452606
1631632684159,0.3920138478279114,0.2350945472717285,-0.2388674318790435,0.3085186183452606
1631632684265,0.3920138478279114,0.2350945472717285,-0.2225686907768249,0.3085186183452606
1631632684331,0.3920138478279114,0.2244339734315872,-0.202391043305397,0.3085186183452606
1631632684430,0.3920138478279114,0.2301019728183746,-0.1831536591053009,0.3085186183452606
1631632684528,0.3920138478279114,0.2301019728183746,-0.1647716462612152,0.3085186183452606
1631632684602,0.3920138478279114,0.2301019728183746,-0.146168902516365,0.3085186183452606
1631632684752,0.7228647470474243,0.2301019728183746,-0.1308574080467224,0.4152670204639435
1631632684841,0.6954225897789001,0.2301019728183746,-0.1223306730389595,0.4577855467796325
1631632684933,0.6783317923545837,0.2301019728183746,-0.1198965236544609,0.4801596105098724
1631632685029,0.6702929735183716,0.2301019728183746,-0.118903674185276,0.4877148866653442
1631632685117,0.6689050197601318,0.2301019728183746,-0.1144915595650672,0.4750442504882812
1631632685216,0.643539309501648,0.2301019728183746,-0.1071402505040168,0.4515690505504608
1631632685384,0.6211153864860535,0.2301019728183746,-0.0968561694025993,0.4515690505504608
1631632685432,0.6163884997367859,0.2301019728183746,-0.0851501524448394,0.4515690505504608
1631632685536,0.6163884997367859,0.2301019728183746,-0.0744502767920494,0.4515690505504608
1631632685638,0.6163884997367859,0.2301019728183746,-0.0681943818926811,0.4515690505504608
1631632685735,0.6163884997367859,0.2301019728183746,-0.0664231926202774,0.4515690505504608
1631632685853,0.6163884997367859,0.2301019728183746,-0.0676852837204933,0.4515690505504608
1631632685957,0.6163884997367859,0.2301019728183746,-0.0718574151396751,0.4515690505504608
1631632686069,0.6163884997367859,0.2301019728183746,-0.0814437642693519,0.4515690505504608
1631632686194,0.6163884997367859,0.2301019728183746,-0.0970942452549934,0.4515690505504608
1631632686245,0.6256754398345947,0.2301019728183746,-0.1249609664082527,0.4404209852218628
1631632686351,0.6370046138763428,0.2301019728183746,-0.1354806125164032,0.4278479516506195
1631632686455,0.6031744480133057,0.2301019728183746,-0.1347896158695221,0.3549108803272247
1631632686586,0.5609979629516602,0.2301019728183746,-0.1358197629451751,0.2463613450527191
1631632686700,0.4980738461017608,0.2301019728183746,-0.1487934589385986,0.1126823723316192
1631632686777,0.4195877313613891,0.2671822607517242,-0.1736392974853515,0.0077654719352722
1631632686960,0.35478076338768,0.2329981476068496,-0.1941033005714416,0.0324433669447898
1631632687025,0.3975636661052704,0.216772511601448,-0.2040802240371704,0.0702682510018348
1631632687069,0.4430575370788574,0.2176300287246704,-0.1873459815979004,0.1045982912182807
1631632687165,0.4734461903572082,0.2176300287246704,-0.1426969468593597,0.1045982912182807
1631632687263,0.4853100180625915,0.2176300287246704,-0.087402194738388,0.1045982912182807
1631632687357,0.4853100180625915,0.2176300287246704,-0.0364586785435676,0.1045982912182807
1631632687462,0.4853100180625915,0.2176300287246704,0.0039165769703686,0.1045982912182807
1631632687564,0.4853100180625915,0.2176300287246704,0.0039165769703686,0.1045982912182807
1631632687641,0.4853100180625915,0.2176300287246704,0.0039165769703686,0.1045982912182807
1631632687791,0.4853100180625915,0.2176300287246704,0.016208816319704,0.1045982912182807
1631632687884,0.4853100180625915,0.2176300287246704,0.0273130107671022,0.1045982912182807
1631632687982,0.5004976987838745,0.1934155374765396,0.0394611470401287,0.0968788787722587
1631632688071,0.5171412825584412,0.1610560566186905,0.0559826232492923,0.1157902181148529
1631632688157,0.542417049407959,0.1366475075483322,0.0786710232496261,0.1586959958076477
1631632688273,0.5368000864982605,0.1445553600788116,0.1070438921451568,0.1586959958076477
1631632688394,0.5231715440750122,0.1442696452140808,0.1342252492904663,0.1586959958076477
1631632688513,0.4982691407203674,0.1349720060825348,0.1495784372091293,0.1586959958076477
1631632688634,0.4702472686767578,0.1267462521791458,0.1449495702981948,0.1586959958076477
1631632688705,0.4586937725543976,0.1635742783546447,0.1186295077204704,0.0740889385342598
1631632688757,0.4720831215381622,0.1924853026866912,0.0751360431313514,0.1190360933542251
1631632688917,0.4935154914855957,0.2052142769098281,0.0196729898452758,0.1402321457862854
1631632689042,0.4985756278038025,0.2041805237531662,-0.0439281724393367,0.1396669149398803
1631632689129,0.4954127371311188,0.1975404620170593,-0.0493885949254035,0.1272316873073578
1631632689206,0.4929939210414886,0.1922970116138458,-0.0550447553396225,0.1130362823605537
1631632689319,0.4966491162776947,0.1915730535984039,-0.0600025951862335,0.1034746691584587
1631632689382,0.5047503113746643,0.1951389610767364,-0.0639482513070106,0.1007830128073692
1631632689760,0.5113688111305237,0.2009301930665969,-0.0683914944529533,0.1031007394194603
1631632689806,0.5122657418251038,0.2063401192426681,-0.0751553550362587,0.1066433563828468
1631632689842,0.5076651573181152,0.2090056240558624,-0.0966714024543762,0.1093634292483329
1631632689885,0.514223575592041,0.2115659117698669,-0.123853713274002,0.1117615699768066
1631632689926,0.5258527398109436,0.2165016233921051,-0.1499771624803543,0.122482381761074
1631632690011,0.5337634682655334,0.2198308259248733,-0.161365807056427,0.1308234483003616
1631632690105,0.5355596542358398,0.2175719141960144,-0.1624203473329544,0.1328584104776382
1631632690234,0.5299474000930786,0.2086019665002823,-0.1585497409105301,0.1246890351176261
1631632690320,0.518671989440918,0.194829374551773,-0.1570770144462585,0.1080780997872352
1631632690435,0.5081033706665039,0.1813675761222839,-0.1608121693134308,0.0916883945465087
1631632690528,0.5049636363983154,0.1745975762605667,-0.1686119735240936,0.0857810154557228
1631632690685,0.5098347663879395,0.1778218150138855,-0.1777215600013733,0.0933791697025299
1631632690734,0.5160432457923889,0.1802696883678436,-0.1872893720865249,0.1098424568772316
1631632690838,0.5128633379936218,0.1799607276916504,-0.1998657286167144,0.1278755664825439
1631632690945,0.492750734090805,0.1752772033214569,-0.2191993296146392,0.140595480799675
1631632691023,0.492750734090805,0.1752943992614746,-0.2444552332162857,0.140595480799675
1631632691119,0.492750734090805,0.1741210222244262,-0.1947276443243026,0.140595480799675
1631632691252,0.492750734090805,0.177220270037651,-0.1513821482658386,0.140595480799675
1631632691334,0.492750734090805,0.1853794157505035,-0.1310965269804,0.140595480799675
1631632691458,0.492750734090805,0.1956896632909774,-0.136913314461708,0.140595480799675
1631632691551,0.5069083571434021,0.2024402469396591,-0.174893245100975,0.0630424469709396
1631632691674,0.4963988959789276,0.202117919921875,-0.1991241723299026,0.1250726729631424
1631632691740,0.48627570271492,0.1955828070640564,-0.2063728123903274,0.2054412364959716
1631632691824,0.4845340251922607,0.1886569857597351,-0.1993650645017624,0.2864066958427429
1631632691934,0.4891623556613922,0.1864883303642273,-0.1859349459409713,0.3518679738044739
1631632692057,0.4938321113586426,0.1877712607383728,-0.1743679046630859,0.3911707997322082
1631632692138,0.4952761530876159,0.1859398931264877,-0.1697463393211364,0.4025275111198425
1631632692223,0.4955023825168609,0.1870200783014297,-0.1731212139129638,0.3936518430709839
1631632692337,0.4975093305110931,0.1882750540971756,-0.1824302077293396,0.3773457705974579
1631632692447,0.5007278323173523,0.1901665329933166,-0.193707138299942,0.3637545108795166
1631632692514,0.501147449016571,0.1875863969326019,-0.2029260843992233,0.3547719419002533
1631632692670,0.4959288239479065,0.1855194568634033,-0.2237735986709594,0.3476098179817199
1631632692760,0.4899789988994598,0.1819952428340912,-0.2388499826192855,0.3514815866947174
1631632692857,0.4812290966510772,0.1804467886686325,-0.2461118996143341,0.3600070476531982
1631632692952,0.4744841158390045,0.1857064366340637,-0.2448827922344207,0.3737494945526123
1631632693041,0.4712027907371521,0.1996068507432937,-0.2342620491981506,0.3895488977432251
1631632693150,0.469447910785675,0.2191009223461151,-0.2147825062274933,0.4011721909046173
1631632693271,0.4661312103271484,0.2402385473251342,-0.1906740516424179,0.3995330333709717
1631632693384,0.4592520594596863,0.2609238922595978,-0.1684266626834869,0.3777309656143188
1631632693475,0.4488575160503387,0.2789081633090973,-0.1521227210760116,0.3373386561870575
1631632693565,0.4382368326187134,0.2904058992862701,-0.1421473622322082,0.292273998260498
1631632693660,0.4342478215694427,0.2932198941707611,-0.1369252353906631,0.2631303369998932
1631632693754,0.4410809278488159,0.2891757786273956,-0.1332280933856964,0.2582075595855713
1631632693875,0.4552988409996032,0.2832755744457245,-0.1274302750825882,0.2655383944511413
1631632693975,0.4487777948379516,0.2798966467380523,-0.1181149631738662,0.2724479436874389
1631632694052,0.4439970254898071,0.2827866077423095,-0.1057358682155609,0.2764275074005127
1631632694171,0.4462970495223999,0.2969241440296173,-0.0871233269572258,0.2798935174942016
1631632694264,0.4545659720897674,0.3219035267829895,-0.0577705465257167,0.2856645882129669
1631632694396,0.4619174003601074,0.3493678569793701,-0.0219485778361558,0.291599303483963
1631632694485,0.4638546407222748,0.3699163496494293,0.009027081541717,0.289157509803772
1631632694593,0.4639339745044708,0.3810906112194061,0.0262097455561161,0.2686108648777008
1631632694683,0.4694499373435974,0.3880895674228668,0.0288018099963665,0.2270628660917282
1631632694806,0.4834934771060943,0.3977452218532562,0.020524388179183,0.1755784451961517
1631632694894,0.5045385956764221,0.4112734794616699,0.0061767641454935,0.1414495259523391
1631632694982,0.5342049598693848,0.4253036677837372,-0.0099618304520845,0.150259330868721
1631632695091,0.5342049598693848,0.4366690218448639,-0.0240996126085519,0.150259330868721
1631632695220,0.5342049598693848,0.4439772665500641,-0.032857708632946,0.150259330868721
1631632695287,0.5342049598693848,0.4475096464157104,-0.0362039916217327,0.150259330868721
1631632695375,0.5342049598693848,0.4477964639663696,-0.0369082689285278,0.150259330868721
1631632695486,0.6751537322998047,0.444863498210907,-0.0384402722120285,0.3669828772544861
1631632695567,0.6502587199211121,0.4377384185791015,-0.0446208715438842,0.3492269814014435
1631632695732,0.6308560967445374,0.4237964153289795,-0.0607486069202423,0.3465366065502167
1631632695799,0.6172435879707336,0.401431530714035,-0.0914613008499145,0.3470206260681152
1631632695891,0.6172435879707336,0.37288698554039,-0.1326441466808319,0.3470206260681152
1631632695984,0.6172435879707336,0.3431724309921264,-0.1701799929141998,0.3470206260681152
1631632696104,0.6172435879707336,0.3265093863010406,-0.1975422501564026,0.3470206260681152
1631632696187,0.6172435879707336,0.3107908964157104,-0.2143377214670181,0.3470206260681152
1631632696325,0.6172435879707336,0.2898105084896087,-0.2244176715612411,0.3470206260681152
1631632696404,0.6172435879707336,0.2580081820487976,-0.2313186526298523,0.3470206260681152
1631632696511,0.6172435879707336,0.2155386209487915,-0.2356139421463012,0.3470206260681152
1631632696593,0.6172435879707336,0.1704772114753723,-0.2374730706214904,0.3470206260681152
1631632696701,0.5968336462974548,0.1371001452207565,-0.2390507906675338,0.313802421092987
1631632696790,0.5702038407325745,0.1242297068238258,-0.2416144460439682,0.2952350378036499
1631632696936,0.543400228023529,0.129459410905838,-0.2465484738349914,0.298787772655487
1631632697016,0.543400228023529,0.142784833908081,-0.254031240940094,0.298787772655487
1631632697120,0.543400228023529,0.156213566660881,-0.2575066983699798,0.298787772655487
1631632697219,0.543400228023529,0.156213566660881,-0.2575066983699798,0.298787772655487
1631632697327,0.543400228023529,0.156213566660881,-0.2575066983699798,0.298787772655487
1631632697406,0.543400228023529,0.156213566660881,-0.2575066983699798,0.298787772655487
1631632697544,0.543400228023529,0.156213566660881,-0.2575066983699798,0.298787772655487
1631632697634,0.543400228023529,0.156213566660881,-0.2575066983699798,0.298787772655487
1631632697723,0.543400228023529,0.156213566660881,-0.2575066983699798,0.298787772655487
1631632697826,0.543400228023529,0.156213566660881,-0.2575066983699798,0.298787772655487
1631632697920,0.543400228023529,0.156213566660881,-0.2575066983699798,0.298787772655487
1631632697992,0.543400228023529,0.156213566660881,-0.2575066983699798,0.298787772655487
1631632698146,0.543400228023529,0.156213566660881,-0.2575066983699798,0.298787772655487
1631632698236,0.543400228023529,0.156213566660881,0.1499039232730865,0.298787772655487
1631632698353,0.543400228023529,0.156213566660881,0.1139110848307609,0.298787772655487
1631632698445,0.543400228023529,0.156213566660881,0.0827843397855758,0.298787772655487
1631632698556,0.543400228023529,0.156213566660881,0.0579885356128215,0.298787772655487
1631632698655,0.543400228023529,0.156213566660881,0.0363831780850887,0.298787772655487
1631632698774,0.543400228023529,0.156213566660881,0.0171818248927593,0.298787772655487
1631632698865,0.5095086097717285,0.156213566660881,0.0026702389586716,0.396559864282608
1631632698957,0.5177677273750305,0.156213566660881,-0.0055278372019529,0.3940715789794922
1631632699045,0.5152810215950012,0.156213566660881,-0.0100562358275055,0.3708969950675964
1631632699183,0.5051921606063843,0.156213566660881,-0.0155786946415901,0.338963508605957
1631632699244,0.4892118871212005,0.156213566660881,-0.023971164599061,0.3092994093894958
1631632699367,0.4697064459323883,0.156213566660881,-0.0336292535066604,0.2874884903430938
1631632699448,0.4555056691169739,0.3897768557071686,-0.0659204646944999,0.2744171619415283
1631632699559,0.4572800993919372,0.3860954940319061,-0.0971088036894798,0.2692303359508514
1631632699651,0.47513347864151,0.3843320608139038,-0.11963602155447,0.2699387073516845
1631632699746,0.4976206719875335,0.3821643590927124,-0.1277303993701934,0.2736185193061828
1631632699855,0.5145922303199768,0.3789964616298675,-0.1218070983886718,0.2771888077259063
1631632700004,0.5145922303199768,0.3759030699729919,-0.1102545112371444,0.2783611416816711
1631632700068,0.5192341804504395,0.3744452893733978,-0.0998881980776786,0.2816260457038879
1631632700175,0.5224147439002991,0.3727723062038421,-0.0961796343326568,0.2728729248046875
1631632700252,0.521220862865448,0.3694905042648315,-0.0904963240027427,0.2520926296710968
1631632700370,0.5166091918945312,0.3629656732082367,-0.0854693427681922,0.2259195446968078
1631632700462,0.5128180384635925,0.3542348742485046,-0.0844057947397232,0.2064238786697387
1631632700584,0.514074981212616,0.3452695310115814,-0.0865782424807548,0.2035104483366012
1631632700689,0.5237931609153748,0.3332589864730835,-0.0864221826195716,0.2173665314912796
1631632700780,0.5462783575057983,0.319857120513916,-0.0789818316698074,0.2400740832090377
1631632700869,0.5852746963500977,0.3145707845687866,-0.0643768832087516,0.2643000483512878
1631632700966,0.6345098614692688,0.2997085154056549,-0.0463383719325065,0.2861432731151581
1631632701086,0.6345098614692688,0.2849261164665222,-0.0489751026034355,0.3025238811969757
1631632701190,0.6345098614692688,0.2702798545360565,-0.0639781206846237,0.3025238811969757
1631632701281,0.6345098614692688,0.2561014592647552,-0.0985673815011978,0.3025238811969757
1631632701397,0.6345098614692688,0.2424950301647186,-0.156535118818283,0.3025238811969757
1631632701486,0.6345098614692688,0.2329759299755096,-0.2268408834934234,0.3025238811969757
1631632701556,0.4171606004238128,0.2203759104013443,-0.2882577776908874,0.1910313367843628
1631632701669,0.4422294795513153,0.2127372324466705,-0.2722882926464081,0.242693081498146
1631632701794,0.462930828332901,0.207887127995491,-0.2578634023666382,0.2877629399299621
1631632701892,0.4782330393791199,0.2071706801652908,-0.2480383217334747,0.3223212659358978
1631632701981,0.4870097041130066,0.2111229598522186,-0.2394469082355499,0.3223212659358978
1631632702085,0.4870097041130066,0.2125336527824401,-0.2339558601379394,0.3223212659358978
1631632702180,0.4870097041130066,0.2141707986593246,-0.2288735657930374,0.3223212659358978
1631632702302,0.4870097041130066,0.21647809445858,-0.218043640255928,0.3223212659358978
1631632702407,0.4870097041130066,0.21647809445858,-0.218043640255928,0.3223212659358978
1631632702512,0.4870097041130066,0.2250700443983078,-0.218043640255928,0.3223212659358978
1631632702623,0.4870097041130066,0.2346933037042617,-0.2209535986185073,0.3223212659358978
1631632702698,0.4870097041130066,0.2446074485778808,-0.2188666313886642,0.3223212659358978
1631632702793,0.503348708152771,0.2570759952068329,-0.2091496288776397,0.3470057845115661
1631632702872,0.5211772322654724,0.2756318747997284,-0.1990755349397659,0.3797054290771484
1631632703050,0.5366875529289246,0.2756318747997284,-0.1916844248771667,0.4177407324314117
1631632703162,0.5471656918525696,0.2756318747997284,-0.1896314918994903,0.4177407324314117
1631632703235,0.5471656918525696,0.2756318747997284,-0.1899099498987198,0.4177407324314117
1631632703319,0.5471656918525696,0.2756318747997284,-0.1926720440387725,0.4177407324314117
1631632703414,0.5471656918525696,0.2756318747997284,-0.1950260549783706,0.4177407324314117
1631632703508,0.5471656918525696,0.2756318747997284,-0.1995317488908767,0.4177407324314117
1631632703635,0.5471656918525696,0.2756318747997284,-0.2030079513788223,0.4177407324314117
1631632703718,0.5471656918525696,0.2756318747997284,-0.2098758369684219,0.4177407324314117
1631632703814,0.5471656918525696,0.2756318747997284,-0.2098758369684219,0.4177407324314117
1631632703920,0.5471656918525696,0.2756318747997284,-0.2098758369684219,0.4177407324314117
1631632704016,0.5471656918525696,0.2756318747997284,-0.2098758369684219,0.4177407324314117
1631632704135,0.5471656918525696,0.2756318747997284,-0.169870987534523,0.4177407324314117
1631632704233,0.5471656918525696,0.2756318747997284,-0.1395136564970016,0.4177407324314117
1631632704325,0.5471656918525696,0.2756318747997284,-0.1282389611005783,0.4177407324314117
1631632704433,0.5471656918525696,0.2756318747997284,-0.1021758317947387,0.4177407324314117
1631632704528,0.3205978572368622,0.2228718250989914,-0.0760424956679344,-0.0886427015066146
1631632704617,0.330465018749237,0.2056233882904052,-0.0551007539033889,-0.0717017203569412
1631632704733,0.3453928232192993,0.1823443323373794,-0.0621889159083366,-0.0592637807130813
1631632704835,0.3588704466819763,0.1564068496227264,-0.0703060626983642,-0.051501877605915
1631632704926,0.3643340468406677,0.1318306177854538,-0.0766552835702896,-0.0421567671000957
1631632705018,0.3580965995788574,0.1125650256872177,-0.079216681420803,-0.0265634022653102
1631632705133,0.3429788053035736,0.1051201671361923,-0.0791033431887626,-0.0063958698883652
1631632705231,0.3274701833724975,0.114534892141819,-0.0797507613897323,0.0158429145812988
1631632705315,0.3219003081321716,0.1389972418546676,-0.0833095088601112,0.0404179543256759
1631632705463,0.3297136127948761,0.1692840456962585,-0.0888719782233238,0.0665811076760292
1631632705555,0.3448072075843811,0.1943005472421646,-0.0944126173853874,0.0899828225374221
1631632705641,0.3592142164707184,0.2074373066425323,-0.1084947511553764,0.1073109731078147
1631632705756,0.3709123432636261,0.2061571478843689,-0.1208581551909446,0.1268764585256576
1631632705859,0.3870120644569397,0.2003599107265472,-0.1298137158155441,0.1465918719768524
1631632705926,0.403182178735733,0.1956292539834976,-0.1341557949781417,0.1636097580194473
1631632706054,0.4131981432437897,0.1968203485012054,-0.1339062452316284,0.1772694140672683
1631632706175,0.4140314161777496,0.2055974900722503,-0.1304879933595657,0.1915439218282699
1631632706261,0.4086447358131408,0.2201456725597381,-0.1248356252908706,0.2100725620985031
1631632706363,0.403965562582016,0.2360392063856125,-0.118021622300148,0.2301260083913803
1631632706455,0.4053109288215637,0.2498196959495544,-0.1121087074279785,0.2451766282320022
1631632706559,0.4136297106742859,0.26052987575531,-0.1094898506999015,0.2525901794433594
1631632706681,0.4256829619407654,0.2677864134311676,-0.1102966666221618,0.256405770778656
1631632706793,0.4364398419857025,0.2699149847030639,-0.1116132363677024,0.2603910863399505
1631632706864,0.4410778880119324,0.264737993478775,-0.1113085895776748,0.2617146074771881
1631632706952,0.4379526972770691,0.2522337138652801,-0.1108803153038024,0.2559933960437774
1631632707071,0.4299831092357635,0.2359945923089981,-0.1142161265015602,0.243350476026535
1631632707143,0.4230731427669525,0.2219038605690002,-0.1210258975625038,0.2282734364271164
1631632707316,0.4156145453453064,0.2131673544645309,-0.1265505403280258,0.2263049781322479
1631632707376,0.4062041044235229,0.2090228348970413,-0.1279879957437515,0.2265059947967529
1631632707489,0.3950031995773315,0.2069635838270187,-0.1268405020236969,0.2286018580198288
1631632707582,0.3871548175811767,0.2043839693069458,-0.1314645409584045,0.2317111641168594
1631632707666,0.3877157866954803,0.1992770582437515,-0.140336737036705,0.2310364842414856
1631632707758,0.3942317366600036,0.1917367279529571,-0.1515331119298935,0.2221724838018417
1631632707886,0.3983036875724792,0.1843936890363693,-0.1647024750709533,0.2067848742008209
1631632707995,0.3950129747390747,0.1798072606325149,-0.1798956543207168,0.1938210427761078
1631632708118,0.387031227350235,0.1769948601722717,-0.1964847445487976,0.1892693787813186
1631632708192,0.3814115226268768,0.1712828427553177,-0.2141964435577392,0.1848443299531936
1631632708271,0.3837235569953918,0.1593319326639175,-0.2351644933223724,0.1649667769670486
1631632708363,0.3837235569953918,0.1422739028930664,-0.2206630855798721,0.1649667769670486
1631632708490,0.3837235569953918,0.1251868307590484,-0.2049666047096252,0.1649667769670486
1631632708604,0.3837235569953918,0.1143074408173561,-0.1876937299966812,0.1649667769670486
1631632708681,0.3837235569953918,0.1124219223856926,-0.1723319143056869,0.1649667769670486
1631632708783,0.7238247990608215,0.1175917312502861,-0.1663016527891159,0.2943229079246521
1631632708886,0.6996394991874695,0.1270217448472976,-0.1742321550846099,0.27579265832901
1631632708965,0.6598489880561829,0.1413074880838394,-0.1851628422737121,0.2477601766586303
1631632709098,0.6145681142807007,0.1623879224061966,-0.1885491907596588,0.2176355719566345
1631632709209,0.5705739259719849,0.1883355230093002,-0.1885806620121002,0.1918998658657074
1631632709309,0.531790018081665,0.2118368297815323,-0.1866818219423294,0.1741468757390976
1631632709396,0.5017266273498535,0.2267318814992904,-0.1835576891899109,0.1674514263868332
1631632709500,0.4825785458087921,0.2326340228319168,-0.1812599301338195,0.1717940717935562
1631632709595,0.4727015197277069,0.2343350201845169,-0.1827829927206039,0.1833477765321731
1631632709723,0.4669243693351745,0.2374496310949325,-0.1889221221208572,0.1977044641971588
1631632709817,0.460362046957016,0.2444303482770919,-0.1977777630090713,0.2111807167530059
1631632709902,0.4509479105472564,0.2552230656147003,-0.2182721048593521,0.2210791260004043
1631632710039,0.4229011535644531,0.2684758603572845,-0.2349754571914672,0.2192911356687545
1631632710106,0.3747090697288513,0.2823793590068817,-0.2410608530044555,0.2151255011558532
1631632710197,0.3128049075603485,0.2960372865200043,-0.2337297648191452,0.2087212949991226
1631632710327,0.2544949352741241,0.3081358969211578,-0.2191511988639831,0.205775037407875
1631632710417,0.2201641499996185,0.3148687481880188,-0.2079956978559494,0.2127436399459839
1631632710512,0.21724434196949,0.3110289275646209,-0.2049112319946289,0.2299913465976715
1631632710620,0.2392711043357849,0.294676661491394,-0.2061428129673004,0.2517843246459961
1631632710708,0.2755156755447387,0.2714707553386688,-0.2061624825000763,0.2728085815906524
1631632710807,0.3155807554721832,0.2525025606155395,-0.2038981318473816,0.2914477288722992
1631632710953,0.3490994274616241,0.2446751147508621,-0.201049342751503,0.3068488836288452
1631632711087,0.369399219751358,0.2463149279356002,-0.1978286355733871,0.3183649480342865
1631632711155,0.3772962689399719,0.2531324326992035,-0.1928110271692276,0.3252028822898865
1631632711235,0.3800699114799499,0.2625815868377685,-0.1853513121604919,0.3266785144805908
1631632711338,0.3860048949718475,0.2727038264274597,-0.1771454513072967,0.3221909701824188
1631632711414,0.3992156088352203,0.2791893482208252,-0.1699939519166946,0.3141826093196869
1631632711602,0.417531818151474,0.2790531516075134,-0.1666353344917297,0.307523250579834
1631632711668,0.4359064996242523,0.274344265460968,-0.170765683054924,0.3061237633228302
1631632711767,0.4505571126937866,0.2696903645992279,-0.1832521706819534,0.3089207410812378
1631632711841,0.4601167440414428,0.2682186961174011,-0.1984547227621078,0.3100321590900421
1631632711917,0.4651331007480621,0.2701986134052276,-0.20704947412014,0.3036309480667114
1631632712025,0.4671691358089447,0.2739149034023285,-0.2040184438228607,0.2879270911216736
1631632712161,0.4657841026782989,0.2767612934112549,-0.1930803656578064,0.2655404806137085
1631632712249,0.4612530767917633,0.2758354246616363,-0.1806496232748031,0.2436876446008682
1631632712348,0.4569527208805084,0.2705103158950805,-0.1692671328783035,0.228640079498291
1631632712430,0.4581278860569,0.2644794285297394,-0.155034527182579,0.2228827625513076
1631632712543,0.4655138850212097,0.2620204985141754,-0.1331565231084823,0.2221377789974212
1631632712659,0.4745818376541137,0.2625297009944916,-0.1039960980415344,0.2212172299623489
1631632712769,0.4825119376182556,0.2621335089206695,-0.0742741972208023,0.2182019054889679
1631632712856,0.4909836649894714,0.2588891088962555,-0.0490433014929294,0.2180658280849456
1631632712953,0.5031850337982178,0.256087064743042,-0.0295256190001964,0.2278891205787658
1631632713063,0.5188866853713989,0.257234662771225,-0.0140390656888484,0.2478568255901336
1631632713149,0.5358584523200989,0.2604842782020569,-0.0003137153107672,0.2711499333381653
1631632713245,0.5525457262992859,0.2599154412746429,0.0134439682587981,0.2898248136043548
1631632713391,0.5696977376937866,0.2520620822906494,0.0267847497016191,0.2998965680599212
1631632713486,0.5887590646743774,0.239684522151947,0.0360872149467468,0.3031697869300842
1631632713573,0.6082273125648499,0.2295241057872772,0.0374428071081638,0.30482879281044
1631632713641,0.6241238117218018,0.226174846291542,0.0317126214504241,0.3078975081443786
1631632713752,0.6329307556152344,0.2288254350423813,0.0240337196737527,0.3096119165420532
1631632713892,0.6330168843269348,0.2326002866029739,0.0179345533251762,0.305763840675354
1631632713982,0.6255990266799927,0.2321282178163528,0.0103397788479924,0.2944169044494629
1631632714085,0.6153815984725952,0.2248122245073318,-0.00424464372918,0.2812540531158447
1631632714175,0.6085020303726196,0.2115731388330459,-0.0260195564478635,0.2754115462303161
1631632714268,0.6065358519554138,0.1961080133914947,-0.0496043153107166,0.2797167003154754
1631632714356,0.6046811938285828,0.1835443973541259,-0.0696756020188331,0.2859963178634643
1631632714495,0.5966636538505554,0.1768323630094528,-0.0848086774349212,0.2817678153514862
1631632714600,0.5835268497467041,0.1757198721170425,-0.094972625374794,0.2631107568740845
1631632714688,0.5718415379524231,0.177490547299385,-0.0989809483289718,0.2369692325592041
1631632714798,0.565068781375885,0.1791038811206817,-0.095717042684555,0.2156251817941665
1631632714888,0.5585785508155823,0.1794825047254562,-0.0867810323834419,0.2073889523744583
1631632714976,0.545007050037384,0.1798700839281082,-0.0755249261856079,0.210225909948349
1631632715086,0.5239903926849365,0.1816168129444122,-0.0663155168294906,0.216392308473587
1631632715202,0.5036439299583435,0.1847490221261978,-0.0641583651304245,0.2208928167819976
1631632715306,0.4909814298152923,0.1877540796995163,-0.0718232691287994,0.2228371798992157
1631632715397,0.4854072332382202,0.1896194219589233,-0.0876083001494407,0.221939355134964
1631632715501,0.4825508892536163,0.1920504420995712,-0.1066880896687507,0.2187729030847549
1631632715633,0.4807613492012024,0.1970309764146804,-0.1249689608812332,0.2125644236803054
1631632715724,0.4812873601913452,0.2041867524385452,-0.1419622898101806,0.2006783485412597
1631632715804,0.4839259088039398,0.2114239633083343,-0.157753437757492,0.1830384135246276
1631632715896,0.4874367117881775,0.2168390899896621,-0.1720214188098907,0.1660225242376327
1631632716012,0.491038829088211,0.2193356901407241,-0.1833953112363815,0.1588531285524368
1631632716110,0.4931222200393677,0.218003049492836,-0.1918196529150009,0.1646657735109329
1631632716206,0.491762638092041,0.2132279127836227,-0.2008541226387024,0.1768759489059448
1631632716284,0.4867837727069855,0.2081896960735321,-0.2168167829513549,0.1866253167390823
1631632716412,0.4821416437625885,0.2060842216014862,-0.2403993308544159,0.1901539713144302
1631632716525,0.4817981719970703,0.2066777944564819,-0.2592482268810272,0.188475102186203
1631632716639,0.4852178692817688,0.206944391131401,-0.2577938437461853,0.1852011084556579
1631632716730,0.4879032969474792,0.2045382410287857,-0.2342423051595688,0.1850241273641586
1631632716829,0.4881185293197632,0.1999718844890594,-0.2008473575115203,0.1905790865421295
1631632716892,0.4904756247997284,0.1952363103628158,-0.1682190597057342,0.2003749012947082
1631632717035,0.4989344477653503,0.19183050096035,-0.1395359188318252,0.2083588987588882
1631632717134,0.509986937046051,0.1905694305896759,-0.1152760609984397,0.20960034430027
1631632717216,0.515032947063446,0.1906082779169082,-0.095689870417118,0.2040352821350097
1631632717313,0.5103550553321838,0.1888461858034134,-0.0774962306022644,0.195772185921669
1631632717403,0.4990738928318023,0.181670531630516,-0.0564808510243892,0.1878219693899154
1631632717515,0.4860435426235199,0.1697140038013458,-0.03420040756464,0.1797928214073181
1631632717657,0.4712572395801544,0.1576171070337295,-0.0179238598793745,0.1680236905813217
1631632717765,0.4523098170757293,0.1494535505771637,-0.0131706530228257,0.1497798711061477
1631632717856,0.4308651983737945,0.1446512192487716,-0.0194716993719339,0.1266683787107467
1631632717932,0.4117154777050018,0.140957310795784,-0.0334090888500213,0.1045250594615936
1631632718037,0.399524450302124,0.1378033310174942,-0.0545310378074646,0.0895889177918434
1631632718126,0.393696665763855,0.137629747390747,-0.0829841867089271,0.0817624256014823
1631632718252,0.3904336988925934,0.1444593220949173,-0.1150015890598297,0.0736057385802269
1631632718344,0.3854623138904571,0.1604243218898773,-0.1438216716051101,0.0580549575388431
1631632718444,0.3752374351024627,0.1823423057794571,-0.1635618358850479,0.0370586179196834
1631632718532,0.3592597246170044,0.2024348229169845,-0.1731979101896286,0.0208061467856168
1631632718639,0.3418895006179809,0.215138629078865,-0.1748760640621185,0.0167762544006109
1631632718755,0.3301493525505066,0.222502052783966,-0.1712730526924133,0.0227717645466327
1631632718860,0.3263123035430908,0.2302576005458831,-0.1675481051206588,0.031218709424138
1631632718951,0.3273780047893524,0.2402745485305786,-0.1682575941085815,0.0380852147936821
1631632719087,0.330278992652893,0.2485487461090088,-0.1720436960458755,0.0421650782227516
1631632719170,0.3360680043697357,0.2510513365268707,-0.1714363694190979,0.0422939918935298
1631632719271,0.3462190628051758,0.2480608969926834,-0.1597161144018173,0.0372890643775463
1631632719378,0.3584877550601959,0.2421407848596573,-0.1388737857341766,0.027745921164751
1631632719514,0.3673402965068817,0.2343969494104385,-0.1172574386000633,0.0172294080257415
1631632719575,0.3672321438789367,0.2240558564662933,-0.1006292477250099,0.0117571409791708
1631632719645,0.3575929403305053,0.2106607258319854,-0.0886950567364692,0.0179177466779947
1631632719764,0.3430720567703247,0.1946547180414199,-0.0783112198114395,0.0377325490117073
1631632719860,0.3308257758617401,0.1769637316465377,-0.0670828148722648,0.0675044953823089
1631632719937,0.3249646425247192,0.158394306898117,-0.056311085820198,0.1043199449777603
1631632720092,0.3236526548862457,0.1398769915103912,-0.0492350198328495,0.1485081911087036
1631632720182,0.3217753171920776,0.1220212951302528,-0.0479808263480663,0.1971919536590576
1631632720267,0.3150371015071869,0.1040967255830764,-0.052999161183834,0.2411723881959915
1631632720378,0.3037145733833313,0.0864269062876701,-0.064274176955223,0.2712755799293518
1631632720455,0.292181521654129,0.0737815499305725,-0.0822164118289947,0.284462958574295
1631632720557,0.2861486971378326,0.072597362101078,-0.1065070107579231,0.2851463854312897
1631632720695,0.2891775965690613,0.0842076539993286,-0.1345215290784835,0.2814406454563141
1631632720787,0.3001901507377624,0.1026627570390701,-0.1620305478572845,0.2805454432964325
1631632720874,0.313732773065567,0.121633343398571,-0.1841560304164886,0.286164790391922
1631632720986,0.3250102996826172,0.1393820792436599,-0.1962777972221374,0.2959720194339752
1631632721086,0.3341717422008514,0.1567389219999313,-0.1965407282114029,0.3050090074539184
1631632721170,0.344125747680664,0.1725086420774459,-0.188726395368576,0.3095404803752899
1631632721304,0.356472373008728,0.1828823387622833,-0.1808574050664901,0.3082132637500763
1631632721386,0.3691684305667877,0.1850793212652206,-0.1809389293193817,0.3012342453002929
1631632721476,0.3788163959980011,0.180788978934288,-0.1922894567251205,0.287265419960022
1631632721590,0.3857054412364959,0.1761798560619354,-0.2102108001708984,0.2627525329589844
1631632721683,0.3947694003582001,0.1762310266494751,-0.2235452085733413,0.2293172478675842
1631632721774,0.3998448550701141,0.1792227029800415,-0.2345924973487854,0.1892201602458953
1631632721904,0.4077784717082977,0.186796560883522,-0.2389968633651733,0.1520382314920425
1631632721995,0.4175091981887817,0.191905602812767,-0.2363643795251846,0.1325025856494903
1631632722083,0.4252581894397735,0.1913744211196899,-0.227250874042511,0.133689671754837
1631632722198,0.4271433353424072,0.1831487864255905,-0.2136306166648864,0.1470424681901931
1631632722288,0.4213962256908417,0.1678780019283294,-0.1988665014505386,0.1620504856109619
1631632722378,0.4099673330783844,0.149703249335289,-0.1857259273529052,0.1705092042684555
1631632722505,0.3985488712787628,0.1340476274490356,-0.1762244552373886,0.1710435152053833
1631632722603,0.3927375674247741,0.1240117326378822,-0.1722643375396728,0.1663760840892791
1631632722707,0.3937974572181701,0.1184262707829475,-0.175691157579422,0.1585742533206939
1631632722802,0.3987824618816376,0.1154269352555275,-0.1859122067689895,0.1502941250801086
1631632722893,0.3987824618816376,0.1145843043923378,-0.1859122067689895,0.1502941250801086
1631632722991,0.3987824618816376,0.1145843043923378,-0.1859122067689895,0.1502941250801086
1631632723132,0.3987824618816376,0.1145843043923378,-0.1859122067689895,0.1502941250801086
1631632723233,0.3987824618816376,0.1145843043923378,-0.1859122067689895,0.1502941250801086
1631632723319,0.3987824618816376,0.1145843043923378,-0.1859122067689895,0.1502941250801086
1631632723430,0.3987824618816376,0.1145843043923378,-0.1859122067689895,0.1502941250801086
1631632723504,0.3987824618816376,0.1145843043923378,-0.1859122067689895,0.1502941250801086
1631632723612,0.3987824618816376,0.1145843043923378,-0.1859122067689895,0.1502941250801086
1631632723735,0.3987824618816376,0.1145843043923378,-0.1859122067689895,0.1502941250801086
1631632723867,0.3987824618816376,0.1145843043923378,-0.1859122067689895,0.1502941250801086
1631632723973,0.3987824618816376,0.1145843043923378,-0.0768781155347824,0.1502941250801086
1631632724041,0.3987824618816376,0.1145843043923378,-0.0838168784976005,0.1502941250801086
1631632724113,0.3987824618816376,0.1145843043923378,-0.0959586203098297,0.1502941250801086
1631632724208,0.3987824618816376,0.1145843043923378,-0.1116485744714737,0.1502941250801086
1631632724349,0.3987824618816376,0.1145843043923378,-0.1244827136397361,0.1502941250801086
1631632724442,0.3987824618816376,0.1145843043923378,-0.1287573277950287,0.1502941250801086
1631632724533,0.3987824618816376,0.1145843043923378,-0.1261711418628692,0.1502941250801086
1631632724646,0.3987824618816376,0.1145843043923378,-0.1238492056727409,0.1502941250801086
1631632724739,0.3987824618816376,0.1145843043923378,-0.1274794638156891,0.1502941250801086
1631632724803,0.3987824618816376,0.1145843043923378,-0.1375293880701065,0.1502941250801086
1631632724972,0.3987824618816376,0.2548834383487701,-0.1492024958133697,0.1502941250801086
1631632725059,0.3987824618816376,0.2415965050458908,-0.1572607904672622,0.490275114774704
1631632725149,0.3987824618816376,0.2167420536279678,-0.172033742070198,0.4593883752822876
1631632725242,0.3987824618816376,0.1954958140850067,-0.1744629591703415,0.4412629008293152
1631632725327,0.3987824618816376,0.1845080554485321,-0.1753893047571182,0.4362553656101227
1631632725430,0.3987824618816376,0.1795720905065536,-0.1817397624254226,0.4343783259391784
1631632725548,0.3987824618816376,0.1745323836803436,-0.1949184834957122,0.4273628294467926
1631632725666,0.3987824618816376,0.1670674830675125,-0.2064987272024154,0.4159399569034576
1631632725750,0.4413885772228241,0.1590044796466827,-0.2056033760309219,0.4055579900741577
1631632725838,0.4414820373058319,0.1532009243965149,-0.1907355636358261,0.3999691009521484
1631632725958,0.4414820373058319,0.1504587978124618,-0.1735924780368805,0.3995648920536041
1631632726044,0.4414820373058319,0.1492454409599304,-0.1664133965969085,0.3995648920536041
1631632726176,0.4414820373058319,0.145049437880516,-0.1711755841970443,0.3995648920536041
1631632726267,0.4414820373058319,0.1349023282527923,-0.1813718974590301,0.3872261047363281
1631632726371,0.4414820373058319,0.1184015944600105,-0.1877399235963821,0.3700139820575714
1631632726470,0.4414820373058319,0.1040920615196228,-0.1866715103387832,0.3557223677635193
1631632726556,0.4414820373058319,0.0972935408353805,-0.1802482008934021,0.3522427380084991
1631632726658,0.4414820373058319,0.0998606607317924,-0.1740303933620453,0.3575051128864288
1631632726781,0.4414820373058319,0.104908287525177,-0.1741806417703628,0.3603317141532898
1631632726867,0.4414820373058319,0.1055281832814216,-0.1807824373245239,0.3524315655231476
1631632726965,0.4450339376926422,0.1017747670412063,-0.1848526746034622,0.3373142778873443
1631632727061,0.4450339376926422,0.0986050739884376,-0.1738771796226501,0.3296347260475158
1631632727168,0.4450339376926422,0.1005999967455864,-0.1464099436998367,0.3296347260475158
1631632727276,0.4450339376926422,0.1071985810995101,-0.1165701895952224,0.3296347260475158
1631632727401,0.4450339376926422,0.1130424663424491,-0.0963796600699424,0.3296347260475158
1631632727516,0.4450339376926422,0.1130181103944778,-0.0866341963410377,0.3296347260475158
1631632727584,0.4450339376926422,0.1130181103944778,-0.0752384811639785,0.3296347260475158
1631632727680,0.4450339376926422,0.1130181103944778,-0.0480243079364299,0.3296347260475158
1631632727793,0.4450339376926422,0.1130181103944778,-0.0048360368236899,0.3296347260475158
1631632727857,0.4450339376926422,0.1130181103944778,0.0393787026405334,0.3296347260475158
1631632728006,0.4450339376926422,0.1130181103944778,0.0701130628585815,0.3296347260475158
1631632728099,0.4450339376926422,0.1130181103944778,0.0823885947465896,0.3296347260475158
1631632728192,0.4450339376926422,0.1130181103944778,0.0801312625408172,0.3296347260475158
1631632728283,0.4450339376926422,0.1130181103944778,0.072763442993164,0.3296347260475158
1631632728377,0.4450339376926422,0.1130181103944778,0.0668953210115432,0.3296347260475158
1631632728457,0.4450339376926422,0.1130181103944778,0.0670250058174133,0.3296347260475158
1631632728611,0.4450339376926422,0.1130181103944778,0.0729577615857124,0.3296347260475158
1631632728705,0.4450339376926422,0.1130181103944778,0.0805658474564552,0.3296347260475158
1631632728798,0.4450339376926422,0.1130181103944778,0.0865630358457565,0.3296347260475158
1631632728884,0.4450339376926422,0.0080171814188361,0.0883093252778053,0.3296347260475158
1631632728978,0.4450339376926422,0.033391423523426,0.0849984213709831,0.3296347260475158
1631632729074,0.4450339376926422,0.0421470440924167,0.0745283812284469,0.3296347260475158
1631632729216,0.4450339376926422,0.0355299971997737,0.0522065125405788,0.3296347260475158
1631632729315,0.4450339376926422,0.0216893851757049,0.0165223758667707,0.3296347260475158
1631632729418,0.4450339376926422,0.0087549872696399,-0.0255962796509265,0.3296347260475158
1631632729512,0.4450339376926422,-0.0005575772374868,-0.0599573701620101,0.3296347260475158
1631632729602,0.4450339376926422,-0.0083511220291256,-0.077095553278923,0.3296347260475158
1631632729697,0.4450339376926422,-0.0157212130725383,-0.0781356170773506,0.3296347260475158
1631632729822,0.4450339376926422,-0.0187383405864238,-0.0715556219220161,0.3296347260475158
1631632729934,0.4450339376926422,-0.0116347325965762,-0.0624157786369323,0.3296347260475158
1631632730025,0.4450339376926422,0.008812066167593,-0.0569131635129451,0.3296347260475158
1631632730114,0.4450339376926422,0.0170366987586021,-0.0621997714042663,0.3296347260475158
1631632730210,0.4450339376926422,0.0206544082611799,-0.0818084776401519,0.3296347260475158
1631632730324,0.4450339376926422,0.0649531111121177,-0.1136185601353645,0.3296347260475158
1631632730441,0.4450339376926422,0.0873311385512352,-0.1494589149951934,0.3296347260475158
1631632730515,0.4450339376926422,0.091275617480278,-0.1792043894529342,0.3296347260475158
1631632730628,0.4450339376926422,0.0880847200751304,-0.1968350112438202,0.3296347260475158
1631632730718,0.4450339376926422,0.0951064676046371,-0.2013337761163711,0.3296347260475158
1631632730810,0.4450339376926422,0.108593076467514,-0.1953928172588348,0.3296347260475158
1631632730910,0.4450339376926422,0.1255241185426712,-0.1826409101486206,0.3296347260475158
1631632731073,0.4450339376926422,0.1443119645118713,-0.1662608534097671,0.3296347260475158
1631632731171,0.4450339376926422,0.1667294055223465,-0.1458025574684143,0.3296347260475158
1631632731232,0.4450339376926422,0.1947606652975082,-0.1209763661026954,0.3296347260475158
1631632731345,0.4450339376926422,0.2254629880189895,-0.0949356481432914,0.3296347260475158
1631632731460,0.4450339376926422,0.2506478726863861,-0.0726632252335548,0.3296347260475158
1631632731557,0.4450339376926422,0.2569054961204529,-0.0578316003084182,0.3296347260475158
1631632731666,0.4450339376926422,0.2569054961204529,-0.0506966970860958,0.3296347260475158
1631632731744,0.4450339376926422,0.2569054961204529,-0.0496888197958469,0.3296347260475158
1631632731888,0.4450339376926422,0.2569054961204529,-0.0520782135426998,0.3296347260475158
1631632731970,0.4450339376926422,0.2569054961204529,-0.0544074960052967,0.3296347260475158
1631632732044,0.4450339376926422,0.2569054961204529,-0.0537140481173992,0.3296347260475158
1631632732129,0.4450339376926422,0.2569054961204529,-0.049954991787672,0.3296347260475158
1631632732266,0.4450339376926422,0.2569054961204529,-0.0465240329504013,0.3296347260475158
1631632732351,0.4450339376926422,0.2569054961204529,-0.0468906201422214,0.3296347260475158
1631632732464,0.4450339376926422,0.2569054961204529,-0.0521169267594814,0.3296347260475158
1631632732556,0.6086161732673645,-0.0032782927155494,-0.0605231374502182,0.5865790843963623
1631632732669,0.5784969329833984,-0.0192137267440557,-0.0706438645720481,0.5523601174354553
1631632732758,0.5614725351333618,-0.0172289852052927,-0.0830497965216636,0.5207301378250122
1631632732885,0.5627626776695251,0.0005158485146239,-0.0982545465230941,0.4941955208778381
1631632732985,0.5729861259460449,0.0236774012446403,-0.1162834838032722,0.4679625332355499
1631632733067,0.5810186266899109,0.0466437079012393,-0.1366173326969146,0.4679625332355499
1631632733154,0.5818031430244446,0.0702123045921325,-0.1582708805799484,0.4679625332355499
1631632733259,0.5777726769447327,0.0954100787639617,-0.1777478903532028,0.4679625332355499
1631632733381,0.5777726769447327,0.0954100787639617,-0.1904234886169433,0.4679625332355499
1631632733487,0.5777726769447327,0.0954100787639617,-0.1951793283224105,0.4679625332355499
1631632733581,0.5777726769447327,0.0954100787639617,-0.1964833438396453,0.4679625332355499
1631632733677,0.5777726769447327,0.0954100787639617,-0.1984823197126388,0.4679625332355499
1631632733760,0.5694482922554016,0.104142390191555,-0.2011800557374954,0.4448437094688415
1631632733854,0.5593932271003723,0.1105508729815483,-0.2036688923835754,0.4038012325763702
1631632733969,0.5532180666923523,0.1216154545545578,-0.2073519676923751,0.3507608771324157
1631632734092,0.5591115951538086,0.1628947705030441,-0.2162075042724609,0.304246038198471
1631632734183,0.5771681666374207,0.1840436905622482,-0.2323784828186035,0.304246038198471
1631632734280,0.6091217994689941,0.1849899739027023,-0.2538378238677978,0.304246038198471
1631632734410,0.6136451959609985,0.171896830201149,-0.2730260789394378,0.304246038198471
1631632734519,0.6107699275016785,0.1534581035375595,-0.2787744104862213,0.304246038198471
1631632734566,0.624290406703949,0.1342318654060363,-0.2644983530044555,0.2269312441349029
1631632734718,0.6571717262268066,0.1112679243087768,-0.2332623749971389,0.2447690814733505
1631632734816,0.6907633543014526,0.0816720575094223,-0.1974585950374603,0.2667914628982544
1631632734899,0.6864823698997498,0.0897092223167419,-0.1681680083274841,0.2885601222515106
1631632734991,0.6864823698997498,0.1010681539773941,-0.1489643305540084,0.3031135201454162
1631632735083,0.6864823698997498,0.1142222508788108,-0.1369613260030746,0.3031135201454162
1631632735193,0.6864823698997498,0.1142222508788108,-0.1287214159965515,0.3031135201454162
1631632735317,0.6864823698997498,0.1142222508788108,-0.1240639612078666,0.3031135201454162
1631632735413,0.6864823698997498,0.1142222508788108,-0.1244888305664062,0.3031135201454162
1631632735524,0.6864823698997498,0.1142222508788108,-0.1297815293073654,0.3031135201454162
1631632735619,0.6864823698997498,0.0934569984674453,-0.1368864029645919,0.3031135201454162
1631632735704,0.6864823698997498,0.0874030143022537,-0.1419966369867324,0.3031135201454162
1631632735799,0.6896452307701111,0.0967679843306541,-0.1422410607337951,0.3169103860855102
1631632735945,0.7056645750999451,0.1148395836353302,-0.1393165439367294,0.3322573900222778
1631632736015,0.7242915630340576,0.1342237740755081,-0.1399942934513092,0.3494450151920318
1631632736106,0.7242915630340576,0.1519198715686798,-0.1501822471618652,0.3679054379463196
1631632736201,0.7242915630340576,0.1703299432992935,-0.1702937930822372,0.3679054379463196
1631632736311,0.7242915630340576,0.1703299432992935,-0.1942977011203766,0.3679054379463196
1631632736424,0.7242915630340576,0.1703299432992935,-0.2140504121780395,0.3679054379463196
1631632736530,0.7242915630340576,0.1703299432992935,-0.2259943932294845,0.3679054379463196
1631632736619,0.7242915630340576,0.1703299432992935,-0.2335864007472992,0.3679054379463196
1631632736733,0.7242915630340576,0.1703299432992935,-0.2387899607419967,0.3679054379463196
1631632736829,0.7242915630340576,0.1703299432992935,-0.2390325218439102,0.3679054379463196
1631632736917,0.7242915630340576,0.1703299432992935,-0.2301226407289505,0.3679054379463196
1631632737007,0.7242915630340576,0.1703299432992935,-0.2137677520513534,0.3679054379463196
1631632737162,0.2765910923480987,0.0010146524291485,-0.1972699910402298,0.3679054379463196
1631632737223,0.2596644759178161,-0.0283253900706768,-0.186206579208374,0.3679054379463196
1631632737320,0.2548278272151947,-0.0443478636443614,-0.1837943792343139,0.2260288745164871
1631632737450,0.2548278272151947,-0.040200550109148,-0.1890971213579177,0.2260288745164871
1631632737524,0.2548278272151947,-0.018375888466835,-0.1987180113792419,0.2260288745164871
1631632737618,0.2548278272151947,0.009533992037177,-0.2093082219362259,0.2260288745164871
1631632737760,0.2548278272151947,0.0331411100924015,-0.2182055413722992,0.2260288745164871
1631632737849,0.2548278272151947,0.0479447431862354,-0.2249574214220047,0.2260288745164871
1631632737938,0.2548278272151947,0.0550075098872184,-0.230826660990715,0.2260288745164871
1631632738034,0.2548278272151947,0.0573491007089614,-0.2359655350446701,0.2260288745164871
1631632738118,0.2548278272151947,0.0573638714849948,-0.2383078187704086,0.2260288745164871
1631632738220,0.2587521970272064,0.0557816252112388,-0.2398758381605148,0.2260288745164871
1631632738362,0.2353531569242477,0.046895544975996,-0.2453051656484604,0.222588300704956
1631632738468,0.2469733953475952,0.0446013286709785,-0.255595713853836,0.2290284782648086
1631632738561,0.279592752456665,0.0514738000929355,-0.2641427218914032,0.2539825439453125
1631632738657,0.3256992697715759,0.0725772157311439,-0.2635268867015838,0.3177732229232788
1631632738748,0.3810343146324157,0.1080648377537727,-0.2531656324863434,0.4055418670177459
1631632738850,0.4360219836235046,0.147998496890068,-0.2336800843477249,0.488085389137268
1631632738999,0.4598127901554107,0.180253580212593,-0.2045251429080963,0.488085389137268
1631632739059,0.4598127901554107,0.1995637714862823,-0.1631616204977035,0.488085389137268
1631632739186,0.4598127901554107,0.2097429037094116,-0.1150539889931678,0.488085389137268
1631632739263,0.4598127901554107,0.2177913337945938,-0.0717360824346542,0.488085389137268
1631632739355,0.4598127901554107,0.2280614972114563,-0.0416351556777954,0.488085389137268
1631632739489,0.4598127901554107,0.2345131635665893,-0.0254822913557291,0.488085389137268
1631632739576,0.4598127901554107,0.2441623210906982,-0.018278220668435,0.488085389137268
1631632739692,0.4598127901554107,0.2566227316856384,-0.013200182467699,0.488085389137268
1631632739775,0.4802101850509643,0.272227942943573,-0.0059744683094322,0.488085389137268
1631632739895,0.5048385858535767,0.2915752530097961,0.0044901967048645,0.5274705290794373
1631632739991,0.5313419103622437,0.3152062594890594,0.0185428131371736,0.574744701385498
1631632740082,0.5583919286727905,0.3394533097743988,0.0320643000304698,0.574744701385498
1631632740196,0.5583919286727905,0.3564745485782623,0.0434802733361721,0.574744701385498
1631632740311,0.5583919286727905,0.3592664003372192,0.0530792921781539,0.574744701385498
1631632740381,0.5583919286727905,0.347756952047348,0.0604554340243339,0.574744701385498
1631632740488,0.5583919286727905,0.3297196328639984,0.0623550117015838,0.574744701385498
1631632740583,0.5583919286727905,0.3297196328639984,0.0513543896377086,0.574744701385498
1631632740678,0.5583919286727905,0.3297196328639984,0.0234602615237236,0.574744701385498
1631632740802,0.5583919286727905,0.3297196328639984,-0.0061703310348093,0.574744701385498
1631632740899,0.5583919286727905,0.3297196328639984,-0.0169077478349208,0.574744701385498
1631632740994,0.5583919286727905,0.3297196328639984,-0.0006251604063436,0.574744701385498
1631632741103,0.5583919286727905,0.3297196328639984,0.0275129210203886,0.574744701385498
1631632741184,0.5583919286727905,0.3297196328639984,0.0464272201061248,0.574744701385498
1631632741274,0.5583919286727905,0.3297196328639984,0.047124657779932,0.574744701385498
1631632741405,0.5583919286727905,0.3297196328639984,0.0330062955617904,0.574744701385498
1631632741494,0.5583919286727905,0.3297196328639984,0.0101055689156055,0.574744701385498
1631632741607,0.5583919286727905,0.3297196328639984,-0.0062387934885919,0.574744701385498
1631632741681,0.5583919286727905,0.3297196328639984,-0.0167757626622915,0.574744701385498
1631632741813,0.5583919286727905,0.3297196328639984,-0.026299238204956,0.574744701385498
1631632741912,0.5583919286727905,0.3297196328639984,-0.0388822741806507,0.574744701385498
1631632742009,0.5583919286727905,0.3297196328639984,-0.0545746833086013,0.574744701385498
1631632742100,0.5583919286727905,0.3297196328639984,-0.0696670562028884,0.574744701385498
1631632742197,0.5846318006515503,0.3486282527446747,-0.086960919201374,0.4725909829139709
1631632742301,0.5945336222648621,0.3410361409187317,-0.0966321676969528,0.4280411005020141
1631632742389,0.6016343832015991,0.3393857777118683,-0.1024482920765876,0.3944875597953796
1631632742506,0.5974792242050171,0.336560845375061,-0.1089003980159759,0.3719634115695953
1631632742632,0.5830108523368835,0.3298544287681579,-0.1160627901554107,0.3559644818305969
1631632742730,0.5656484365463257,0.3198525309562683,-0.1190221831202507,0.3422856330871582
1631632742821,0.551618218421936,0.3092096149921417,-0.1127962321043014,0.3298179507255554
1631632742910,0.5426598787307739,0.2991501092910766,-0.0952260196208953,0.3196309804916382
1631632743009,0.5368042588233948,0.2884540259838104,-0.0693158283829689,0.3119879364967346
1631632743085,0.5318804979324341,0.2760787904262543,-0.042815413326025,0.3055790066719055
1631632743239,0.5269794464111328,0.2637013792991638,-0.0241450686007738,0.298837810754776
1631632743305,0.5220325589179993,0.253972589969635,-0.0163470357656478,0.291179358959198
1631632743419,0.5104594230651855,0.235691413283348,-0.0158610120415687,0.2527093589305877
1631632743538,0.4999826848506927,0.220433622598648,-0.0155592346563935,0.2115738689899444
1631632743644,0.4922060072422027,0.2126895636320114,-0.007564565166831,0.1796745508909225
1631632743713,0.4845773577690124,0.2064236849546432,0.0097674708813428,0.1710955500602722
1631632743865,0.4718519747257232,0.1966443806886673,0.030834125354886,0.1702207326889038
1631632743962,0.4562887847423553,0.182083860039711,0.0463066063821315,0.1701165437698364
1631632744022,0.4451325237751007,0.1656518280506134,0.050309594720602,0.1668158322572708
1631632744146,0.4432364702224731,0.1509032845497131,0.0442762225866317,0.1607043892145156
1631632744321,0.4478566944599151,0.1398786753416061,0.0340219996869564,0.1543746292591095
1631632744390,0.4529117941856384,0.1306560784578323,0.0235490929335355,0.1486270725727081
1631632744494,0.4543591141700744,0.1212476044893264,0.0111720124259591,0.1404432356357574
1631632744572,0.4525860249996185,0.1154293715953826,-0.0074861203320324,0.1261331588029861
1631632744654,0.4499663710594177,0.1213079169392585,-0.0313541479408741,0.104591391980648
1631632744716,0.4171090424060821,0.1213079169392585,-0.0526368767023086,0.0758068785071373
1631632744835,0.3755339384078979,0.1213079169392585,-0.0629034414887428,0.0517965704202652
1631632744946,0.3378240168094635,0.1213079169392585,-0.06239465624094,0.0432710982859134
1631632745075,0.3222288191318512,0.1213079169392585,-0.0600338019430637,0.072694294154644
1631632745189,0.2917893230915069,0.0527558512985706,-0.067349188029766,0.0921224579215049
1631632745286,0.2258065193891525,0.0534213297069072,-0.0888668224215507,0.0921224579215049
1631632745370,0.2258065193891525,0.0534213297069072,-0.115082673728466,0.0921224579215049
1631632745460,0.2258065193891525,0.0534213297069072,-0.1227043643593788,0.0921224579215049
1631632745547,0.2258065193891525,0.0534213297069072,-0.1460012346506118,0.0921224579215049
1631632745701,0.2258065193891525,0.0534213297069072,-0.1549085080623626,0.0921224579215049
1631632745765,0.2258065193891525,0.0534213297069072,-0.153642937541008,0.0921224579215049
1631632745858,0.2258065193891525,0.0534213297069072,-0.1498703211545944,0.0921224579215049
1631632745951,0.2258065193891525,0.0534213297069072,-0.1475028544664383,0.0921224579215049
1631632746043,0.2258065193891525,0.0534213297069072,-0.1449020057916641,0.0921224579215049
1631632746154,0.2258065193891525,0.0534213297069072,-0.1407789140939712,0.0921224579215049
1631632746289,0.2258065193891525,0.0534213297069072,-0.1506170779466629,0.0921224579215049
1631632746371,0.2258065193891525,0.061023823916912,-0.1636465340852737,0.0921224579215049
1631632746486,0.2258065193891525,0.1065217778086662,-0.1672298312187194,0.0921224579215049
1631632746578,0.2258065193891525,0.1288207024335861,-0.1502887457609176,0.0921224579215049
1631632746670,0.2258065193891525,0.144005462527275,-0.1184338256716728,0.0921224579215049
1631632746760,0.5663232207298279,0.1589345335960388,-0.0922123491764068,0.0921224579215049
1631632746914,0.536392331123352,0.1548852026462555,-0.0957363471388816,0.0921224579215049
1631632746998,0.536392331123352,0.1565374583005905,-0.1504502296447754,0.0921224579215049
1631632747080,0.536392331123352,0.1646689921617508,-0.1614179909229278,0.0921224579215049
1631632747185,0.536392331123352,0.179563969373703,-0.1711418479681015,0.0921224579215049
1631632747289,0.536392331123352,0.179563969373703,-0.1766033768653869,0.0921224579215049
1631632747359,0.536392331123352,0.179563969373703,-0.1745858788490295,0.0921224579215049
1631632747489,0.536392331123352,0.179563969373703,-0.1684105545282364,0.0921224579215049
1631632747603,0.536392331123352,0.179563969373703,-0.1628580391407013,0.0921224579215049
