timestamp,TP9,AF7,AF8,TP10
1629807853242,0.6792208552360535,0.2538954019546509,0.5738316774368286,0.4225305914878845
1629807853414,0.6792208552360535,0.2538954019546509,0.5728787779808044,0.4225305914878845
1629807853492,0.6792208552360535,0.2538954019546509,0.5567585825920105,0.4225305914878845
1629807853557,0.6792208552360535,0.2538954019546509,0.5287227630615234,0.4225305914878845
1629807853666,0.6792208552360535,0.2538954019546509,0.494792103767395,0.4225305914878845
1629807853776,0.6792208552360535,0.2370171844959259,0.4604057371616363,0.4225305914878845
1629807853854,0.6792208552360535,0.2590866684913635,0.4290855824947357,0.4225305914878845
1629807853994,0.6792208552360535,0.3077435493469238,0.4039295315742492,0.4225305914878845
1629807854104,0.6792208552360535,0.3283731639385223,0.3872904479503631,0.4225305914878845
1629807854197,0.6792208552360535,0.3276821970939636,0.3797406852245331,0.4225305914878845
1629807854275,0.6792208552360535,0.3395158648490906,0.3819130361080169,0.4225305914878845
1629807854354,0.6792208552360535,0.3330174684524536,0.3936294615268707,0.4225305914878845
1629807854463,0.6792208552360535,0.3040663599967956,0.4096819758415222,0.4225305914878845
1629807854619,0.6792208552360535,0.2777826189994812,0.4198201894760132,0.4225305914878845
1629807854697,0.6792208552360535,0.2548765838146209,0.4169069826602936,0.4225305914878845
1629807854760,0.6792208552360535,0.2429585009813308,0.404883474111557,0.4225305914878845
1629807854885,0.6792208552360535,0.2456108182668686,0.3965782225131988,0.4225305914878845
1629807854978,0.6792208552360535,0.2564911842346191,0.3998451828956604,0.4225305914878845
1629807855103,0.6792208552360535,0.2649231851100921,0.4115785658359527,0.4225305914878845
1629807855228,0.6792208552360535,0.2640049457550049,0.4245293140411377,0.4225305914878845
1629807855338,0.6792208552360535,0.2553933262825012,0.4348544180393219,0.4225305914878845
1629807855400,0.6792208552360535,0.2331067472696304,0.4409838020801544,0.4225305914878845
1629807855478,0.6792208552360535,0.2009284645318985,0.4411629438400268,0.4225305914878845
1629807855637,0.6792208552360535,0.1680112034082412,0.4343110620975494,0.4225305914878845
1629807855668,0.6792208552360535,0.1437168270349502,0.421967476606369,0.4225305914878845
1629807855824,0.6792208552360535,0.129677414894104,0.4039982259273529,0.4225305914878845
1629807855934,0.6792208552360535,0.1218818500638008,0.3765788078308105,0.4225305914878845
1629807856028,0.6792208552360535,0.119251936674118,0.3370050489902496,0.4225305914878845
1629807856106,0.6792208552360535,0.1223734095692634,0.289932519197464,0.4225305914878845
1629807856168,0.6792208552360535,0.127726748585701,0.2451316714286804,0.4225305914878845
1629807856293,0.6792208552360535,0.1273059993982315,0.2075693160295486,0.4225305914878845
1629807856436,0.6792208552360535,0.1136740520596504,0.1732719838619232,0.4225305914878845
1629807856546,0.6792208552360535,0.0873025059700012,0.1392755657434463,0.4225305914878845
1629807856655,0.6792208552360535,0.0599875599145889,0.1095504611730575,0.4225305914878845
1629807856717,0.6792208552360535,0.047181636095047,0.0919272527098655,0.4225305914878845
1629807856811,0.6792208552360535,0.0504953972995281,0.08765459805727,0.4225305914878845
1629807856889,0.6792208552360535,0.0598890632390975,0.0920535326004028,0.4225305914878845
1629807857077,0.6792208552360535,0.0647226050496101,0.1007246524095535,0.4225305914878845
1629807857171,0.6792208552360535,0.0631611794233322,0.1132516860961914,0.4225305914878845
1629807857233,0.6792208552360535,0.0580759719014167,0.1269006729125976,0.4225305914878845
1629807857311,0.6792208552360535,0.0524136051535606,0.1370148807764053,0.4225305914878845
1629807857439,0.6792208552360535,0.0470102205872535,0.1409801840782165,0.4225305914878845
1629807857548,0.6792208552360535,0.0405757650732994,0.1411881148815155,0.4225305914878845
1629807857642,0.6792208552360535,0.0322737880051136,0.1431873738765716,0.4225305914878845
1629807857736,0.6792208552360535,0.0218981653451919,0.1522619873285293,0.4225305914878845
1629807857861,0.6792208552360535,0.0106556471437215,0.1746267080307006,0.4225305914878845
1629807857939,0.6792208552360535,0.001418373780325,0.2131874859333038,0.4225305914878845
1629807858017,0.6792208552360535,-0.0031931726261973,0.2611145377159118,0.4225305914878845
1629807858142,0.6792208552360535,-0.006335565354675,0.3045403957366943,0.4225305914878845
1629807858267,0.6792208552360535,-0.0140173966065049,0.3333074450492859,0.4225305914878845
1629807858361,0.6792208552360535,-0.0282293874770402,0.3468310236930847,0.4225305914878845
1629807858441,0.6792208552360535,-0.0430768728256225,0.3504408001899719,0.4225305914878845
1629807858566,0.1711121946573257,-0.0497337020933628,0.3491998314857483,0.327467530965805
1629807858691,0.1780978590250015,-0.0465902425348758,0.344235748052597,0.3021880984306335
1629807858753,0.201553389430046,-0.0386164933443069,0.3368959128856659,0.2829692363739013
1629807858831,0.230591207742691,-0.0300680939108133,0.331539124250412,0.2706456184387207
1629807858956,0.2630403041839599,-0.0229563042521476,0.3317193984985351,0.2591674327850342
1629807859097,0.2994432747364044,-0.018451802432537,0.3351104855537414,0.2442119866609573
1629807859144,0.2994432747364044,-0.0173815563321113,0.3350499272346496,0.2442119866609573
1629807859238,0.2994432747364044,-0.0186655204743146,0.325366735458374,0.2442119866609573
1629807859331,0.2994432747364044,-0.019884156063199,0.30184206366539,0.2442119866609573
1629807859493,0.2994432747364044,-0.0190838109701871,0.2622541189193725,0.2442119866609573
1629807859602,0.2994432747364044,-0.0168400239199399,0.2096340507268905,0.2442119866609573
1629807859633,0.2994432747364044,-0.0134713063016533,0.1570951044559478,0.2442119866609573
1629807859743,0.3006165623664856,-0.0091064879670739,0.1210039556026458,0.2290476113557815
1629807859852,0.3187010288238525,-0.0047593009658157,0.1066139414906501,0.2051470726728439
1629807859946,0.3467893004417419,-0.0022469914983958,0.1064537540078163,0.1791455894708633
1629807860102,0.3803108036518097,-0.0016950577264651,0.117290049791336,0.1637876629829406
1629807860211,0.4149576127529144,-0.0011961148120462,0.1452013850212097,0.1588093340396881
1629807860258,0.4149576127529144,0.000805840245448,0.189301460981369,0.1588093340396881
1629807860383,0.4149576127529144,0.0034931963309645,0.2351943701505661,0.1588093340396881
1629807860465,0.4149576127529144,0.0070440219715237,0.2683199644088745,0.1588093340396881
1629807860591,0.4149576127529144,0.0139293214306235,0.2845670282840729,0.1588093340396881
1629807860682,0.4149576127529144,0.0246352050453424,0.2896836698055267,0.1588093340396881
1629807860807,0.4149576127529144,0.035793662071228,0.2925121188163757,0.1588093340396881
1629807860891,0.4149576127529144,0.044834766536951,0.2972865104675293,0.1588093340396881
1629807860969,0.4149576127529144,0.0527354292571544,0.3024379909038543,0.1588093340396881
1629807861096,0.4149576127529144,0.0655825212597847,0.3040480315685272,0.1588093340396881
1629807861158,0.4149576127529144,0.0904669240117073,0.2995644509792328,0.1588093340396881
1629807861330,0.4149576127529144,0.1293490678071975,0.2900536358356476,0.1588093340396881
1629807861427,0.4149576127529144,0.1752144992351532,0.2784353792667389,0.1588093340396881
1629807861536,0.4149576127529144,0.2172939628362655,0.2670505046844482,0.1588093340396881
1629807861623,0.4149576127529144,0.2487797886133194,0.2526699602603912,0.1588093340396881
1629807861652,0.4149576127529144,0.2698986828327179,0.2277797013521194,0.1588093340396881
1629807861746,0.4149576127529144,0.2839608490467071,0.1883019357919693,0.1939237862825393
1629807861902,0.3868842124938965,0.2929197251796722,0.1416394710540771,0.1708046793937683
1629807862044,0.4030450582504272,0.2976896464824676,0.1057268306612968,0.1592228263616562
1629807862233,0.4118197560310364,0.3000466823577881,0.0943948104977607,0.151315227150917
1629807862249,0.4120805859565735,0.3035612404346466,0.1028765365481376,0.1414591521024704
1629807862276,0.4020131826400757,0.3110228478908539,0.1160049960017204,0.132047101855278
1629807862402,0.3867217898368835,0.3202486336231231,0.1255227476358413,0.1241999268531799
1629807862558,0.3727543354034424,0.3253828585147857,0.1320735514163971,0.1201209872961044
1629807862604,0.3661035597324371,0.3203686475753784,0.1391373127698898,0.1157384365797042
1629807862733,0.3695070445537567,0.3009998798370361,0.1467133611440658,0.1098617017269134
1629807862791,0.3766669929027557,0.2664247751235962,0.1536357849836349,0.1012459173798561
1629807862953,0.3766669929027557,0.2208888679742813,0.1627160161733627,0.1012459173798561
1629807862997,0.3766669929027557,0.1730218231678009,0.1775420606136322,0.0881857052445411
1629807863169,0.3793681263923645,0.1304772347211837,0.1994338929653167,0.0738820135593414
1629807863216,0.3797706663608551,0.0948814451694488,0.2238971292972564,0.0631056427955627
1629807863325,0.3785239458084106,0.0631961226463317,0.2444796562194824,0.0578219182789325
1629807863387,0.3720476925373077,0.0353894904255867,0.2579839825630188,0.0571728721261024
1629807863512,0.3593281805515289,0.014002401381731,0.2662827968597412,0.0520423203706741
1629807863626,0.3440912663936615,0.0005649462691508,0.2769967019557953,0.0446427017450332
1629807863735,0.331334114074707,-0.0087821893393993,0.2985512316226959,0.0410867370665073
1629807863829,0.3327597081661224,-0.0220707319676876,0.3305171132087707,0.0396174378693103
1629807863938,0.3531546294689178,-0.0425881184637546,0.340794563293457,0.0379163846373558
1629807864063,0.3531546294689178,-0.0644480809569358,0.3541216552257538,0.0379163846373558
1629807864127,0.3531546294689178,-0.0791939496994018,0.3680869042873382,0.0379163846373558
1629807864221,0.3531546294689178,-0.0849632769823074,0.381237655878067,0.0379163846373558
1629807864330,0.3531546294689178,-0.0873977914452552,0.3937678635120392,0.0379163846373558
1629807864424,0.3531546294689178,-0.0900969207286834,0.4051739275455475,0.0379163846373558
1629807864555,0.3531546294689178,-0.0868909731507301,0.4136489033699035,0.0379163846373558
1629807864650,0.3531546294689178,-0.0604287236928939,0.4172688126564026,0.0379163846373558
1629807864744,0.3531546294689178,-0.0532909892499446,0.4196210205554962,0.0379163846373558
1629807864807,0.3194130361080169,-0.0436888188123703,0.4302040040493011,0.0379163846373558
1629807864955,0.3381872177124023,-0.0327558927237987,0.4571735560894012,0.0379163846373558
1629807865064,0.3590288162231445,0.0738643333315849,0.4571735560894012,0.0379163846373558
1629807865171,0.3838404715061188,0.1780193597078323,0.4571735560894012,0.0379163846373558
1629807865233,0.3838404715061188,0.2895549535751343,0.4571735560894012,0.0379163846373558
1629807865327,0.3838404715061188,0.3018038868904114,0.4571735560894012,0.0379163846373558
1629807865468,0.3838404715061188,0.3190371990203857,0.610556423664093,0.0379163846373558
1629807865546,0.3838404715061188,0.3443250358104706,0.6255254149436951,0.0379163846373558
1629807865671,0.3838404715061188,0.3781884610652923,0.6698238849639893,0.0379163846373558
1629807865733,0.3838404715061188,0.4201491177082062,0.7206188440322876,0.0379163846373558
1629807865858,0.3838404715061188,0.4494633078575134,0.7576413750648499,0.0379163846373558
1629807865969,0.3838404715061188,0.4722515642642975,0.7747080326080322,0.0379163846373558
1629807866046,0.3911829590797424,0.4871155321598053,0.7769243717193604,0.0379163846373558
1629807866203,0.4102014601230621,0.4875085949897766,0.7732383608818054,0.0379163846373558
1629807866312,0.4334828853607178,0.4605150520801544,0.7688961625099182,0.0379163846373558
1629807866359,0.4334828853607178,0.43715900182724,0.7639213800430298,0.0379163846373558
1629807866490,0.4334828853607178,0.4173907935619354,0.7560476064682007,0.0379163846373558
1629807866568,0.4334828853607178,0.3803069591522217,0.7439107298851013,0.0379163846373558
1629807866631,0.4334828853607178,0.3228695392608642,0.733866810798645,0.0379163846373558
1629807866818,0.4334828853607178,0.2180684953927993,0.7217000126838684,0.0379163846373558
1629807866896,0.4334828853607178,0.213708609342575,0.7117024064064026,0.0379163846373558
1629807866959,0.4334828853607178,0.2048949301242828,0.7017170786857605,0.0379163846373558
1629807867084,0.4334828853607178,0.1931717097759246,0.6832969188690186,0.0379163846373558
1629807867162,0.4334828853607178,0.1815567910671234,0.6481822729110718,0.0379163846373558
1629807867256,0.4334828853607178,0.1506789922714233,0.5959179401397705,0.0379163846373558
1629807867414,0.4334828853607178,0.1330804079771042,0.5344834923744202,0.0379163846373558
1629807867477,0.4334828853607178,0.1223047003149986,0.4749210476875305,0.0379163846373558
1629807867571,0.4334828853607178,0.1121194958686828,0.4217454791069031,0.0379163846373558
1629807867680,0.4334828853607178,0.0986554995179176,0.3698881566524505,0.0379163846373558
1629807867821,0.4334828853607178,0.0829720497131347,0.3135348856449127,0.0379163846373558
1629807867852,0.4334828853607178,0.0690830498933792,0.253233939409256,0.0379163846373558
1629807867992,0.4334828853607178,0.05919636413455,0.1964124739170074,0.0379163846373558
1629807868086,0.4334828853607178,0.050975177437067,0.1517186760902404,0.0379163846373558
1629807868227,0.4334828853607178,0.0407645776867866,0.1208954602479934,0.0379163846373558
1629807868336,0.4334828853607178,0.0269641447812318,0.0968892574310302,0.0379163846373558
1629807868352,0.4334828853607178,0.0134174870327115,0.0749583318829536,0.0379163846373558
1629807868527,0.4334828853607178,0.0087899304926395,0.0584396496415138,0.0379163846373558
1629807868605,0.4334828853607178,0.0166200045496225,0.0501654706895351,0.0379163846373558
1629807868746,0.4334828853607178,0.0324612520635128,0.0488153956830501,0.0379163846373558
1629807868808,0.4334828853607178,0.0464886389672756,0.0485003665089607,0.0379163846373558
1629807868902,0.4334828853607178,0.051422506570816,0.0465700477361679,0.0379163846373558
1629807868996,0.4334828853607178,0.0479404143989086,0.049200564622879,0.0379163846373558
1629807869105,0.4334828853607178,0.04194912686944,0.0667091459035873,0.0379163846373558
1629807869214,0.4334828853607178,0.0389242991805076,0.1006220504641532,0.0379163846373558
1629807869355,0.4334828853607178,0.0402177460491657,0.1398357599973678,0.0379163846373558
1629807869417,0.4334828853607178,0.0443702638149261,0.1758435219526291,0.0379163846373558
1629807869511,0.4334828853607178,0.0516072958707809,0.2111799269914627,0.0379163846373558
1629807869652,0.4334828853607178,0.0647487640380859,0.2521086037158966,0.0379163846373558
1629807869714,0.4334828853607178,0.0852078944444656,0.2971896529197693,0.0379163846373558
1629807869839,0.4334828853607178,0.1124073788523674,0.3390103280544281,0.0379163846373558
1629807869949,0.4334828853607178,0.1202718168497085,0.3723516464233398,0.0379163846373558
1629807870054,0.4334828853607178,0.1271694749593734,0.397282063961029,0.0379163846373558
1629807870116,0.4334828853607178,0.1635259836912155,0.41678386926651,0.0379163846373558
1629807870243,0.4334828853607178,0.1969439834356308,0.433948278427124,0.0379163846373558
1629807870287,0.4334828853607178,0.2279207408428192,0.4505211412906647,0.0379163846373558
1629807870437,0.4334828853607178,0.2546394169330597,0.4665615558624267,0.0379163846373558
1629807870542,0.4334828853607178,0.2768285870552063,0.4806515872478485,0.0379163846373558
1629807870633,0.4334828853607178,0.2960894405841827,0.4913460314273834,0.0379163846373558
1629807870727,0.2500958144664764,0.3139595091342926,0.4986316561698913,0.2378449738025665
1629807870837,0.2815621197223663,0.3296861052513122,0.5040333271026611,0.2653149962425232
1629807870931,0.3134833574295044,0.343215137720108,0.5080538988113403,0.2892234325408935
1629807871073,0.3419477939605713,0.3553550839424133,0.5079670548439026,0.3055310845375061
1629807871149,0.3419477939605713,0.3657549917697906,0.5007994771003723,0.3055310845375061
1629807871231,0.3419477939605713,0.3707862496376037,0.4874855279922485,0.3055310845375061
1629807871309,0.3419477939605713,0.3668629229068756,0.4739871621131897,0.3055310845375061
1629807871446,0.3419477939605713,0.3567606806755066,0.4681835770606994,0.3055310845375061
1629807871527,0.3419477939605713,0.3472818732261657,0.4748421311378479,0.3055310845375061
1629807871667,0.3419477939605713,0.3331687748432159,0.4945049881935119,0.3055310845375061
1629807871759,0.3419477939605713,0.3168762624263763,0.5247105360031128,0.3055310845375061
1629807871872,0.3419477939605713,0.2988751232624054,0.5609601736068726,0.3055310845375061
1629807871967,0.3659062385559082,0.2837612330913543,0.597875714302063,0.318392276763916
1629807872033,0.3913135528564453,0.2755455076694488,0.6301378011703491,0.3384320139884949
1629807872140,0.4157467186450958,0.2747746706008911,0.6534329652786255,0.3630617558956146
1629807872250,0.4157467186450958,0.2804979681968689,0.6660767197608948,0.3630617558956146
1629807872361,0.4157467186450958,0.2901803255081177,0.669747531414032,0.3630617558956146
1629807872439,0.4157467186450958,0.2966755926609039,0.6679157614707947,0.3630617558956146
1629807872562,0.4157467186450958,0.2929783165454864,0.6643941402435303,0.3630617558956146
1629807872674,0.4157467186450958,0.2775595784187317,0.660731315612793,0.3630617558956146
1629807872752,0.4157467186450958,0.2567338645458221,0.6559315919876099,0.3630617558956146
1629807872874,0.4157467186450958,0.2383305728435516,0.6476105451583862,0.3630617558956146
1629807872983,0.4157467186450958,0.2240268290042877,0.6331565380096436,0.3630617558956146
1629807873047,0.4157467186450958,0.2110420316457748,0.6108004450798035,0.3630617558956146
1629807873139,0.4157467186450958,0.1988110989332199,0.5791510939598083,0.3630617558956146
1629807873302,0.4157467186450958,0.1888676136732101,0.5365296006202698,0.3630617558956146
1629807873349,0.4157467186450958,0.1800579577684402,0.4815725684165954,0.3630617558956146
1629807873493,0.4157467186450958,0.1756022572517395,0.4143812954425812,0.3630617558956146
1629807873611,0.4157467186450958,0.1691755950450897,0.3378648459911346,0.3630617558956146
1629807873689,0.4157467186450958,0.1468756794929504,0.258737176656723,0.3630617558956146
1629807873767,0.4157467186450958,0.1171490624547004,0.1858058422803878,0.3630617558956146
1629807873830,0.4157467186450958,0.078489288687706,0.1263354867696762,0.3630617558956146
1629807873979,0.4157467186450958,0.0384169705212116,0.0831142142415046,0.3630617558956146
1629807874104,0.4157467186450958,0.0141554418951272,0.0511365868151187,0.3630617558956146
1629807874213,0.3915030658245086,0.0195630192756652,0.0249852947890758,0.3630617558956146
1629807874324,0.3915030658245086,0.0498174875974655,0.0088497819378972,0.3630617558956146
1629807874384,0.3915030658245086,0.0868741050362587,0.0131278969347476,0.3630617558956146
1629807874508,0.3915030658245086,0.1159165874123573,0.0400579757988452,0.3630617558956146
1629807874569,0.3915030658245086,0.1295008808374405,0.0767296999692916,0.3630617558956146
1629807874693,0.3915030658245086,0.1274216920137405,0.1072142347693443,0.3630617558956146
1629807874800,0.3915030658245086,0.1158472374081611,0.1232463121414184,0.3630617558956146
1629807874894,0.3915030658245086,0.1021836251020431,0.1259898543357849,0.3630617558956146
1629807874970,0.3915030658245086,0.0893267095088958,0.1211929619312286,0.3630617558956146
1629807875122,0.3915030658245086,0.0754546374082565,0.1153022795915603,0.3630617558956146
1629807875168,0.3915030658245086,0.0661950781941413,0.1115902289748191,0.3630617558956146
1629807875317,0.3915030658245086,0.0594050250947475,0.1094549000263214,0.3630617558956146
1629807875391,0.3915030658245086,0.0589399188756942,0.106336772441864,0.3630617558956146
1629807875500,0.3915030658245086,0.0612977668642997,0.1005440950393676,0.3630617558956146
1629807875594,0.3915030658245086,0.0548887550830841,0.0933402627706527,0.3630617558956146
1629807875672,0.3915030658245086,0.0296044126152992,0.0866594463586807,0.3630617558956146
1629807875766,0.3915030658245086,-0.0146827409043908,0.0782155990600586,0.3630617558956146
1629807875906,0.3915030658245086,-0.0651080533862114,0.0620028637349605,0.3630617558956146
1629807876016,0.3915030658245086,-0.1010159850120544,0.0377011373639106,0.3630617558956146
1629807876078,0.3915030658245086,-0.1086838170886039,0.017692070454359,0.3630617558956146
1629807876187,0.3915030658245086,-0.0952124893665313,0.0184285566210746,0.3630617558956146
1629807876344,0.3915030658245086,-0.0785569623112678,0.0420465469360351,0.3630617558956146
1629807876436,0.3915030658245086,-0.0674801766872406,0.0728128254413604,0.3630617558956146
1629807876513,0.3915030658245086,-0.057090263813734,0.095464251935482,0.3630617558956146
1629807876623,0.3915030658245086,-0.0366879068315029,0.1064368411898613,0.3630617558956146
1629807876703,0.3915030658245086,-0.0032214713282883,0.1154605075716972,0.3630617558956146
1629807876828,0.3915030658245086,0.0352799333631992,0.1353828161954879,0.3630617558956146
1629807876889,0.3915030658245086,0.0716523304581642,0.1690757274627685,0.3630617558956146
1629807877031,0.3915030658245086,0.1040037870407104,0.2061559557914734,0.3630617558956146
1629807877140,0.3915030658245086,0.1343535184860229,0.2363091558218002,0.3630617558956146
1629807877232,0.3915030658245086,0.1641897857189178,0.261398047208786,0.3630617558956146
1629807877338,0.3915030658245086,0.1937315315008163,0.2927042841911316,0.3630617558956146
1629807877433,0.3915030658245086,0.2204865217208862,0.3354448676109314,0.3630617558956146
1629807877493,0.3915030658245086,0.2394461929798126,0.3808487355709076,0.3630617558956146
1629807877618,0.3915030658245086,0.2467419803142547,0.4169328212738037,0.3630617558956146
1629807877743,0.3915030658245086,0.2450175136327743,0.4393219351768493,0.3630617558956146
1629807877900,0.3915030658245086,0.242763340473175,0.4528952240943908,0.3630617558956146
1629807877978,0.3915030658245086,0.2452950924634933,0.4679892659187317,0.3630617558956146
1629807878041,0.3915030658245086,0.2485722601413726,0.4906113743782043,0.3630617558956146
1629807878119,0.3915030658245086,0.2450364530086517,0.5177375674247742,0.3630617558956146
1629807878213,0.3915030658245086,0.2302492409944534,0.5402672290802002,0.3630617558956146
1629807878398,0.3915030658245086,0.2045556753873825,0.5507616400718689,0.3630617558956146
1629807878479,0.3915030658245086,0.1701315641403198,0.5489722490310669,0.3630617558956146
1629807878574,0.3915030658245086,0.1308798938989639,0.5416505932807922,0.3630617558956146
1629807878649,0.3915030658245086,0.0913234651088714,0.5360112190246582,0.3630617558956146
1629807878773,0.3915030658245086,0.0534433275461196,0.5325953364372253,0.3630617558956146
1629807878826,0.3915030658245086,0.0137884197756648,0.5251078605651855,0.3630617558956146
1629807878967,0.3915030658245086,-0.0300081279128789,0.5071542859077454,0.3630617558956146
1629807879076,0.3915030658245086,-0.0709837898612022,0.4784183800220489,0.3630617558956146
1629807879138,0.3915030658245086,-0.0976094976067543,0.4431694149971008,0.3630617558956146
1629807879248,0.3915030658245086,-0.1097409948706626,0.4060364961624145,0.3630617558956146
1629807879373,0.3915030658245086,-0.1193307340145111,0.3694271147251129,0.3630617558956146
1629807879513,0.3915030658245086,-0.1316332072019577,0.3324620425701141,0.3630617558956146
1629807879591,0.3915030658245086,-0.1369822025299072,0.2936755716800689,0.3630617558956146
1629807879654,0.3915030658245086,-0.1245128214359283,0.2532720565795898,0.3630617558956146
1629807879795,0.3915030658245086,-0.095975138247013,0.2140227407217025,0.3630617558956146
1629807879888,0.3915030658245086,-0.0579254068434238,0.1799503862857818,0.3630617558956146
1629807879998,0.3915030658245086,-0.0137214064598083,0.1523255705833435,0.3630617558956146
1629807880107,0.3915030658245086,0.0333348363637924,0.1286230534315109,0.3630617558956146
1629807880201,0.3915030658245086,0.0797110125422477,0.1057447418570518,0.3630617558956146
1629807880279,0.3915030658245086,0.122230090200901,0.083720214664936,0.3630617558956146
1629807880388,0.3915030658245086,0.158562034368515,0.0667502284049987,0.3630617558956146
1629807880466,0.3915030658245086,0.1860422492027282,0.0631432756781578,0.3630617558956146
1629807880574,0.3915030658245086,0.2037732154130935,0.0769330784678459,0.3630617558956146
1629807880652,0.3915030658245086,0.213189959526062,0.1040694937109947,0.3630617558956146
1629807880839,0.3915030658245086,0.2176207154989242,0.1370037049055099,0.3630617558956146
1629807880895,0.3915030658245086,0.2189645618200302,0.1697315722703933,0.3630617558956146
1629807880988,0.3915030658245086,0.2192375212907791,0.19769287109375,0.3630617558956146
1629807881092,0.3915030658245086,0.2212451696395874,0.2165202051401138,0.3630617558956146
1629807881186,0.3915030658245086,0.2253969311714172,0.2256907224655151,0.3630617558956146
1629807881264,0.3915030658245086,0.2287589013576507,0.2310684919357299,0.3630617558956146
1629807881389,0.3622855842113495,0.2270872890949249,0.2423115968704223,0.2950843572616577
1629807881530,0.3710576295852661,0.2189305871725082,0.2656334340572357,0.3000531494617462
1629807881608,0.3710576295852661,0.2073909640312194,0.2997063398361206,0.3000531494617462
1629807881670,0.3710576295852661,0.1965231001377105,0.3397533893585205,0.3000531494617462
1629807881826,0.3710576295852661,0.1905761212110519,0.379813015460968,0.3000531494617462
1629807881904,0.3710576295852661,0.1947611421346664,0.414462149143219,0.3000531494617462
1629807882029,0.3710576295852661,0.1867265999317169,0.4435674250125885,0.3000531494617462
1629807882126,0.3710576295852661,0.1848903745412826,0.4720809757709503,0.3000531494617462
1629807882220,0.3710576295852661,0.1894238293170929,0.5034821033477783,0.3000531494617462
1629807882298,0.3710576295852661,0.1991498321294784,0.5342928767204285,0.3000531494617462
1629807882437,0.3710576295852661,0.2145985811948776,0.5569542050361633,0.3000531494617462
1629807882531,0.3710576295852661,0.2659098207950592,0.5682619214057922,0.3000531494617462
1629807882628,0.3628438115119934,0.2814739048480987,0.5716307759284973,0.3129664957523346
1629807882722,0.3628438115119934,0.2895541489124298,0.5715222358703613,0.3129664957523346
1629807882815,0.3628438115119934,0.2942318022251129,0.5690811276435852,0.3129664957523346
1629807882909,0.3628438115119934,0.3050401508808136,0.5632185935974121,0.3129664957523346
1629807882987,0.3628438115119934,0.3012638390064239,0.5537616610527039,0.3129664957523346
1629807883143,0.3628438115119934,0.2956205308437347,0.5418838858604431,0.3129664957523346
1629807883237,0.3628438115119934,0.2768394947052002,0.5269129872322083,0.3129664957523346
1629807883315,0.3628438115119934,0.2400991022586822,0.5071220993995667,0.3129664957523346
1629807883443,0.3628438115119934,0.1789334714412689,0.4817419946193695,0.3129664957523346
1629807883552,0.3628438115119934,0.1607834100723266,0.449469655752182,0.3129664957523346
1629807883646,0.3628438115119934,0.1412582993507385,0.4069864153861999,0.3129664957523346
1629807883756,0.3628438115119934,0.121638998389244,0.3533282279968261,0.3129664957523346
1629807883834,0.3628438115119934,0.1135833784937858,0.2964158356189728,0.3129664957523346
1629807883959,0.3628438115119934,0.1241330727934837,0.2542704045772552,0.3129664957523346
1629807884052,0.3628438115119934,0.0976106002926826,0.2381753772497177,0.3129664957523346
1629807884146,0.3628438115119934,0.1269396692514419,0.2414167523384094,0.3129664957523346
1629807884224,0.3628438115119934,0.1437185406684875,0.2521917819976806,0.3129664957523346
1629807884334,0.3628438115119934,0.1498606204986572,0.2671103477478027,0.3129664957523346
1629807884461,0.3628438115119934,0.1509348154067993,0.2881602644920349,0.3129664957523346
1629807884524,0.3628438115119934,0.1509568840265274,0.3131757974624634,0.3129664957523346
1629807884662,0.3628438115119934,0.1518729776144027,0.3354017734527588,0.3129664957523346
1629807884778,0.3628438115119934,0.1581018716096878,0.3510646522045135,0.3129664957523346
1629807884890,0.3628438115119934,0.1700326651334762,0.3613075911998749,0.3129664957523346
1629807884972,0.3628438115119934,0.1839899122714996,0.3687988519668579,0.3129664957523346
1629807885081,0.3628438115119934,0.1963703334331512,0.3749667704105377,0.3129664957523346
1629807885158,0.3628438115119934,0.2062833607196808,0.3799475729465484,0.3129664957523346
1629807885268,0.3628438115119934,0.2137724310159683,0.3821347951889038,0.3129664957523346
1629807885364,0.3628438115119934,0.2148692160844802,0.3794255554676056,0.3129664957523346
1629807885438,0.172019362449646,0.2047692835330963,0.3697971105575561,0.0878389254212379
1629807885549,0.1837812811136245,0.1826886087656021,0.3562179505825043,0.0702358707785606
1629807885661,0.1955809444189071,0.1534372121095657,0.3516052365303039,0.0508057326078414
1629807885786,0.2087851762771606,0.1251102536916732,0.3718858659267425,0.0357726328074932
1629807885860,0.2194344699382782,0.103876769542694,0.4175506830215454,0.0269331894814968
1629807885938,0.2251943498849868,0.0935390219092369,0.4728249609470367,0.0277441814541816
1629807886089,0.2199616879224777,0.0959856659173965,0.5215691924095154,0.0381374657154083
1629807886151,0.2065595686435699,0.1085227355360984,0.5564302206039429,0.0542413033545017
1629807886309,0.1929971724748611,0.1241932138800621,0.5775007605552673,0.0687851160764694
1629807886378,0.1929971724748611,0.1359136253595352,0.5887764692306519,0.0687851160764694
1629807886459,0.1929971724748611,0.1412550657987594,0.5964367389678955,0.0687851160764694
1629807886595,0.1929971724748611,0.1436456441879272,0.6058783531188965,0.0687851160764694
1629807886642,0.1946632117033004,0.1463547646999359,0.6182674169540405,0.0650129541754722
1629807886782,0.1999314427375793,0.1480123549699783,0.6318240165710449,0.0617862828075885
1629807886907,0.2037078291177749,0.1470995247364044,0.6460497975349426,0.0587590783834457
1629807887001,0.2031179368495941,0.1447848826646804,0.6607815623283386,0.0589352808892726
1629807887080,0.1994622349739074,0.1444406062364578,0.6729323267936707,0.0677458941936492
1629807887197,0.1903979331254959,0.1471494287252426,0.6760369539260864,0.0860496684908866
1629807887275,0.1698829680681228,0.150071233510971,0.6635347604751587,0.1111540794372558
1629807887400,0.1347419619560241,0.1494535356760025,0.6325319409370422,0.1420413702726364
1629807887513,0.1347419619560241,0.1422944962978363,0.5846355557441711,0.1420413702726364
1629807887669,0.1347419619560241,0.1289175301790237,0.5260000824928284,0.1420413702726364
1629807887700,0.1347419619560241,0.1147775426506996,0.4664199352264404,0.1420413702726364
1629807887810,0.1347419619560241,0.1091275811195373,0.4166640937328338,0.1420413702726364
1629807887888,0.1347419619560241,0.1188431233167648,0.3824221193790436,0.1420413702726364
1629807887997,0.4496625363826751,0.140665590763092,0.3604017794132232,0.0314492471516132
1629807888139,0.4156828820705414,0.162194013595581,0.3411055207252502,0.0289197191596031
1629807888186,0.3836519420146942,0.1734746098518371,0.3171154856681824,0.0425364561378955
1629807888311,0.3695082664489746,0.1750083565711975,0.2856457829475403,0.055892027914524
1629807888420,0.3679255545139313,0.1734290868043899,0.2435157299041748,0.0577618516981601
1629807888483,0.3732192516326904,0.1745402216911316,0.1896946728229522,0.0477931164205074
1629807888576,0.3742000162601471,0.1794956624507904,0.1302909404039383,0.0306127425283193
1629807888733,0.3712383508682251,0.1864246577024459,0.0770111158490181,0.0136295910924673
1629807888826,0.3705002963542938,0.1936160624027252,0.0397956036031246,0.0071874200366437
1629807888904,0.3714625835418701,0.1997769176959991,0.0218848846852779,0.0153437694534659
1629807889014,0.3732178509235382,0.2040129899978637,0.0189207959920167,0.0315363816916942
1629807889108,0.3728483319282532,0.2046869397163391,0.0235056187957525,0.0506399348378181
1629807889186,0.3679315447807312,0.1978783160448074,0.0286768488585948,0.0651710927486419
1629807889356,0.3558476269245147,0.1771478503942489,0.0292763095349073,0.0949245989322662
1629807889449,0.3446273803710937,0.1379002332687378,0.0233728401362895,0.1331799626350402
1629807889543,0.3380275666713714,0.0836695954203605,0.0107839377596974,0.1675257682800293
1629807889595,0.3391366600990295,0.0291273426264524,-0.0068700145930051,0.189083993434906
1629807889704,0.348832756280899,-0.0068771145306527,-0.0262274984270334,0.1977557837963104
1629807889814,0.3541302680969238,-0.017547620460391,-0.0428752489387989,0.2015167772769928
1629807889970,0.3539169132709503,-0.0136502822861075,-0.0551668442785739,0.2084036618471145
1629807890064,0.3480830788612366,-0.0072578354738652,-0.0653275623917579,0.220213383436203
1629807890142,0.3665142357349396,-0.0027590922545641,-0.0767151415348053,0.2360869199037552
1629807890251,0.3899377584457397,0.0018194457516074,-0.0907752811908721,0.2505699396133423
1629807890364,0.4059473574161529,0.0079932902008295,-0.1049582287669181,0.2597450315952301
1629807890442,0.4129722714424133,0.0150857241824269,-0.1132548749446868,0.2610260844230652
1629807890563,0.4113966524600982,0.0217170398682355,-0.1088223531842231,0.2560728192329407
1629807890672,0.4060489535331726,0.0265813432633876,-0.0911768153309822,0.2464956939220428
1629807890750,0.3979381620883941,0.0290405862033367,-0.067024141550064,0.2319561541080474
1629807890814,0.3871720433235168,0.0308440271764993,-0.0435828305780887,0.2123676687479019
1629807890971,0.3746262192726135,0.0343297272920608,-0.0220400989055633,0.1890263557434082
1629807891017,0.3659301996231079,0.0388180278241634,0.0028214023914188,0.1708954125642776
1629807891158,0.3620219826698303,0.0408000871539115,0.0357474088668823,0.1636639833450317
1629807891236,0.3515917062759399,0.0378999710083007,0.0755506083369255,0.1643152832984924
1629807891361,0.3435935378074646,0.0302094630897045,0.1163993254303932,0.1649002283811569
1629807891427,0.334394097328186,0.0202159099280834,0.15536530315876,0.1605410277843475
1629807891567,0.334394097328186,0.0105122104287147,0.1956547498703003,0.1577484160661697
1629807891630,0.3135084211826324,0.0027410939801484,0.2398687005043029,0.1537214070558548
1629807891755,0.2853749394416809,-0.0033788869623094,0.2889454662799835,0.1518962979316711
1629807891864,0.2560055553913116,-0.0076730973087251,0.3400623202323913,0.1518653333187103
1629807891942,0.2294784039258957,-0.0084024621173739,0.3867917060852051,0.1540266424417495
1629807892099,0.2095046639442443,-0.0024883756414055,0.4244213700294494,0.1590422242879867
1629807892177,0.1971170008182525,0.0109236156567931,0.4522995054721832,0.1676722913980484
1629807892239,0.1941157579421997,0.0281091015785932,0.4731137156486511,0.1805375069379806
1629807892395,0.1977346241474151,0.0431525260210037,0.4903515875339508,0.1954401731491089
1629807892460,0.2073483169078827,0.0534476228058338,0.5055405497550964,0.2085444033145904
1629807892570,0.212843969464302,0.0605989061295986,0.5181665420532227,0.2102602422237396
1629807892679,0.212843969464302,0.0678006932139396,0.5273657441139221,0.2102602422237396
1629807892742,0.212843969464302,0.0756847411394119,0.5321487188339233,0.2102602422237396
1629807892867,0.212843969464302,0.0824857503175735,0.5313350558280945,0.2102602422237396
1629807892992,0.212843969464302,0.0861581116914749,0.5248522162437439,0.2102602422237396
1629807893101,0.212843969464302,0.0850932598114013,0.5122904181480408,0.2102602422237396
1629807893210,0.212843969464302,0.0785421654582023,0.4945938289165497,0.2102602422237396
1629807893288,0.212843969464302,0.0683702826499939,0.4734298288822174,0.2102602422237396
1629807893366,0.212843969464302,0.0577566251158714,0.4496724903583526,0.2102602422237396
1629807893445,0.212843969464302,0.0481739416718483,0.4238665401935577,0.2102602422237396
1629807893603,0.212843969464302,0.0362650156021118,0.3953363299369812,0.2102602422237396
1629807893712,0.212843969464302,0.0178513173013925,0.3628261983394623,0.2102602422237396
1629807893775,0.212843969464302,-0.0056163170374929,0.3258716166019439,0.2102602422237396
1629807893869,0.212843969464302,-0.0277557726949453,0.2855626046657562,0.2102602422237396
1629807893993,0.212843969464302,-0.0438749603927135,0.2447279393672943,0.2102602422237396
1629807894087,0.212843969464302,-0.0549171976745128,0.2054354548454284,0.2102602422237396
1629807894259,0.212843969464302,-0.06490508466959,0.1669269651174545,0.2102602422237396
1629807894322,0.212843969464302,-0.0758016631007194,0.1298862844705581,0.2102602422237396
1629807894415,0.212843969464302,-0.0874562859535217,0.1009774133563041,0.2102602422237396
1629807894493,0.212843969464302,-0.099909208714962,0.0861217379570007,0.2102602422237396
1629807894605,0.212843969464302,-0.1136689111590385,0.0857109874486923,0.2102602422237396
1629807894715,0.212843969464302,-0.1280324608087539,0.0930747091770172,0.2102602422237396
1629807894840,0.212843969464302,-0.1412928104400634,0.0978765860199928,0.2102602422237396
1629807894918,0.212843969464302,-0.1525548249483108,0.0928306505084037,0.2102602422237396
1629807894996,0.212843969464302,-0.163773700594902,0.0758461654186248,0.2102602422237396
1629807895090,0.212843969464302,-0.1749226152896881,0.0515705458819866,0.2102602422237396
1629807895215,0.212843969464302,-0.1778703480958938,0.0290309973061084,0.2102602422237396
1629807895293,0.212843969464302,-0.1594117134809494,0.0173738785088062,0.2102602422237396
1629807895418,0.212843969464302,-0.1150988861918449,0.0191818792372941,0.2102602422237396
1629807895511,0.212843969464302,-0.057898636907339,0.0288633741438388,0.2102602422237396
1629807895636,0.212843969464302,-0.0057506836019456,0.0396557673811912,0.2102602422237396
1629807895714,0.0526828244328498,0.0308607388287782,0.0525802932679653,0.0046549956314265
1629807895824,0.0703266784548759,0.0518144555389881,0.0736242532730102,-0.0111040025949478
1629807895886,0.0926520228385925,0.0626087859272956,0.1020732298493385,-0.0281153824180364
1629807896074,0.1099430918693542,0.0696498081088066,0.1278968155384063,-0.0452101118862628
1629807896183,0.1099430918693542,0.0771379172801971,0.1416279673576355,-0.0452101118862628
1629807896230,0.1099430918693542,0.0858209431171417,0.1410827189683914,-0.0452101118862628
1629807896324,0.1099430918693542,0.0945189669728279,0.1314260065555572,-0.0452101118862628
1629807896433,0.1099430918693542,0.1109586060047149,0.1213881969451904,-0.0452101118862628
1629807896511,0.1099430918693542,0.1283964961767196,0.1176219433546066,-0.0452101118862628
1629807896671,0.1099430918693542,0.1472121775150299,0.1214936450123786,-0.0452101118862628
1629807896718,0.1099430918693542,0.1642494946718216,0.1318617314100265,-0.0452101118862628
1629807896827,0.1099430918693542,0.1717872321605682,0.1492051035165786,-0.0452101118862628
1629807896921,0.1172902509570121,0.160526692867279,0.1790029257535934,-0.0731253325939178
1629807897077,0.1342866718769073,0.1253373622894287,0.2257776707410812,-0.0905247181653976
1629807897108,0.1566788554191589,0.0919749736785888,0.2822238504886627,-0.10441155731678
1629807897264,0.1566788554191589,0.0703781396150589,0.3311108350753784,-0.10441155731678
1629807897342,0.1566788554191589,0.0611221380531787,0.3603000938892364,-0.10441155731678
1629807897421,0.1566788554191589,0.0586016103625297,0.3702739179134369,-0.10441155731678
1629807897561,0.1566788554191589,0.0597369074821472,0.3707732260227203,-0.10441155731678
1629807897624,0.1566788554191589,0.0645852014422416,0.370382696390152,-0.10441155731678
1629807897752,0.1566788554191589,0.0727733969688415,0.3709174990653991,-0.10441155731678
1629807897861,0.0974691659212112,0.0815398544073104,0.3725428283214569,0.1490224748849868
1629807897970,0.1025300323963165,0.072868175804615,0.3772943615913391,0.1801223307847976
1629807898060,0.1220691204071044,0.0597415305674076,0.3877051472663879,0.197559043765068
1629807898169,0.1386204659938812,0.0448944605886936,0.4020437002182007,0.1968971639871597
1629807898247,0.1528887450695037,0.0320120751857757,0.4139315783977508,0.1866289675235748
1629807898372,0.1729926019906997,0.0214153714478015,0.4165085256099701,0.1769577115774154
1629807898547,0.1953612267971038,0.0109311956912279,0.4034839868545532,0.1688225418329239
1629807898563,0.2179034948348999,-0.0006283811526373,0.3701121211051941,0.1619509905576706
1629807898625,0.2353396713733673,-0.0322929844260215,0.316618800163269,0.1545421332120895
1629807898750,0.2448755353689193,-0.063249371945858,0.2513985335826874,0.1502244025468826
1629807898828,0.2496993690729141,-0.0857810899615287,0.1880416125059127,0.1511186212301254
1629807898953,0.2496993690729141,-0.0978258997201919,0.137628436088562,0.1511186212301254
1629807899078,0.2509320676326751,-0.1033845469355583,0.1030496954917907,0.15426567196846
1629807899188,0.2620262801647186,-0.1092441007494926,0.0834867283701896,0.1588374823331833
1629807899281,0.2796902954578399,-0.1207037344574928,0.0755797326564788,0.1604047864675521
1629807899344,0.2982468903064728,-0.1393554955720901,0.0676993802189827,0.1519542634487152
1629807899453,0.3140377104282379,-0.1602815985679626,0.0456038750708103,0.134127140045166
1629807899547,0.325602114200592,-0.1774542182683944,0.0030126448255032,0.1127082929015159
1629807899734,0.3380760848522186,-0.1899113208055496,-0.0502258762717247,0.0999398007988929
1629807899828,0.3522779941558838,-0.1985090523958206,-0.0905559733510017,0.0987474843859672
1629807899906,0.3607699275016784,-0.2006058543920517,-0.0993109866976738,0.100340723991394
1629807899985,0.3616398572921753,-0.1875356584787368,-0.0787631422281265,0.1034180745482444
1629807900078,0.3616398572921753,-0.1544391065835952,-0.0437334366142749,0.1034180745482444
1629807900156,0.3616398572921753,-0.1088345497846603,-0.0042319074273109,0.1034180745482444
1629807900344,0.3616398572921753,-0.0595581270754337,0.0370574556291103,0.1034180745482444
1629807900390,0.3616398572921753,-0.0125610716640949,0.0778739005327224,0.1034180745482444
1629807900484,0.3616398572921753,0.0292236972600221,0.1124087870121002,0.1034180745482444
1629807900597,0.3616398572921753,0.0643455982208252,0.1360571086406707,0.1034180745482444
1629807900675,0.3616398572921753,0.0937576293945312,0.1490342170000076,0.1034180745482444
1629807900785,0.3616398572921753,0.1197454854846,0.1562639474868774,0.1034180745482444
1629807900894,0.3616398572921753,0.1437523812055587,0.1632144302129745,0.1034180745482444
1629807900988,0.3616398572921753,0.1636195480823516,0.1717875152826309,0.1034180745482444
1629807901097,0.3616398572921753,0.1865874677896499,0.179243728518486,0.1034180745482444
1629807901175,0.3616398572921753,0.211646556854248,0.1813160926103592,0.1034180745482444
1629807901323,0.3616398572921753,0.2374877035617828,0.1759731918573379,0.1034180745482444
1629807901401,0.3616398572921753,0.2627387046813965,0.1649641990661621,0.1034180745482444
1629807901545,0.3616398572921753,0.2843961417675018,0.1524636298418045,0.1034180745482444
1629807901623,0.3616398572921753,0.2894560396671295,0.1404329091310501,0.1034180745482444
1629807901685,0.3616398572921753,0.2860477268695831,0.1272779107093811,0.1034180745482444
1629807901810,0.3616398572921753,0.2707044184207916,0.1103123277425766,0.1034180745482444
1629807901904,0.3616398572921753,0.2464731931686401,0.0891838297247886,0.1034180745482444
1629807902014,0.3616398572921753,0.2190606743097305,0.0665939450263977,0.1034180745482444
1629807902127,0.3616398572921753,0.1909286975860595,0.0451473034918308,0.1034180745482444
1629807902236,0.3616398572921753,0.1601519286632537,0.0253723319619894,0.1034180745482444
1629807902377,0.3616398572921753,0.1260209530591964,0.0088843805715441,0.1034180745482444
1629807902439,0.3616398572921753,0.0941256508231163,0.0016236775554716,0.1034180745482444
1629807902518,0.3616398572921753,0.0852439701557159,0.0125023471191525,0.1034180745482444
1629807902598,0.3616398572921753,0.0819700732827186,0.0439086705446243,0.1034180745482444
1629807902723,0.3616398572921753,0.0792966783046722,0.0872841253876686,0.1034180745482444
1629807902848,0.3616398572921753,0.0735595449805259,0.1330493837594986,0.1034180745482444
1629807902973,0.3616398572921753,0.0636879056692123,0.1761526018381118,0.1034180745482444
1629807903067,0.3616398572921753,0.0508893281221389,0.213041141629219,0.1034180745482444
1629807903098,0.3616398572921753,0.0236370041966438,0.2393756359815597,0.1034180745482444
1629807903192,0.3616398572921753,-0.0053979363292455,0.2522047460079193,0.1034180745482444
1629807903348,0.3616398572921753,-0.0246393419802188,0.2537106573581695,0.1034180745482444
1629807903430,0.1573224812746048,-0.0290379859507083,0.2500787377357483,0.2671197056770324
1629807903570,0.1680337190628051,-0.0230421721935272,0.2480719983577728,0.2837279140949249
1629807903633,0.1834311485290527,-0.0131920436397194,0.2501486837863922,0.2779918909072876
1629807903742,0.2108870148658752,-0.0021839062683284,0.2548787593841553,0.2647509276866913
1629807903820,0.2479781657457351,0.0101572927087545,0.2588416635990143,0.2542112469673157
1629807903977,0.2853038012981415,0.0222300682216882,0.2579789459705353,0.2552239298820495
1629807904039,0.3101654648780823,0.0305942520499229,0.2481098473072052,0.2626783549785614
1629807904180,0.3182628154754638,0.0326481834053993,0.2273495346307754,0.267858624458313
1629807904242,0.3129736185073852,0.0294494722038507,0.1978949308395385,0.2678165733814239
1629807904320,0.3027803599834442,0.0254701115190982,0.1634382009506225,0.261186808347702
1629807904448,0.2947143018245697,0.0251019168645143,0.1248551234602928,0.2497086077928543
1629807904557,0.2894218862056732,0.0299116559326648,0.0811943635344505,0.2354592084884643
1629807904651,0.2959607243537903,0.0389196462929248,0.0368194617331028,0.2261733561754226
1629807904807,0.3057098686695099,0.048892818391323,0.0039817355573177,0.2119996398687362
1629807904886,0.3136227130889892,0.054819468408823,-0.0104738064110279,0.1921217590570449
1629807904948,0.3146317601203918,0.0534252524375915,-0.0103065175935626,0.1672136187553405
1629807905026,0.3092085719108581,0.0439962968230247,-0.0069113909266889,0.1426341831684112
1629807905182,0.3129483163356781,0.031423483043909,-0.0069146207533776,0.1340210288763046
1629807905276,0.3102284967899322,0.0204677078872919,-0.0104692634195089,0.1306591778993606
1629807905354,0.2968896627426147,0.0105634005740284,-0.0135992858558893,0.1270053088665008
1629807905481,0.2718960642814636,-0.0285969916731119,-0.0268036182969808,0.1122082769870758
1629807905559,0.2432187497615814,-0.0720290914177894,-0.0203891154378652,0.0839178040623664
1629807905684,0.2230610996484756,-0.11472038179636,0.0033267925027757,0.0483105555176734
1629807905825,0.2195601165294647,-0.1501837819814682,0.028248319402337,0.0111571289598941
1629807905856,0.2277927845716476,-0.1767952740192413,0.0406178571283817,-0.0177077073603868
1629807906044,0.2362300157546997,-0.1986638605594635,0.0373836271464824,-0.0329235270619392
1629807906090,0.2417297661304474,-0.2221961617469787,0.0261939521878957,-0.0319577492773532
1629807906153,0.2281946539878845,-0.2529515027999878,0.0157579090446233,-0.0156920999288558
1629807906294,0.2281946539878845,-0.2917599976062774,0.0124857630580663,-0.0156920999288558
1629807906388,0.2281946539878845,-0.3328538537025451,0.0237669721245765,-0.0156920999288558
1629807906515,0.2281946539878845,-0.3088055849075317,0.0573058202862739,-0.0156920999288558
1629807906609,0.2281946539878845,-0.2816502451896667,0.1023564040660858,-0.0156920999288558
1629807906687,0.2281946539878845,-0.2587986886501312,0.1431632936000824,-0.0156920999288558
1629807906828,0.2281946539878845,-0.2433407604694366,0.1691636145114898,-0.0156920999288558
1629807906890,0.2281946539878845,-0.2312780022621154,0.1784057915210724,-0.0156920999288558
1629807906984,0.2281946539878845,-0.2064069360494613,0.1896936446428299,-0.0156920999288558
1629807907078,0.2281946539878845,-0.1741135120391845,0.1886993050575256,-0.0156920999288558
1629807907202,0.2281946539878845,-0.1403019279241562,0.1819473206996917,-0.0156920999288558
1629807907328,0.2281946539878845,-0.1139107570052146,0.1785560250282287,-0.0156920999288558
1629807907374,0.2281946539878845,-0.0994359776377677,0.182392880320549,-0.0156920999288558
1629807907468,0.2281946539878845,-0.0939616337418556,0.1909425258636474,-0.0156920999288558
1629807907580,0.2281946539878845,-0.0900156795978546,0.2021404355764389,-0.0156920999288558
1629807907721,0.2281946539878845,-0.0819423347711563,0.2200976461172104,-0.0156920999288558
1629807907814,0.2281946539878845,-0.0691346004605293,0.2482531070709228,0.2350786626338958
1629807907924,0.3957932591438293,-0.0551988966763019,0.2800771296024322,0.2469779998064041
1629807907986,0.4136751294136047,-0.0443906746804714,0.3012653291225433,0.2578139305114746
1629807908080,0.4119223356246948,-0.0389629006385803,0.3044055998325348,0.2600232362747192
1629807908236,0.4043672680854797,-0.0371821634471416,0.2938121557235718,0.2534523904323578
1629807908299,0.4043672680854797,-0.0313795320689678,0.2824351191520691,0.2534523904323578
1629807908408,0.4043672680854797,-0.0132763069123029,0.2810931801795959,0.2534523904323578
1629807908486,0.4043672680854797,0.0160878561437129,0.2905967235565185,0.2534523904323578
1629807908614,0.4043672680854797,0.0478004999458789,0.3040252327919006,0.2534523904323578
1629807908693,0.4043672680854797,0.0750815644860267,0.3134340345859527,0.2534523904323578
1629807908818,0.4043672680854797,0.0964977890253067,0.3146845698356628,0.2534523904323578
1629807908974,0.4043672680854797,0.1128597632050514,0.3097592890262604,0.2534523904323578
1629807909036,0.4043672680854797,0.1241261288523674,0.3035036623477936,0.2555522322654724
1629807909130,0.4267458617687225,0.1306024193763733,0.2976182103157043,0.2600696384906769
1629807909208,0.4432023167610168,0.1335703879594802,0.2870558798313141,0.2663102447986603
1629807909296,0.4422309696674347,0.1335811465978622,0.2641257643699646,0.2710802257061004
1629807909452,0.4422309696674347,0.1303500235080719,0.2264135926961898,0.2710802257061004
1629807909562,0.4422309696674347,0.1247430890798568,0.1828077286481857,0.2710802257061004
1629807909625,0.4422309696674347,0.1206120103597641,0.1484578251838684,0.2710802257061004
1629807909719,0.4422309696674347,0.1210765615105629,0.1321525126695633,0.2710802257061004
1629807909825,0.4422309696674347,0.1226205602288246,0.1307032108306884,0.2710802257061004
1629807909888,0.1260809302330017,0.1160973832011222,0.137370690703392,0.1593250036239624
1629807910076,0.0864732638001442,0.0950003415346145,0.147076666355133,0.1497804224491119
1629807910189,0.0690500885248184,0.0598000511527061,0.1558115631341934,0.1620181202888488
1629807910247,0.0759663209319114,0.0174508038908243,0.1613213866949081,0.1796577423810959
1629807910374,0.0962536931037902,-0.0228959210216999,0.1625563204288482,0.1885359585285186
1629807910464,0.1216125935316085,-0.0548237897455692,0.1587385684251785,0.1885359585285186
1629807910511,0.1216125935316085,-0.0764199197292327,0.1500477939844131,0.1885359585285186
1629807910677,0.1216125935316085,-0.0905855223536491,0.1388433128595352,0.1885359585285186
1629807910728,0.1216125935316085,-0.101625420153141,0.1311423629522323,0.1885359585285186
1629807910821,0.1727112978696823,-0.1122193410992622,0.1312587559223175,0.1961418539285659
1629807910948,0.2055301219224929,-0.1229007318615913,0.1384861469268798,0.199921429157257
1629807911051,0.2055301219224929,-0.1349577009677887,0.1472860425710678,0.195704698562622
1629807911128,0.201683908700943,-0.1521469503641128,0.1533963680267334,0.1779710948467254
1629807911278,0.2042357921600341,-0.178107276558876,0.1545122116804123,0.1750543415546417
1629807911339,0.2169741690158844,-0.2135108858346939,0.1479416638612747,0.1833344995975494
1629807911430,0.2220960855484008,-0.2539504766464233,0.1291534602642059,0.2001714557409286
1629807911586,0.2290927916765213,-0.2906055152416229,0.0972401350736618,0.2010984718799591
1629807911648,0.2381796240806579,-0.314524233341217,0.0592981241643428,0.1830545961856842
1629807911773,0.2493208944797516,-0.3216842710971832,0.0268360115587711,0.1512973606586456
1629807911873,0.2537932395935058,-0.3138104677200317,0.007433830294758,0.135898157954216
1629807911967,0.2485294193029403,-0.2976798117160797,-1.3639056305692066e-05,0.135898157954216
1629807912059,0.2485294193029403,-0.2829614281654358,-0.0021447436884045,0.135898157954216
1629807912197,0.2485294193029403,-0.2777509093284607,-0.0062242606654763,0.135898157954216
1629807912244,0.2485294193029403,-0.2827550172805786,-0.0185645017772912,0.135898157954216
1629807912338,0.1851647198200225,-0.2911990582942962,-0.0412229597568511,0.1129850596189498
1629807912495,0.0867881849408149,-0.2942899763584137,-0.0703498944640159,0.084549494087696
1629807912572,0.0867881849408149,-0.2873725593090057,-0.0978756695985794,0.0661806389689445
1629807912681,0.0867881849408149,-0.2704461812973022,-0.1199381351470947,0.0661806389689445
1629807912789,0.0867881849408149,-0.2452190518379211,-0.1386712044477462,0.0661806389689445
1629807912898,0.0867881849408149,-0.2147422432899475,-0.1549111902713775,0.0661806389689445
1629807912928,0.0867881849408149,-0.1854901015758514,-0.1603522300720214,0.0661806389689445
1629807913135,0.0867881849408149,-0.1633194535970688,-0.1453259587287902,0.0661806389689445
1629807913165,0.0867881849408149,-0.1482549458742141,-0.1137106567621231,0.0661806389689445
1629807913327,0.0867881849408149,-0.1358363926410675,-0.0773354917764663,0.0661806389689445
1629807913389,0.0867881849408149,-0.12240020185709,-0.0429432094097137,0.0661806389689445
1629807913484,0.347331166267395,-0.1079673618078231,-0.0101003488525748,0.2542111873626709
1629807913549,0.347331166267395,-0.0933973044157028,0.0221376530826091,0.2542111873626709
1629807913708,0.347331166267395,-0.0793741717934608,0.0514029264450073,0.2542111873626709
1629807913815,0.347331166267395,-0.0671038702130317,0.0756530091166496,0.2542111873626709
1629807913924,0.347331166267395,-0.0577478520572185,0.0959511920809745,0.2542111873626709
1629807913999,0.347331166267395,-0.0513422600924968,0.1202016845345497,0.2542111873626709
1629807914078,0.347331166267395,-0.0457097701728343,0.1572491824626922,0.2542111873626709
1629807914155,0.347331166267395,-0.0397396609187126,0.2069930285215377,0.2542111873626709
1629807914298,0.347331166267395,-0.0338425114750862,0.2591581046581268,0.2542111873626709
1629807914396,0.347331166267395,-0.0290464293211698,0.3019085526466369,0.2542111873626709
1629807914506,0.347331166267395,-0.0255049634724855,0.329136848449707,0.2542111873626709
1629807914581,0.347331166267395,-0.024133076891303,0.342560350894928,0.2542111873626709
1629807914690,0.347331166267395,-0.0261987764388322,0.3500928282737732,0.2542111873626709
1629807914845,0.347331166267395,-0.0308514162898063,0.3607012629508972,0.2542111873626709
1629807914955,0.347331166267395,-0.035423282533884,0.3786151707172394,0.2542111873626709
1629807915001,0.347331166267395,-0.0381081439554691,0.3995639383792877,0.2542111873626709
1629807915108,0.347331166267395,-0.0405728816986084,0.4179618656635284,0.2542111873626709
1629807915234,0.347331166267395,-0.0447434298694133,0.4330186247825622,0.2542111873626709
1629807915313,0.347331166267395,-0.0493325293064117,0.4458593130111694,0.2542111873626709
1629807915404,0.347331166267395,-0.0520095378160476,0.455191820859909,0.2542111873626709
1629807915517,0.347331166267395,-0.0532738231122493,0.4556000828742981,0.2542111873626709
1629807915646,0.347331166267395,-0.05707748234272,0.4420417249202728,0.2542111873626709
1629807915702,0.347331166267395,-0.0659457296133041,0.4145132303237915,0.2542111873626709
1629807915829,0.347331166267395,-0.0795961841940879,0.3789589405059814,0.2542111873626709
1629807915957,0.347331166267395,-0.0958013758063316,0.3453778624534607,0.2542111873626709
1629807916004,0.347331166267395,-0.1120663806796073,0.3224169611930847,0.2542111873626709
1629807916128,0.347331166267395,-0.1251551657915115,0.3104995787143707,0.2542111873626709
1629807916222,0.347331166267395,-0.1329856216907501,0.3014726042747497,0.2542111873626709
1629807916335,0.347331166267395,-0.1388981640338897,0.2852215766906738,0.2542111873626709
1629807916413,0.347331166267395,-0.1493359208106994,0.2554790675640106,0.2542111873626709
1629807916521,0.347331166267395,-0.1668305248022079,0.2145505845546722,0.2542111873626709
1629807916622,0.347331166267395,-0.1860357224941253,0.1690709292888641,0.2542111873626709
1629807916755,0.1746473908424377,-0.199699267745018,0.1232536658644676,0.1595884263515472
1629807916877,0.1509488373994827,-0.2080705612897873,0.0786710605025291,0.1413307338953018
1629807916942,0.1303586214780807,-0.2159319519996643,0.039641473442316,0.1378551870584488
1629807916995,0.1230280026793479,-0.2237333208322525,0.0141486432403326,0.1525423973798751
1629807917104,0.1322387009859085,-0.2264782637357711,0.0047714132815599,0.1794280409812927
1629807917229,0.1507671177387237,-0.2231866866350174,0.004770016297698,0.2019100934267044
1629807917388,0.1661724746227264,-0.2182099968194961,0.0066563594155013,0.2078063935041427
1629807917450,0.170810580253601,-0.2149801403284073,0.0061656702309846,0.1989511251449585
1629807917559,0.1701389253139495,-0.2110000997781753,0.0007474013254977,0.1835460513830185
1629807917638,0.1696356832981109,-0.2026880979537964,-0.0106249377131462,0.1722747236490249
1629807917747,0.1750000715255737,-0.1907576024532318,-0.0256303679198026,0.1675348877906799
1629807917809,0.1870485693216323,-0.1786312311887741,-0.0402231179177761,0.1665782332420349
1629807918024,0.2034706026315689,-0.1682614386081695,-0.0498693697154521,0.1632307767868042
1629807918071,0.2332200109958648,-0.1603389978408813,-0.0545172840356826,0.160614863038063
1629807918144,0.2384911328554153,-0.1559236943721771,-0.0561699867248535,0.1615859419107437
1629807918284,0.248851403594017,-0.1552106142044067,-0.0557273402810096,0.1665840893983841
1629807918362,0.2624218761920929,-0.1559566408395767,-0.0523782894015312,0.1744218915700912
1629807918445,0.279505044221878,-0.1550762355327606,-0.04576001688838,0.1790433973073959
1629807918586,0.2954416871070862,-0.1502941399812698,-0.0377802476286888,0.1734260469675064
1629807918664,0.3055706620216369,-0.1434133797883987,-0.0317961946129798,0.1516589373350143
1629807918758,0.3091334402561188,-0.1380247920751571,-0.0308604538440704,0.1192201077938079
1629807918898,0.3125206232070923,-0.1368186771869659,-0.0376986898481845,0.0953016355633735
1629807918961,0.3268841803073883,-0.1400504410266876,-0.0508425235748291,0.0947199538350105
1629807919086,0.3534037172794342,-0.1467857509851455,-0.063674658536911,0.116767294704914
1629807919226,0.3902448117733001,-0.1555744260549545,-0.0703240036964416,0.1402454227209091
1629807919320,0.3902448117733001,-0.1640459448099136,-0.0719930008053779,0.1402454227209091
1629807919398,0.3902448117733001,-0.1698676198720932,-0.073487676680088,0.1402454227209091
1629807919496,0.3902448117733001,-0.172676146030426,-0.0765854194760322,0.1402454227209091
1629807919558,0.3902448117733001,-0.1740768402814865,-0.0744931399822235,0.1402454227209091
1629807919668,0.3902448117733001,-0.1736692041158676,-0.0601743496954441,0.1402454227209091
1629807919793,0.3902448117733001,-0.1693362891674041,-0.035159446299076,0.1402454227209091
1629807919918,0.3902448117733001,-0.1613443493843078,-0.009646481834352,0.1402454227209091
1629807920012,0.3902448117733001,-0.1546687483787536,0.0066839945502579,0.1402454227209091
1629807920074,0.3902448117733001,-0.1572392284870147,0.0118856607005,0.1402454227209091
1629807920184,0.3902448117733001,-0.1728330701589584,0.01485550776124,0.1402454227209091
1629807920261,0.3902448117733001,-0.1968031674623489,0.0324170365929603,0.1402454227209091
1629807920429,0.3902448117733001,-0.2192754596471786,0.0759002491831779,0.1402454227209091
1629807920525,0.3902448117733001,-0.2326633334159851,0.13787542283535,0.1402454227209091
1629807920618,0.3902448117733001,-0.2353669106960296,0.1989488005638122,0.1402454227209091
1629807920727,0.3902448117733001,-0.2308258712291717,0.2465172410011291,0.1402454227209091
1629807920774,0.3902448117733001,-0.2256074547767639,0.2819341421127319,0.1402454227209091
1629807920853,0.4350701868534088,-0.2274813950061798,0.3141112625598907,0.2235108017921447
1629807921009,0.5265979170799255,-0.2407542467117309,0.3539122641086578,0.2690564095973968
1629807921118,0.5978784561157227,-0.2610504329204559,0.4061281979084015,0.3107174634933471
1629807921227,0.5978784561157227,-0.2780486047267914,0.4655202329158783,0.3107174634933471
1629807921274,0.5978784561157227,-0.281011700630188,0.5204888582229614,0.3107174634933471
1629807921383,0.5978784561157227,-0.2649745047092438,0.5627744793891907,0.3107174634933471
1629807921477,0.5978784561157227,-0.2329727262258529,0.5909167528152466,0.3107174634933471
1629807921620,0.5978784561157227,-0.1941543072462082,0.6087901592254639,0.3107174634933471
1629807921730,0.5978784561157227,-0.1566414982080459,0.619110643863678,0.3107174634933471
1629807921808,0.5978784561157227,-0.1231525391340255,0.6214026212692261,0.3107174634933471
1629807921914,0.5978784561157227,-0.092906467616558,0.6140249967575073,0.3107174634933471
1629807921992,0.5978784561157227,-0.0680389031767845,0.6186205148696899,0.3107174634933471
1629807922145,0.648007869720459,-0.0519376993179321,0.620493471622467,0.3416897654533386
1629807922270,0.7044801712036133,-0.0425359308719635,0.6250200867652893,0.3752835392951965
1629807922317,0.7044801712036133,-0.0327999107539653,0.6349803805351257,0.3752835392951965
1629807922442,0.7044801712036133,-0.0168264806270599,0.6482110619544983,0.3752835392951965
1629807922535,0.7044801712036133,0.0039834454655647,0.6564335823059082,0.3752835392951965
1629807922631,0.7044801712036133,0.0235093869268894,0.6480538249015808,0.3752835392951965
1629807922772,0.7044801712036133,0.036039438098669,0.6129662990570068,0.3752835392951965
1629807922850,0.7044801712036133,0.0377870351076126,0.5485333800315857,0.3752835392951965
1629807923006,0.7044801712036133,0.0283490531146526,0.4623976051807403,0.3752835392951965
1629807923022,0.7044801712036133,0.0103840492665767,0.3724663853645324,0.3752835392951965
1629807923100,0.7044801712036133,-0.0090840402990579,0.3724663853645324,0.3752835392951965
1629807923240,0.7044801712036133,-0.0196871440857648,0.3724663853645324,0.3752835392951965
1629807923352,0.7044801712036133,-0.0266806799918413,0.3724663853645324,0.3752835392951965
1629807923446,0.7044801712036133,-0.0325470604002475,0.3724663853645324,0.3752835392951965
1629807923524,0.7044801712036133,-0.0366886258125305,0.3724663853645324,0.3752835392951965
1629807923649,0.7044801712036133,-0.0281119588762521,0.3724663853645324,0.3752835392951965
1629807923774,0.7044801712036133,-0.009022950194776,0.3724663853645324,0.3752835392951965
1629807923852,0.7044801712036133,0.0052293101325631,0.3724663853645324,0.3752835392951965
1629807923915,0.7044801712036133,0.0022319499403238,0.3724663853645324,0.3752835392951965
1629807924055,0.7044801712036133,-0.0151373101398348,0.3724663853645324,0.3752835392951965
1629807924149,1.086971640586853,-0.0340695194900035,0.3724663853645324,0.3752835392951965
1629807924243,1.1137816905975342,-0.0445796512067317,-0.0752654075622558,0.3752835392951965
1629807924385,1.0956885814666748,-0.0463513024151325,-0.1209254562854766,0.3752835392951965
1629807924448,1.0551737546920776,-0.0460173562169075,-0.1602392792701721,0.3752835392951965
1629807924541,1.0129610300064087,-0.0485884174704551,-0.1918272227048874,0.3752835392951965
1629807924682,0.9756069779396056,-0.0578106120228767,-0.2146523594856262,0.3752835392951965
1629807924807,0.9435402154922484,-0.0735005289316177,-0.2265210300683975,0.3752835392951965
1629807924901,0.9153310656547546,-0.08704873919487,-0.2279992699623108,0.3752835392951965
1629807924994,0.8878247141838074,-0.0968295708298683,-0.2242262065410614,0.2041351944208145
1629807925057,0.8600359559059143,-0.1067297756671905,-0.2207234352827072,0.1881225705146789
1629807925177,0.832720160484314,-0.1199412867426872,-0.2188584804534912,0.176586702466011
1629807925287,0.8067319989204407,-0.1387737542390823,-0.2189890295267105,0.1660900861024856
1629807925396,0.8181728720664978,-0.1568961888551712,-0.2211725562810897,0.103551372885704
1629807925457,0.8031445741653442,-0.1645511090755462,-0.2521782517433166,0.103551372885704
1629807925571,0.7420148849487305,-0.1592994630336761,-0.2809824645519256,0.103551372885704
1629807925678,0.6330395340919495,-0.1466675698757171,-0.2961133420467376,0.103551372885704
1629807925756,0.4934064149856567,-0.1321617662906646,-0.2934477627277374,0.103551372885704
1629807925889,0.3748040497303009,-0.1178778037428855,-0.2786731421947479,0.103551372885704
1629807925991,0.3180516362190246,-0.1049966216087341,-0.2566598057746887,0.103551372885704
1629807926085,0.2915781736373901,-0.0949611961841583,-0.2207432836294174,0.103551372885704
1629807926193,0.2647309899330139,-0.0876239985227584,-0.1617869585752487,0.103551372885704
1629807926271,0.2207805216312408,-0.0818627849221229,-0.0864169299602508,0.107766717672348
1629807926397,0.1466270983219146,-0.0767131820321083,-0.0104090198874473,0.1097842901945114
1629807926521,0.1466270983219146,-0.0709443613886833,0.0623179636895656,0.1097842901945114
1629807926595,0.1466270983219146,-0.0650531649589538,0.1365777850151062,0.1097842901945114
1629807926705,0.1466270983219146,-0.0608370341360569,0.2117463946342468,0.1097842901945114
1629807926798,0.1466270983219146,-0.0612582750618457,0.2799067199230194,0.1097842901945114
1629807926892,0.1466270983219146,-0.0644313469529151,0.3341780602931976,0.1097842901945114
1629807926962,0.1466270983219146,-0.0675788968801498,0.3758836984634399,0.1097842901945114
1629807927118,0.1466270983219146,-0.0708388611674308,0.4133765697479248,0.1097842901945114
1629807927212,0.1466270983219146,-0.0756853520870208,0.4520661234855652,0.1097842901945114
1629807927275,0.1466270983219146,-0.0837246403098106,0.4895724952220917,0.1097842901945114
1629807927414,0.1466270983219146,-0.0877546966075897,0.5200933814048767,0.1097842901945114
1629807927527,0.1466270983219146,-0.0932652875781059,0.5409552454948425,0.1097842901945114
1629807927635,0.1466270983219146,-0.0990812331438064,0.5542793869972229,0.1097842901945114
1629807927714,0.1466270983219146,-0.0984315276145935,0.5642116665840149,0.1097842901945114
1629807927825,0.1466270983219146,-0.085182785987854,0.5734408497810364,0.1097842901945114
1629807927943,0.1466270983219146,-0.0615118145942688,0.581730306148529,0.1097842901945114
1629807928037,0.1466270983219146,-0.0391831398010253,0.5858396291732788,0.1097842901945114
1629807928131,0.1466270983219146,-0.0297780763357877,0.5839085578918457,0.1097842901945114
1629807928193,0.1466270983219146,-0.0348071753978729,0.578302264213562,0.1097842901945114
1629807928365,0.1466270983219146,-0.044820450246334,0.5734637379646301,0.1097842901945114
1629807928459,0.1466270983219146,-0.0547903105616569,0.5705772042274475,0.1097842901945114
1629807928559,0.1466270983219146,-0.0621091723442077,0.5665798187255859,0.1097842901945114
1629807928652,0.1466270983219146,-0.0667255073785781,0.5568458437919617,0.1097842901945114
1629807928699,0.1466270983219146,-0.0691263303160667,0.539831280708313,0.1097842901945114
1629807928793,0.1466270983219146,-0.0714928954839706,0.5187263488769531,0.1097842901945114
1629807928965,0.1466270983219146,-0.0798507407307624,0.5007113218307495,0.1097842901945114
1629807929062,0.1466270983219146,-0.089722141623497,0.4929299056529999,0.1097842901945114
1629807929140,0.1466270983219146,-0.0973366200923919,0.4941611289978027,0.1097842901945114
1629807929249,0.1466270983219146,-0.1017969697713851,0.4947835803031921,0.1097842901945114
1629807929312,0.1466270983219146,-0.1062676236033439,0.4861676096916199,0.1097842901945114
1629807929489,0.1466270983219146,-0.1148773580789566,0.4668328464031219,0.1097842901945114
1629807929547,0.1466270983219146,-0.1290834099054336,0.4413909912109375,0.1097842901945114
1629807929625,0.1466270983219146,-0.1458157896995544,0.4126117825508117,0.1097842901945114
1629807929766,0.1466270983219146,-0.1605291217565536,0.37885183095932,0.1097842901945114
1629807929828,0.1466270983219146,-0.1717427968978881,0.3392843306064605,0.1097842901945114
1629807929938,0.1466270983219146,-0.1822059154510498,0.2995517253875732,0.1097842901945114
1629807930047,0.1466270983219146,-0.1948729753494262,0.2670661509037018,0.1097842901945114
1629807930172,0.1466270983219146,-0.2117247581481933,0.2422995716333389,0.1097842901945114
1629807930281,0.1466270983219146,-0.2331668734550476,0.2189280986785888,0.1097842901945114
1629807930344,0.1466270983219146,-0.256974995136261,0.1924605667591095,0.1097842901945114
1629807930438,0.1466270983219146,-0.2800818085670471,0.1614687740802765,0.1097842901945114
1629807930547,0.1466270983219146,-0.3008575141429901,0.1228000596165657,0.1097842901945114
1629807930659,0.1466270983219146,-0.3189580142498016,0.0741781741380691,0.1097842901945114
1629807930816,0.1466270983219146,-0.3347786366939544,0.019855111837387,0.1097842901945114
1629807930878,0.1466270983219146,-0.3479667007923126,-0.029510086402297,0.1097842901945114
1629807930941,0.1466270983219146,-0.356893390417099,-0.063081718981266,0.1097842901945114
1629807931112,0.1466270983219146,-0.3594812154769897,-0.0771172493696212,0.1097842901945114
1629807931144,0.1466270983219146,-0.3547761142253876,-0.0753688588738441,0.1097842901945114
1629807931237,0.1466270983219146,-0.3433351814746856,-0.0674284100532531,0.1097842901945114
1629807931378,0.1466270983219146,-0.3245651721954345,-0.0634228661656379,0.1097842901945114
1629807931456,0.1466270983219146,-0.2974314391613006,-0.0671618953347206,0.1097842901945114
1629807931560,0.1466270983219146,-0.2655640840530395,-0.0745875835418701,0.1097842901945114
1629807931702,0.1466270983219146,-0.2361076921224594,-0.0790724232792854,0.1097842901945114
1629807931811,0.1466270983219146,-0.2135071456432342,-0.0752379298210144,0.1097842901945114
1629807931890,0.1466270983219146,-0.196197897195816,-0.0621255002915859,0.1097842901945114
1629807931983,0.1466270983219146,-0.1794216781854629,-0.0434127859771251,0.1097842901945114
1629807932061,0.1466270983219146,-0.1599617898464203,-0.0260500479489564,0.1097842901945114
1629807932202,0.1466270983219146,-0.1382148712873459,-0.015144532546401,0.1097842901945114
1629807932296,0.1466270983219146,-0.1170723363757133,-0.0109643703326582,0.1097842901945114
1629807932358,0.1466270983219146,-0.1005733832716941,-0.0097731612622737,0.1097842901945114
1629807932470,0.1466270983219146,-0.0911700949072837,-0.0088449213653802,0.1097842901945114
1629807932580,0.1466270983219146,-0.0852833017706871,-0.0095805237069725,0.1097842901945114
1629807932720,0.1466270983219146,-0.0745622739195823,-0.0128421355038881,0.1097842901945114
1629807932798,0.1466270983219146,-0.0554620437324047,-0.0176351033151149,0.1097842901945114
1629807932892,0.1466270983219146,-0.0351197198033332,-0.0217638295143842,0.1097842901945114
1629807932986,0.1466270983219146,-0.0226753745228052,-0.0237858593463897,0.1097842901945114
1629807933064,0.1466270983219146,-0.0207387711852788,-0.0229384545236825,0.1097842901945114
1629807933189,0.1466270983219146,-0.0247527435421943,-0.0174319688230752,0.1097842901945114
1629807933345,0.1466270983219146,-0.0285314731299877,-0.0076646846719086,0.1097842901945114
1629807933439,0.1466270983219146,-0.0287697371095418,0.0041500432416796,0.1097842901945114
1629807933522,0.1466270983219146,-0.026173772290349,0.0162862967699766,0.1097842901945114
1629807933595,0.1466270983219146,-0.0246690344065427,0.0283783599734306,0.1097842901945114
1629807933720,0.1466270983219146,-0.0294748302549123,0.039867278188467,0.1097842901945114
1629807933829,0.1466270983219146,-0.0434316024184227,0.0515574365854263,0.1097842901945114
1629807933907,0.1466270983219146,-0.0637179911136627,0.0654533728957176,0.1097842901945114
1629807934032,0.1466270983219146,-0.0845321789383888,0.0837188959121704,0.1097842901945114
1629807934095,0.1466270983219146,-0.1045892685651779,0.1052933633327484,0.1097842901945114
1629807934204,0.1466270983219146,-0.1298794597387313,0.1288665384054184,0.1097842901945114
1629807934313,0.1466270983219146,-0.1644406616687774,0.1562828570604324,0.1097842901945114
1629807934470,0.2466057538986206,-0.2008804231882095,0.1881061792373657,0.2160756886005401
1629807934596,0.2323213815689087,-0.225311666727066,0.2196929901838302,0.2238969802856445
1629807934612,0.2218016535043716,-0.2317151129245758,0.2443634569644928,0.2257976233959198
1629807934706,0.2235500514507293,-0.2279917895793914,0.2591317296028137,0.2285616993904113
1629807934784,0.2383316904306411,-0.2265997976064682,0.2653430700302124,0.2304350286722183
1629807934940,0.2383316904306411,-0.2348183393478393,0.2648621201515198,0.2311182916164398
1629807935065,0.2383316904306411,-0.2519243657588959,0.2579687237739563,0.2324286252260208
1629807935143,0.2383316904306411,-0.2684350907802582,0.2457531541585922,0.2319687902927398
1629807935206,0.2383316904306411,-0.2729255855083465,0.2316061854362487,0.2284735143184662
1629807935362,0.2383316904306411,-0.2614724040031433,0.2202408909797668,0.2187906354665756
1629807935424,0.2383316904306411,-0.2380841821432113,0.2168724536895752,0.2187906354665756
1629807935536,0.2383316904306411,-0.2081212550401687,0.2237315773963928,0.2187906354665756
1629807935662,0.2373808324337005,-0.1750549376010894,0.2374797314405441,0.2258038371801376
1629807935803,0.2325312197208404,-0.1414157450199127,0.2481419593095779,0.2273986190557479
1629807935865,0.2273710817098617,-0.1097058355808258,0.2459772229194641,0.225158616900444
1629807935974,0.2298969179391861,-0.0818823352456092,0.229012131690979,0.2199918627738952
1629807936006,0.2298969179391861,-0.059855468571186,0.2052280157804489,0.2155684232711792
1629807936131,0.2298969179391861,-0.0449526086449623,0.1856600493192672,0.2126933336257934
1629807936271,0.2298969179391861,-0.036222368478775,0.1746778488159179,0.2071060836315155
1629807936334,0.2298969179391861,-0.030677268281579,0.1703202277421951,0.1994847953319549
1629807936434,0.2298969179391861,-0.0251224599778652,0.1709767132997512,0.1897033154964447
1629807936527,0.2298969179391861,-0.0188425574451684,0.1775530874729156,0.1897033154964447
1629807936653,0.2298969179391861,-0.0147200357168912,0.1886688321828842,0.1897033154964447
1629807936746,0.2298969179391861,-0.0143922008574008,0.1987586915493011,0.1897033154964447
1629807936887,0.2298969179391861,-0.0170079078525304,0.2015994936227798,0.1897033154964447
1629807936980,0.2298969179391861,-0.0221441239118576,0.1917164176702499,0.1897033154964447
1629807937043,0.3159350752830505,-0.0298279915004968,0.1668055653572082,-0.1778028905391693
1629807937199,0.3185867965221405,-0.037041425704956,0.1300565898418426,-0.1674749255180359
1629807937246,0.318242609500885,-0.038520909845829,0.0905976891517639,-0.1596347987651825
1629807937324,0.3116141557693481,-0.0343437083065509,0.0586402639746665,-0.1556557267904281
1629807937466,0.3064604103565216,-0.0322987996041774,0.0410345755517482,-0.1539528369903564
1629807937607,0.304219901561737,-0.0373742543160915,0.0352145209908485,-0.1510830819606781
1629807937670,0.3039569854736328,-0.0427956022322177,0.0345298908650875,-0.1459376513957977
1629807937779,0.3047976195812225,-0.0382053218781948,0.0337194763123989,-0.1329315900802612
1629807937888,0.3027009069919586,-0.0228209346532821,0.0303378123790025,-0.1117202639579773
1629807937951,0.301290214061737,-0.0068340129218995,0.0247172117233276,-0.0861224457621574
1629807938076,0.3016734719276428,0.0035198652185499,0.0185174625366926,-0.064934641122818
1629807938185,0.3049108684062958,0.0117530329152941,0.0128703024238348,-0.0557884536683559
1629807938248,0.3142394125461578,0.0254164021462202,0.0099373459815979,-0.0485873743891716
1629807938375,0.3194647431373596,0.0480841062963008,0.0143049983307719,-0.0375048108398914
1629807938485,0.3168453276157379,0.0760219767689704,0.0292099565267562,-0.0271736104041337
1629807938563,0.3143705427646637,0.1001425608992576,0.0528835766017437,-0.0191042777150869
1629807938703,0.313125878572464,0.1095279604196548,0.0788963809609413,-0.0111221065744757
1629807938781,0.3128162026405334,0.114377461373806,0.1019565090537071,-0.0022866430226713
1629807938926,0.316913366317749,0.1136390045285224,0.1209757104516029,0.0088219540193676
1629807938978,0.3219678699970245,0.1111891865730285,0.1342941969633102,0.0227701514959335
1629807939065,0.326276570558548,0.1121098771691322,0.1400021463632583,0.0384746640920639
1629807939221,0.3296922445297241,0.1150458380579948,0.1384466588497162,0.0553086325526237
1629807939355,0.3323945105075836,0.1144542396068573,0.1347671598196029,0.066770501434803
1629807939381,0.3423384130001068,0.0967542976140976,0.135066956281662,0.0658463835716247
1629807939523,0.3557769954204559,0.0760495886206626,0.1419482231140136,0.0448482520878315
1629807939648,0.3557769954204559,0.0606322102248668,0.1537454277276992,0.0448482520878315
1629807939733,0.3557769954204559,0.046758983284235,0.168544203042984,0.0448482520878315
1629807939773,0.3557769954204559,0.0249052159488201,0.1859888583421707,0.0448482520878315
1629807939925,0.3557769954204559,-0.0088170813396573,0.2041792422533035,0.0448482520878315
1629807940003,0.3557769954204559,-0.0438116751611232,0.2172551304101944,0.0448482520878315
1629807940081,0.4301845729351043,-0.0570812039077281,0.2198745012283325,-0.2184022516012191
1629807940191,0.4057657122611999,-0.0130222123116254,0.2116625607013702,-0.2335079759359359
1629807940269,0.4057657122611999,0.0136463111266493,0.1975244134664535,-0.2335079759359359
1629807940459,0.4057657122611999,0.0222335141152143,0.181994691491127,-0.2335079759359359
1629807940537,0.4057657122611999,0.0200529396533966,0.166779026389122,-0.2335079759359359
1629807940615,0.4057657122611999,0.0200529396533966,0.1540144681930542,-0.2335079759359359
1629807940709,0.4057657122611999,0.023939648643136,0.1479835957288742,-0.2335079759359359
1629807940796,0.4057657122611999,0.0372400507330894,0.1486400514841079,-0.2335079759359359
1629807940874,0.4057657122611999,0.0407253466546535,0.1504150629043579,-0.2335079759359359
1629807940999,0.4057657122611999,0.0516607351601123,0.1465835571289062,-0.2335079759359359
1629807941155,0.4057657122611999,0.069014236330986,0.1352846175432205,-0.2335079759359359
1629807941249,0.4057657122611999,0.0915911048650741,0.1183546185493469,-0.2335079759359359
1629807941327,0.368864357471466,0.1160136982798576,0.0963276177644729,-0.3111808001995086
1629807941436,0.368864357471466,0.1325816363096237,0.0667246729135513,-0.3111808001995086
1629807941533,0.368864357471466,0.131288930773735,0.0313835330307483,-0.3111808001995086
1629807941595,0.368864357471466,0.1130826994776725,-0.0025227479636669,-0.3111808001995086
1629807941720,0.368864357471466,0.0845492109656333,-0.0273269303143024,-0.3111808001995086
1629807941861,0.368864357471466,0.0552750118076801,-0.0428342632949352,-0.3111808001995086
1629807941923,0.368864357471466,0.032405812293291,-0.052631139755249,-0.3111808001995086
1629807942017,0.368864357471466,0.0159354787319898,-0.0577597469091415,-0.3111808001995086
1629807942126,0.368864357471466,-0.0017751969862729,-0.0565841943025589,-0.3111808001995086
1629807942223,0.368864357471466,-0.0218886062502861,-0.0507976412773132,-0.3111808001995086
1629807942333,0.368864357471466,-0.0524397939443588,-0.0449370108544826,-0.3111808001995086
1629807942473,0.368864357471466,-0.0474662818014621,-0.0421593636274337,-0.3111808001995086
1629807942554,0.368864357471466,-0.0426771864295005,-0.0432691983878612,-0.3111808001995086
1629807942647,0.368864357471466,-0.0428520590066909,-0.0494374334812164,-0.3111808001995086
1629807942726,0.368864357471466,-0.0490475893020629,-0.0604545623064041,-0.3111808001995086
1629807942804,0.368864357471466,-0.0585204660892486,-0.0704670473933219,-0.3111808001995086
1629807942960,0.368864357471466,-0.0798691511154174,-0.0709367245435714,-0.3111808001995086
1629807943085,0.368864357471466,-0.0928064584732055,-0.0599456243216991,-0.3111808001995086
1629807943179,0.5847572088241577,-0.0972822085022926,-0.0445275530219078,0.2802106440067291
1629807943245,0.5230911374092102,-0.0957489162683487,-0.0320429876446723,0.2661198377609253
1629807943385,0.5230911374092102,-0.0910758525133133,-0.0235730577260255,0.2661198377609253
1629807943464,0.5230911374092102,-0.0857778340578079,-0.0153931332752108,0.2661198377609253
1629807943576,0.5230911374092102,-0.0804347768425941,-0.0022206478752195,0.2661198377609253
1629807943654,0.5230911374092102,-0.0742877572774887,0.023205267265439,0.2661198377609253
1629807943763,0.5230911374092102,-0.0664834231138229,0.0637794137001037,0.2661198377609253
1629807943841,0.5230911374092102,-0.0585230961441993,0.1162437126040458,0.2661198377609253
1629807943997,0.5230911374092102,-0.0529405735433101,0.1714174449443817,0.2661198377609253
1629807944044,0.5230911374092102,-0.0483652465045452,0.2185010313987732,0.2661198377609253
1629807944169,0.5230911374092102,-0.0393006801605224,0.2507212162017822,0.2661198377609253
1629807944278,0.5230911374092102,-0.0329926274716854,0.2683973014354706,0.2661198377609253
1629807944388,0.4641405642032623,-0.0215137209743261,0.2749623358249664,0.2847073972225189
1629807944481,0.4641405642032623,-0.0093718031421303,0.2910900115966797,0.2847073972225189
1629807944559,0.4641405642032623,-0.0008827368146739,0.3056457638740539,0.2847073972225189
1629807944640,0.4641405642032623,0.002293195342645,0.3210181593894958,0.2847073972225189
1629807944811,0.4641405642032623,0.0016187173314392,0.3408464193344116,0.2847073972225189
1629807944889,0.4641405642032623,0.0016865719808265,0.3667967021465301,0.2847073972225189
1629807944936,0.4641405642032623,0.0090607851743698,0.3971906304359436,0.2847073972225189
1629807945077,0.4641405642032623,0.0257685147225856,0.4277125298976898,0.2847073972225189
1629807945186,0.4641405642032623,0.0465942285954952,0.4500694274902344,0.2847073972225189
1629807945295,0.4641405642032623,0.062405340373516,0.4551439583301544,0.2847073972225189
1629807945454,0.4641405642032623,0.062405340373516,0.4345492124557495,0.1239557191729545
1629807945501,0.4641405642032623,0.062405340373516,0.3815841376781463,0.1233996227383613
1629807945594,0.4641405642032623,0.062405340373516,0.2232112139463424,0.1239082962274551
1629807945672,0.4641405642032623,0.062405340373516,0.0496397912502288,0.1254192441701889
1629807945829,0.4641405642032623,0.062405340373516,-0.1094144657254219,0.1231830567121505
1629807945891,0.2840657830238342,-0.2578469812870025,-0.2319392263889312,0.115607850253582
1629807946004,0.2954437136650085,-0.2605988979339599,-0.2611377537250519,0.1036154776811599
1629807946124,0.2943955957889557,-0.2327550947666168,-0.2680757045745849,0.093125119805336
1629807946218,0.2802412211894989,-0.1829916983842849,-0.2553072869777679,0.0875227004289627
1629807946293,0.2585360407829284,-0.1367365419864654,-0.2278617471456527,0.0880338922142982
1629807946393,0.2355352193117141,-0.1089125126600265,-0.191172644495964,0.0914941281080246
1629807946491,0.2355352193117141,-0.0976605415344238,-0.1528501808643341,0.0914941281080246
1629807946660,0.2390863597393036,-0.0936336666345596,-0.121810495853424,0.0868162140250206
1629807946722,0.2410570979118347,-0.0899648889899253,-0.1033699288964271,0.0835205912590026
1629807946832,0.2410570979118347,-0.0859606713056564,-0.0967356786131858,0.0814388766884803
1629807946941,0.2410570979118347,-0.0823171734809875,-0.0971511006355285,0.0777981951832771
1629807947019,0.2410570979118347,-0.0781813114881515,-0.0987283810973167,0.0727006942033767
1629807947113,0.2410570979118347,-0.0639345869421958,-0.097603440284729,0.0654900670051574
1629807947222,0.2410570979118347,-0.0450731217861175,-0.0894398912787437,0.0546926632523536
1629807947312,0.2235293388366699,-0.022617619484663,-0.0760650858283042,0.0452896021306514
1629807947427,0.1923839747905731,0.0001809331588447,-0.0629939958453178,0.0443980582058429
1629807947520,0.1467516422271728,0.0169059801846742,-0.0527722835540771,0.0596225149929523
1629807947594,0.1467516422271728,0.0225223843008279,-0.0421121641993522,0.0596225149929523
1629807947757,0.1467516422271728,0.0175615046173334,-0.0285337455570697,0.0596225149929523
1629807947859,0.1467516422271728,0.0085938107222318,-0.0160361416637897,0.0596225149929523
1629807947937,0.1467516422271728,0.0021543798502534,-0.0118220429867506,0.0596225149929523
1629807948009,0.1467516422271728,-0.0011002122191712,-0.0194346513599157,0.0596225149929523
1629807948109,0.1467516422271728,-0.0047790156677365,-0.0354880727827549,0.0596225149929523
1629807948282,0.1467516422271728,-0.0123726483434438,-0.0530672967433929,0.0596225149929523
1629807948313,0.1467516422271728,-0.0240006186068058,-0.0670556351542472,0.0596225149929523
1629807948441,0.1467516422271728,-0.0375700108706951,-0.0745849609375,0.0596225149929523
1629807948544,0.1467516422271728,-0.0506417714059352,-0.0744834765791893,0.0596225149929523
1629807948607,0.1467516422271728,-0.0611295327544212,-0.0676430240273475,0.0596225149929523
1629807948744,0.1467516422271728,-0.0697943866252899,-0.0574071817100048,0.0596225149929523
1629807948790,0.4853717088699341,-0.0786473974585533,-0.0452855639159679,0.0596225149929523
1629807948909,0.4853717088699341,-0.0876482501626014,-0.0296973288059234,0.0596225149929523
1629807949052,0.4853717088699341,-0.0994512736797332,-0.0221477504819631,0.0596225149929523
1629807949155,0.4853717088699341,-0.1068419814109802,-0.0178031716495752,0.0596225149929523
1629807949234,0.4853717088699341,-0.1124806627631187,-0.0225271824747324,0.0596225149929523
1629807949327,0.4853717088699341,-0.1204859614372253,-0.0354437865316867,0.0596225149929523
1629807949471,0.4853717088699341,-0.1310227960348129,-0.048869214951992,0.0596225149929523
1629807949502,0.4853717088699341,-0.1396111696958542,-0.0537958741188049,0.0596225149929523
1629807949659,0.4853717088699341,-0.1418000608682632,-0.0460298843681812,0.0596225149929523
1629807949748,0.4853717088699341,-0.1340884417295456,-0.0258691105991601,0.0596225149929523
1629807949831,0.4853717088699341,-0.1139865443110466,0.0050414772704243,0.0596225149929523
1629807949959,0.4853717088699341,-0.0825628414750099,0.0415012016892433,0.0596225149929523
1629807950050,0.4853717088699341,-0.0462207831442356,0.0739331170916557,0.0596225149929523
1629807950144,0.4853717088699341,-0.0462207831442356,0.1123756468296051,0.0596225149929523
1629807950284,0.4853717088699341,-0.0462207831442356,0.1342942714691162,0.0596225149929523
1629807950363,0.4853717088699341,-0.0462207831442356,0.1366904973983764,0.0596225149929523
1629807950456,0.4853717088699341,-0.0462207831442356,0.1170807778835296,0.0596225149929523
1629807950550,0.4853717088699341,0.0112955626100301,0.0828015580773353,0.0596225149929523
1629807950657,0.4853717088699341,0.0395864993333816,0.0518900714814662,0.0596225149929523
1629807950719,0.4853717088699341,0.0750360339879989,0.0307671297341585,0.0596225149929523
1629807950891,0.4853717088699341,0.1032235473394393,0.0226330682635307,0.0596225149929523
1629807951001,0.4853717088699341,0.1186614334583282,0.0255106929689645,0.0596225149929523
1629807951063,0.4853717088699341,0.1242446452379226,0.0356462076306343,0.0596225149929523
1629807951161,0.4853717088699341,0.123634435236454,0.0489104688167572,0.0596225149929523
1629807951282,0.4853717088699341,0.1171233803033828,0.059787418693304,0.0596225149929523
1629807951358,0.4853717088699341,0.1043174415826797,0.0628309845924377,0.0596225149929523
1629807951504,0.4853717088699341,0.0874875709414482,0.0559813342988491,0.0596225149929523
1629807951580,0.4853717088699341,0.069935992360115,0.0416574217379093,0.0596225149929523
1629807951705,0.4853717088699341,0.0540552623569965,0.0143726589158177,0.0596225149929523
1629807951783,0.4853717088699341,0.0465852618217468,-0.0134188057854771,0.0596225149929523
1629807951893,0.4853717088699341,0.0452306717634201,-0.0310259014368057,0.0596225149929523
1629807951955,0.4853717088699341,0.0522529855370521,-0.0311867818236351,0.0596225149929523
1629807952130,0.4853717088699341,0.0629918426275253,-0.0147260650992393,0.0596225149929523
1629807952209,0.4853717088699341,0.068776249885559,0.0084723681211471,0.0596225149929523
1629807952287,0.4853717088699341,0.0650158822536468,0.025393346324563,0.0596225149929523
1629807952380,0.4853717088699341,0.0529652461409568,0.0275882985442876,0.0596225149929523
1629807952506,0.4853717088699341,0.0357498861849308,0.0140357455238699,0.0596225149929523
1629807952552,0.4853717088699341,0.0155335227027535,-0.0116922110319137,0.0596225149929523
1629807952680,0.4853717088699341,-0.0042702849023044,-0.0446860343217849,0.0596225149929523
1629807952773,0.4853717088699341,-0.0170778632164001,-0.0789771750569343,0.0596225149929523
1629807952903,0.4853717088699341,-0.018740264698863,-0.1072683632373809,0.0596225149929523
1629807952978,0.4853717088699341,-0.0110020218417048,-0.123253546655178,0.0596225149929523
1629807953121,0.4853717088699341,0.0008325934177264,-0.1223431974649429,0.0596225149929523
1629807953182,0.4853717088699341,0.0119846398010849,-0.1043365970253944,0.0596225149929523
1629807953354,0.4853717088699341,0.0181580837816,-0.0738140195608139,0.0596225149929523
1629807953416,0.4853717088699341,0.0173825491219759,-0.0367119535803794,0.0596225149929523
1629807953513,0.4853717088699341,0.0132670672610402,0.0033372901380062,0.0596225149929523
1629807953635,0.4853717088699341,0.0129939140751957,0.0460095293819904,0.0596225149929523
1629807953685,0.4853717088699341,0.0205950774252414,0.0889445096254348,0.0596225149929523
1629807953775,0.4853717088699341,0.0332861058413982,0.128166988492012,0.0596225149929523
1629807953948,0.4853717088699341,0.0462358295917511,0.1618494093418121,0.0596225149929523
1629807953993,0.4853717088699341,0.0569528825581073,0.1931760311126709,0.0596225149929523
1629807954118,0.4853717088699341,0.065252661705017,0.2238069772720337,0.0596225149929523
1629807954210,0.4853717088699341,0.0720675587654113,0.2519755661487579,0.0596225149929523
1629807954293,0.4853717088699341,0.0781354084610939,0.2793591916561126,0.0596225149929523
1629807954405,0.4853717088699341,0.0857714414596557,0.3111181557178497,0.0596225149929523
1629807954562,0.4853717088699341,0.0977290943264961,0.3502401709556579,0.0596225149929523
1629807954624,0.4853717088699341,0.1051812097430229,0.3920571208000183,0.0596225149929523
1629807954702,0.4853717088699341,0.1140344142913818,0.4292387664318084,0.0596225149929523
1629807954827,0.4853717088699341,0.1252767890691757,0.4573561549186706,0.0596225149929523
1629807954928,0.4853717088699341,0.1342090964317321,0.4749519824981689,0.0596225149929523
1629807954995,0.4853717088699341,0.1330943256616592,0.4827121794223785,0.0596225149929523
1629807955137,0.4853717088699341,0.123640589416027,0.4824343919754028,0.0596225149929523
1629807955210,0.4853717088699341,0.110930249094963,0.4787871241569519,0.0596225149929523
1629807955367,0.4853717088699341,0.1023386642336845,0.477439135313034,0.0596225149929523
1629807955478,0.4853717088699341,0.1032553166151046,0.4815498888492584,0.0596225149929523
1629807955526,0.4853717088699341,0.1129910126328468,0.4891988635063171,0.0596225149929523
1629807955625,0.4853717088699341,0.1262624710798263,0.4972711503505707,0.0596225149929523
1629807955797,0.4853717088699341,0.1349321156740188,0.5042538642883301,0.0596225149929523
1629807955875,0.4853717088699341,0.1330806761980056,0.5082289576530457,0.0596225149929523
1629807955938,0.4853717088699341,0.1202092617750167,0.505460262298584,0.0596225149929523
1629807956063,0.4853717088699341,0.0988250449299812,0.492551177740097,0.0596225149929523
1629807956172,0.4853717088699341,0.0866433009505271,0.4693631827831268,0.0596225149929523
1629807956281,0.4853717088699341,0.0790540799498558,0.4384734630584717,0.0596225149929523
1629807956344,0.4853717088699341,0.0742989331483841,0.4031368494033813,0.0596225149929523
1629807956445,0.4853717088699341,0.0707460194826126,0.3676755428314209,0.0596225149929523
1629807956586,0.4853717088699341,0.0736413300037384,0.3354986608028412,0.0596225149929523
1629807956632,0.4853717088699341,0.0744271352887153,0.3073681592941284,0.0596225149929523
1629807956711,0.4853717088699341,0.065675675868988,0.2804384231567383,0.0596225149929523
1629807956836,0.4853717088699341,0.0460744388401508,0.2516587674617767,0.0596225149929523
1629807956997,0.4853717088699341,0.0194018017500638,0.2196348309516906,0.0596225149929523
1629807957052,0.4853717088699341,-0.0087562073022127,0.1844734847545623,0.0596225149929523
1629807957170,0.4853717088699341,-0.0323641188442707,0.1463640332221985,0.0596225149929523
1629807957289,0.4853717088699341,-0.0442678779363632,0.1066739410161972,0.0596225149929523
1629807957340,0.4853717088699341,-0.0407462194561958,0.0675824359059333,0.0596225149929523
1629807957436,0.4853717088699341,-0.0279605761170387,0.0324221812188625,0.0596225149929523
1629807957591,0.4853717088699341,-0.0158740915358066,0.0030049583874642,0.0596225149929523
1629807957702,0.4853717088699341,-0.0073713269084692,-0.0207293722778558,0.0596225149929523
1629807957810,0.4853717088699341,0.0040903370827436,-0.037401333451271,0.0596225149929523
1629807957843,0.4853717088699341,0.0245321914553642,-0.0428037606179714,0.0596225149929523
1629807957951,0.4853717088699341,0.0525159388780593,-0.0366324372589588,0.0596225149929523
1629807958058,0.4853717088699341,0.0844991728663444,-0.02524952031672,0.0596225149929523
1629807958169,0.4853717088699341,0.1186040937900543,-0.0155453160405159,0.0596225149929523
1629807958313,0.4853717088699341,0.1519797146320343,-0.0110524669289588,0.0596225149929523
1629807958391,0.4853717088699341,0.1801890283823013,-0.0118120349943637,0.0596225149929523
1629807958519,0.4853717088699341,0.200282484292984,-0.0153790339827537,0.0596225149929523
1629807958549,0.4853717088699341,0.2136431783437729,-0.0189102292060852,0.0596225149929523
1629807958642,0.4853717088699341,0.2220735698938369,-0.0199540834873914,0.0596225149929523
1629807958798,0.4853717088699341,0.2252868264913559,-0.0179373752325773,0.0596225149929523
1629807958892,0.4853717088699341,0.2223180085420608,-0.0139707112684845,0.0596225149929523
1629807958970,0.4853717088699341,0.2153802663087844,-0.0060467501170933,0.0596225149929523
1629807959093,0.4853717088699341,0.210048958659172,0.012099246494472,0.0596225149929523
1629807959156,0.4853717088699341,0.2106949239969253,0.0469945035874843,0.0596225149929523
1629807959249,0.4853717088699341,0.21604685485363,0.0946145057678222,0.0596225149929523
1629807959421,0.4853717088699341,0.2207114249467849,0.1421608626842498,0.0596225149929523
1629807959548,0.4853717088699341,0.2211238741874694,0.1787467300891876,0.0596225149929523
1629807959578,0.4853717088699341,0.2182092666625976,0.2043081372976303,0.0596225149929523
1629807959672,0.4853717088699341,0.2148006558418274,0.2260946184396743,0.0596225149929523
1629807959797,0.4853717088699341,0.2123212218284607,0.2498984187841415,0.0596225149929523
1629807959891,0.4853717088699341,0.2092245817184448,0.2745298445224762,0.0596225149929523
1629807960001,0.4853717088699341,0.2031793594360351,0.2951126992702484,0.0596225149929523
1629807960108,0.4853717088699341,0.1935036927461624,0.3084132969379425,0.0596225149929523
1629807960210,0.4853717088699341,0.1822307705879211,0.3141312003135681,0.0596225149929523
1629807960304,0.4853717088699341,0.1729033887386322,0.3137000501155853,0.0596225149929523
1629807960445,0.4853717088699341,0.1690219938755035,0.309188574552536,0.0596225149929523
1629807960492,0.4853717088699341,0.1708255857229232,0.3023537993431091,0.0596225149929523
1629807960636,0.4853717088699341,0.1745209395885467,0.2931798994541168,0.0596225149929523
1629807960744,0.4853717088699341,0.1742518991231918,0.279054194688797,0.0596225149929523
1629807960822,0.4853717088699341,0.1663704365491867,0.2594792246818542,0.0596225149929523
1629807960918,0.4853717088699341,0.1517626643180847,0.2392638772726059,0.0596225149929523
1629807960980,0.4853717088699341,0.134481742978096,0.2253555506467819,0.0596225149929523
1629807961106,0.4853717088699341,0.115713931620121,0.2174178957939148,0.0596225149929523
1629807961215,0.4853717088699341,0.0923874899744987,0.2066201418638229,0.0596225149929523
1629807961356,0.4853717088699341,0.0627778619527816,0.1849957406520843,0.0596225149929523
1629807961419,0.4853717088699341,0.0315296873450279,0.1537929773330688,0.0596225149929523
1629807961544,0.4853717088699341,0.0077481786720454,0.1216138452291488,0.0596225149929523
1629807961609,0.4853717088699341,-0.003712254576385,0.0977518260478973,0.0596225149929523
1629807961750,0.4853717088699341,-0.0051660370081663,0.0870731100440025,0.0596225149929523
1629807961873,0.4853717088699341,-0.0002666074724402,0.0882650464773178,0.0596225149929523
1629807961951,0.4853717088699341,0.0070328470319509,0.0961261391639709,0.0596225149929523
1629807962044,0.4853717088699341,0.0126574728637933,0.1108906492590904,0.0596225149929523
1629807962154,0.4853717088699341,0.0136356065049767,0.1543030440807342,0.0596225149929523
1629807962248,0.4853717088699341,0.0151855554431676,0.1608393639326095,0.0596225149929523
1629807962341,0.4853717088699341,0.0415842868387699,0.1632785648107528,0.0596225149929523
1629807962451,0.4853717088699341,0.0367198474705219,0.1599203199148178,0.0596225149929523
1629807962560,0.4853717088699341,0.0281207654625177,0.1489299088716507,0.0596225149929523
1629807962638,0.4853717088699341,0.3113617897033691,0.1319963186979293,0.0596225149929523
1629807962732,0.4853717088699341,0.529572606086731,0.1160966455936431,0.0596225149929523
1629807962841,0.4853717088699341,0.685635507106781,0.1109799519181251,0.0596225149929523
1629807962951,0.4853717088699341,0.7884860038757324,0.1217555627226829,0.0596225149929523
1629807963060,0.4853717088699341,0.819541335105896,0.1459589749574661,0.0596225149929523
1629807963185,0.7707307934761047,0.8541819453239441,0.1776652783155441,0.0596225149929523
1629807963279,0.7794967293739319,0.8922883868217468,0.2136932611465454,0.0596225149929523
1629807963388,0.7834553718566895,0.9340684413909912,0.2136932611465454,0.0596225149929523
1629807963419,0.7784538865089417,0.980400025844574,0.2136932611465454,0.0596225149929523
1629807963529,0.7643929123878479,1.026546597480774,0.2136932611465454,0.0596225149929523
1629807963689,0.7455739378929138,1.0665472745895386,0.2136932611465454,0.0596225149929523
1629807963826,0.7274530529975891,1.0985538959503174,0.2136932611465454,0.0596225149929523
1629807963873,0.7158923149108887,1.1222110986709597,0.2136932611465454,0.0596225149929523
1629807963982,0.7144741415977478,1.1038427352905271,0.2136932611465454,0.7423002123832703
1629807964076,0.7251777052879333,1.091787338256836,0.2136932611465454,0.6827691197395325
1629807964138,0.7453386783599854,1.0739089250564575,0.2136932611465454,0.5171118378639221
1629807964310,0.7701908946037292,1.031387448310852,0.2136932611465454,0.6085258722305298
1629807964388,0.7913832664489746,0.9698811173439026,0.2136932611465454,0.6695423126220703
1629807964497,0.8085773587226868,0.9106380343437196,0.2136932611465454,0.7007433772087097
1629807964607,0.8198432326316833,0.9081330895423888,0.2136932611465454,0.7131674885749817
1629807964685,0.8279550075531006,0.9180846214294434,0.2136932611465454,0.7217503786087036
1629807964795,0.8386056423187256,0.9375299215316772,0.2136932611465454,0.738433301448822
1629807964872,0.8517947196960449,0.9601854681968688,0.2136932611465454,0.7662346959114075
1629807964966,0.8644860982894897,0.9796322584152222,0.2136932611465454,0.798151433467865
1629807965091,0.8760458827018738,0.9931515455245972,0.2136932611465454,0.8263205885887146
1629807965216,0.886701226234436,1.0023114681243896,0.2136932611465454,0.8454082608222961
1629807965263,0.8953136205673218,1.0112900733947754,0.2136932611465454,0.8541633486747742
1629807965357,0.8985520005226135,1.0217056274414062,0.2136932611465454,0.8755398988723755
1629807965515,0.892540454864502,1.0304510593414309,0.2136932611465454,0.888380229473114
1629807965593,0.8757089376449585,1.0349414348602295,1.1583185195922852,0.892606794834137
1629807965702,0.8500858545303345,1.0363215208053589,1.154123067855835,0.8876188397407532
1629807965780,0.8178249001502991,1.039578557014465,1.1553654670715332,0.8740674257278442
1629807965874,0.7846882343292236,1.0472431182861328,1.1556442975997925,0.8552994728088379
1629807965968,0.7558473944664001,1.0568809509277344,1.1519571542739868,0.8368739485740662
1629807966124,0.728337287902832,1.0642520189285278,1.1454851627349854,0.821078360080719
1629807966218,0.6960481405258179,1.0672603845596311,1.1423455476760864,0.8053810000419617
1629807966312,0.6562705039978027,1.0657492876052856,1.150323510169983,0.7850278615951538
1629807966436,0.6148174405097961,1.056265354156494,1.150323510169983,0.7573150396347046
1629807966501,0.5877195000648499,1.0443394184112549,1.150323510169983,0.7252979278564453
1629807966674,0.5821109414100647,1.0345371961593628,1.150323510169983,0.69411301612854
1629807966721,0.5900360345840454,1.0290446281433103,1.150323510169983,0.6670421361923218
1629807966862,0.5998647212982178,1.0904172658920288,1.1382569074630735,0.6435204744338989
1629807966940,0.6059013605117798,1.1358791589736938,1.1359522342681885,0.6222537159919739
1629807967080,0.6106815338134766,1.16109037399292,1.1404415369033811,0.601744532585144
1629807967112,0.6166314482688904,1.172869324684143,1.1456879377365112,0.5829653739929199
1629807967174,0.6223752498626709,1.1807478666305542,1.1471315622329712,0.567913293838501
1629807967346,0.6266924738883972,1.189311981201172,1.1441948413848877,0.5572994351387024
1629807967440,0.6291384696960449,1.198783278465271,1.1408523321151731,0.5529369115829468
1629807967518,0.6321280002593994,1.2115082740783691,1.1408523321151731,0.5550401210784912
1629807967627,0.6384773850440979,1.2302899360656738,1.1408523321151731,0.5623796582221985
1629807967721,0.6459358334541321,1.2529171705245972,1.1408523321151731,0.5728738307952881
1629807967861,0.6593249440193176,1.2655882835388184,1.1408523321151731,0.5794133543968201
1629807967955,0.6681160926818848,1.2655882835388184,1.1408523321151731,0.579340398311615
1629807968033,0.665353536605835,1.2655882835388184,1.1408523321151731,0.5668955445289612
1629807968174,0.6473844647407532,1.2655882835388184,1.1408523321151731,0.5387570858001709
1629807968221,0.6168939471244812,1.2655882835388184,1.1408523321151731,0.4995934069156647
1629807968350,0.5829207897186279,1.2361611127853394,1.1408523321151731,0.4627671539783478
1629807968428,0.5583173632621765,1.205910563468933,1.1408523321151731,0.4418642222881317
1629807968553,0.5511215329170227,1.1884063482284546,1.1408523321151731,0.4427672624588012
1629807968678,0.5572384595870972,1.1891227960586548,1.1408523321151731,0.4558478593826294
1629807968725,0.5665904879570007,1.2039424180984497,1.1408523321151731,0.474980741739273
1629807968861,0.5719783902168274,1.2279725074768066,1.1408523321151731,0.5010703802108765
1629807968944,0.5719783902168274,1.2683035135269165,1.1408523321151731,0.5010703802108765
1629807969060,0.5719783902168274,1.2836076021194458,1.4824397563934326,0.5010703802108765
1629807969179,0.5719783902168274,1.2552498579025269,1.493080973625183,0.5010703802108765
1629807969273,0.5719783902168274,1.1840388774871826,1.4914164543151855,0.5010703802108765
1629807969381,0.5719783902168274,1.1549739837646484,1.486652970314026,0.5010703802108765
1629807969446,0.5719783902168274,1.1397452354431152,1.486652970314026,0.5010703802108765
1629807969512,0.5719783902168274,1.128071665763855,1.486652970314026,0.5010703802108765
1629807969683,0.5719783902168274,1.1117173433303833,1.5267019271850586,0.5010703802108765
1629807969744,0.5719783902168274,1.0891424417495728,1.5267019271850586,0.5010703802108765
1629807969839,0.5719783902168274,1.063711404800415,1.512017846107483,0.5010703802108765
1629807969967,0.5719783902168274,1.0386842489242554,1.4913235902786257,0.5010703802108765
1629807970075,0.5719783902168274,1.015046000480652,1.466891169548035,0.5010703802108765
1629807970152,0.5719783902168274,0.9940975904464722,1.4452033042907717,0.5010703802108765
1629807970218,0.5719783902168274,0.9778944253921508,1.4311052560806274,0.5010703802108765
1629807970369,0.5719783902168274,0.966428518295288,1.4121605157852173,0.5010703802108765
1629807970462,0.5719783902168274,0.9311647415161132,1.3820117712020874,0.5010703802108765
1629807970601,0.5719783902168274,0.8946672677993774,1.3395750522613523,0.5010703802108765
1629807970664,0.5719783902168274,0.8672536611557007,1.2903807163238523,0.5010703802108765
1629807970734,0.5719783902168274,0.8492157459259033,1.2396435737609863,0.5010703802108765
1629807970853,0.5719783902168274,0.8286677598953247,1.1875362396240234,0.5010703802108765
1629807970961,0.5719783902168274,0.7944661378860474,1.1678955554962158,0.5010703802108765
1629807971072,0.5719783902168274,0.7485039234161377,1.1495531797409058,0.5010703802108765
1629807971199,0.5719783902168274,0.7035780549049377,1.1325916051864624,0.5010703802108765
1629807971306,0.5719783902168274,0.6741854548454285,1.1183773279190063,0.5010703802108765
1629807971369,0.5719783902168274,0.6185437440872192,1.0770165920257568,0.5010703802108765
1629807971465,0.5719783902168274,0.5733595490455627,1.0477300882339478,0.5010703802108765
1629807971559,0.5719783902168274,0.5348511338233948,1.0302186012268066,0.5010703802108765
1629807971730,0.5719783902168274,0.492745965719223,1.0135209560394287,0.5010703802108765
1629807971762,0.5719783902168274,0.4293034374713897,0.98544180393219,0.5010703802108765
1629807971967,0.5719783902168274,0.3334877490997314,0.9460257291793824,0.5010703802108765
1629807972013,0.4280577301979065,0.3606931865215301,0.9104284048080444,0.3046206533908844
1629807972060,0.4101254642009735,0.3940052390098572,0.8967779278755188,0.2806681990623474
1629807972210,0.3867211937904358,0.425755113363266,0.9072273969650269,0.2452651709318161
1629807972319,0.3675060570240021,0.4475854337215423,0.928283154964447,0.2095502018928527
1629807972396,0.3599556088447571,0.4563261270523071,0.9471797943115234,0.1833776086568832
1629807972521,0.3659299314022064,0.4562136828899383,0.9593929648399352,0.1633717715740203
1629807972594,0.3803212642669678,0.4563726484775543,0.9655629992485046,0.1441295593976974
1629807972719,0.3944243788719177,0.4638523459434509,0.9664649367332458,0.120774820446968
1629807972828,0.4046913981437683,0.4788703918457031,0.961124062538147,0.0974019393324852
1629807972922,0.407749593257904,0.5081642270088196,0.9479240775108336,0.0785528942942619
1629807972999,0.4063328504562378,0.5354753136634827,0.926455020904541,0.0686913952231407
1629807973139,0.4030129313468933,0.5568322539329529,0.8990851640701294,0.0731390938162803
1629807973202,0.3922982215881347,0.5706270337104797,0.8699039220809937,0.0679105967283248
1629807973280,0.3824396729469299,0.5767201781272888,0.8434042930603027,0.0838737562298774
1629807973452,0.3691654503345489,0.5764915943145752,0.8228771686553955,0.1085505858063697
1629807973530,0.3547151088714599,0.5714565515518188,0.8078147172927856,0.1303823143243789
1629807973624,0.3424590229988098,0.5625053644180298,0.7924837470054626,0.1445947885513305
1629807973717,0.3337662816047668,0.5505154728889465,0.7692767977714539,0.1513371467590332
1629807973827,0.3250235319137573,0.5378968715667725,0.7344457507133484,0.1509611457586288
1629807973936,0.3117769956588745,0.5271515846252441,0.6907464861869812,0.1466136425733566
1629807974061,0.2890207171440124,0.5185122489929199,0.6470052599906921,0.1422095447778701
1629807974139,0.2593248188495636,0.5091688632965088,0.6102081537246704,0.1409202516078949
1629807974241,0.2286445945501327,0.4945448338985443,0.5826511979103088,0.1465176343917846
1629807974319,0.1993691176176071,0.4710749983787536,0.5653534531593323,0.1564958542585373
1629807974397,0.1751510947942733,0.4385203123092651,0.563719630241394,0.1707580089569091
1629807974556,0.1532035171985626,0.4011237919330597,0.5833030343055725,0.186833456158638
1629807974650,0.1326071768999099,0.3665809035301208,0.621208667755127,0.2016025632619857
1629807974743,0.119380883872509,0.340837687253952,0.6694071292877197,0.2116599977016449
1629807974853,0.1118804886937141,0.3227353096008301,0.7195649147033691,0.2110598534345626
1629807974946,0.1183030232787132,0.3070333003997803,0.7621356844902039,0.1999371498823166
1629807975025,0.1451848447322845,0.2888388931751251,0.7621356844902039,0.18584506213665
1629807975103,0.188112124800682,0.2669070363044739,0.7621356844902039,0.1785002648830413
1629807975243,0.2385431379079818,0.245160773396492,0.7621356844902039,0.1845032572746276
1629807975384,0.2869455218315124,0.2292801141738891,0.7621356844902039,0.1992950141429901
1629807975509,0.332549512386322,0.2216621488332748,0.5908650755882263,0.2135884463787078
1629807975575,0.375323086977005,0.2173476368188858,0.5604953169822693,0.2244232445955276
1629807975685,0.4071339666843414,0.2085126787424087,0.5306327939033508,0.2334714978933334
1629807975747,0.4249364733695984,0.19452004134655,0.5080701112747192,0.2464829981327057
1629807975872,0.4306749105453491,0.1831768900156021,0.496302992105484,0.2628366947174072
1629807975997,0.4326919913291931,0.1807029098272323,0.4916115403175354,0.2768697142601013
1629807976044,0.4370239078998565,0.1829544603824615,0.4875962138175964,0.2842504978179931
1629807976210,0.4432639479637146,0.1811131238937378,0.4802093207836151,0.2805268466472626
1629807976272,0.4486238360404968,0.1729625016450882,0.4702591896057129,0.2681343257427215
1629807976335,0.4513514935970306,0.1656200140714645,0.4603887498378753,0.2518799901008606
1629807976499,0.4492754638195038,0.1664543449878692,0.4515188634395599,0.2364062070846557
1629807976608,0.4396050572395324,0.1759755313396453,0.4435822963714599,0.2240565568208694
1629807976686,0.432578444480896,0.1896917074918747,0.422843337059021,0.2224195599555969
1629807976795,0.4168946146965027,0.2041990756988525,0.4099583327770233,0.222710445523262
1629807976889,0.3955218493938446,0.2197584509849548,0.4113907217979431,0.2250156849622726
1629807976967,0.3661825954914093,0.2386115789413452,0.4257063865661621,0.230486661195755
1629807977092,0.3266568183898926,0.2624859511852264,0.4447163045406341,0.2402190119028091
1629807977202,0.2846632599830627,0.2894681394100189,0.4591186940670013,0.2524116933345794
1629807977264,0.2527985572814941,0.3142346143722534,0.4640108048915863,0.256853699684143
1629807977377,0.2430767565965652,0.3309531509876251,0.4600643515586853,0.2503640949726105
1629807977502,0.2462507337331771,0.3369461894035339,0.4539505243301391,0.2337434142827987
1629807977596,0.2473161965608596,0.3352907001972198,0.4545127153396606,0.2112043052911758
1629807977674,0.2414114773273468,0.3320171535015106,0.4668984711170196,0.1922846138477325
1629807977784,0.2414114773273468,0.3311178684234619,0.4893659949302673,0.1922846138477325
1629807977924,0.2414114773273468,0.3305951952934265,0.5167694687843323,0.1922846138477325
1629807978002,0.2414114773273468,0.3267261981964111,0.5444065928459167,0.1922846138477325
1629807978080,0.2414114773273468,0.318986713886261,0.5693573355674744,0.1922846138477325
1629807978206,0.326958566904068,0.3093964755535126,0.5921220779418945,0.1922846138477325
1629807978338,0.3302532434463501,0.2990685403347015,0.6150487661361694,-0.0393227562308311
1629807978385,0.3502606153488159,0.2897215485572815,0.6403189897537231,-0.006222647614777
1629807978481,0.3801026940345764,0.2870924472808838,0.6667858362197876,0.0345395989716053
1629807978590,0.4177972674369812,0.2993136048316955,0.6913029551506042,0.0867557451128959
1629807978668,0.460212767124176,0.3271074891090393,0.7121236324310303,0.1474479585886001
1629807978778,0.460212767124176,0.3596166968345642,0.7296909689903259,0.1474479585886001
1629807978903,0.460212767124176,0.3851301670074463,0.7440149784088135,0.1474479585886001
1629807979012,0.460212767124176,0.4001002013683319,0.7530949711799622,0.1474479585886001
1629807979121,0.460212767124176,0.4067094922065735,0.7555522322654724,0.1474479585886001
1629807979215,0.460212767124176,0.4084980487823486,0.7515028119087219,0.1474479585886001
1629807979262,0.460212767124176,0.4082271456718445,0.7575572729110718,0.1474479585886001
1629807979434,0.4653858542442322,0.4086833298206329,0.7611448168754578,0.1474479585886001
1629807979514,0.4789398908615112,0.4110922813415527,0.7640244960784912,0.1742295622825622
1629807979623,0.5062347650527954,0.4134728610515594,0.7683603167533875,0.2036518156528473
1629807979717,0.5434927940368652,0.4138246476650238,0.7726770043373108,0.2388011366128921
1629807979826,0.5818631649017334,0.412934273481369,0.7702688574790955,0.2776295244693756
1629807979889,0.5818631649017334,0.4108445346355438,0.75313800573349,0.2776295244693756
1629807979982,0.5818631649017334,0.401905357837677,0.6871620416641235,0.2776295244693756
1629807980123,0.5818631649017334,0.3769258856773376,0.6106634736061096,0.2776295244693756
1629807980217,0.5818631649017334,0.3303138017654419,0.5373401045799255,0.2776295244693756
1629807980310,0.5818631649017334,0.2669882178306579,0.4746728837490082,0.2776295244693756
1629807980420,0.5010075569152832,0.2017127126455307,0.4217992126941681,0.2776295244693756
1629807980531,0.4886984229087829,0.1517203599214553,0.3811287581920624,-0.0988452360033989
1629807980611,0.4795339405536651,0.1279017925262451,0.3596679270267486,-0.1231178641319274
1629807980751,0.4675971269607544,0.1291853338479995,0.3696533739566803,-0.1330917626619339
1629807980829,0.4517313539981842,0.1454791724681854,0.4244102537631988,-0.1272312998771667
1629807980954,0.432005375623703,0.1658051311969757,0.4968123435974121,-0.1022792756557464
1629807981001,0.41216641664505,0.1831210106611251,0.5668720602989197,-0.0555071793496608
1629807981095,0.3942140638828277,0.1953677833080291,0.6174436807632446,0.0063035963103175
1629807981251,0.3787551820278168,0.2023863196372985,0.6420308351516724,0.0652248486876487
1629807981360,0.366531640291214,0.2035657465457916,0.6438642740249634,0.1059939414262771
1629807981470,0.3573819398880005,0.1992110908031463,0.6318785548210144,0.1251724660396576
1629807981548,0.3573819398880005,0.1929989010095596,0.6277354955673218,0.1251724660396576
1629807981642,0.3346084952354431,0.1891538053750991,0.6244343519210815,0.1251724660396576
1629807981720,0.3159939050674438,0.1897380053997039,0.6230088472366333,0.1342500001192093
1629807981829,0.2990325391292572,0.1932886838912964,0.6224310994148254,0.1491312384605407
1629807982048,0.2833215594291687,0.1978297531604766,0.6214580535888672,0.1703107357025146
1629807982110,0.2625605165958404,0.2014288157224655,0.6199551820755005,0.1967253983020782
1629807982142,0.2361312508583068,0.2012535184621811,0.6180992126464844,0.2297109067440033
1629807982225,0.2093199491500854,0.1943006664514541,0.6136009693145752,0.2663780450820923
1629807982376,0.1876269429922104,0.1796642392873764,0.5993106961250305,0.3053623139858246
1629807982467,0.1786007285118103,0.1587632447481155,0.567162811756134,0.3432628810405731
1629807982592,0.1794721186161041,0.1343517303466797,0.5147677659988403,0.372105211019516
1629807982654,0.1794721186161041,0.1099720522761344,0.4519386291503906,0.372105211019516
1629807982764,0.1794721186161041,0.0879606753587722,0.3985768556594848,0.372105211019516
1629807982873,0.1794721186161041,0.0677159428596496,0.3728562891483307,0.372105211019516
1629807982983,0.1794721186161041,0.0467181615531444,0.3738199472427368,0.372105211019516
1629807983059,0.1794721186161041,0.0242428854107856,0.3869982361793518,0.372105211019516
1629807983200,0.1794721186161041,0.0032953741028904,0.3988619148731231,0.372105211019516
1629807983294,0.1794721186161041,-0.0123305032029747,0.4028860330581665,0.372105211019516
1629807983403,0.1794721186161041,-0.020861392840743,0.3997494280338287,0.372105211019516
1629807983502,0.1794721186161041,-0.0245594810694456,0.3942418396472931,0.372105211019516
1629807983580,0.1794721186161041,-0.0272665005177259,0.3884214758872986,0.372105211019516
1629807983643,0.1794721186161041,-0.032759953290224,0.380959153175354,0.372105211019516
1629807983767,0.1794721186161041,-0.0403030179440975,0.3699325323104858,0.372105211019516
1629807983892,0.1794721186161041,-0.0440558418631553,0.3564547002315521,0.372105211019516
1629807983970,0.1794721186161041,-0.035702958703041,0.3449575304985046,0.372105211019516
1629807984064,0.1794721186161041,-0.0122028151527047,0.3353381752967834,0.372105211019516
1629807984178,0.1794721186161041,0.0224197283387184,0.3294207751750946,0.372105211019516
1629807984272,0.1794721186161041,0.0639130547642707,0.3253790140151977,0.0482157096266746
1629807984398,0.1794721186161041,0.1067090407013893,0.3184089660644531,0.0543389879167079
1629807984520,0.1794721186161041,0.1439424008131027,0.3056457638740539,0.0370054356753826
1629807984599,0.1794721186161041,0.1704942286014557,0.286915510892868,0.0107322270050644
1629807984745,0.1794721186161041,0.1899378895759582,0.2661579847335815,-0.0151305366307497
1629807984787,0.1794721186161041,0.2134866714477539,0.2511408925056457,-0.0364417508244514
1629807984881,0.1794721186161041,0.2472680211067199,0.2825168967247009,-0.0529331676661968
1629807985068,0.1794721186161041,0.2842422723770141,0.3309411108493805,-0.0669327527284622
1629807985158,0.2160760015249252,0.3148088455200195,0.3887889981269836,-0.0769652128219604
1629807985220,0.2484188079833984,0.3355641961097717,0.4504890441894531,-0.0823113992810249
1629807985274,0.2732773721218109,0.3489971756935119,0.5109390616416931,-0.0796959027647972
1629807985384,0.2898552417755127,0.3577516973018646,0.562521755695343,-0.0668196156620979
1629807985478,0.2999492287635803,0.3623424470424652,0.5967959761619568,-0.0403040722012519
1629807985645,0.3049634993076324,0.364179790019989,0.588796854019165,-0.0148566691204905
1629807985676,0.3096293807029724,0.3670723736286163,0.571537971496582,0.0003994120925199
1629807985786,0.3105760216712951,0.3717853426933288,0.5554998517036438,0.0049887718632817
1629807985911,0.3316412270069122,0.3754937946796417,0.5472861528396606,0.0038435270544141
1629807985973,0.3490163385868072,0.3756218254566192,0.5491951704025269,0.0091391438618302
1629807986093,0.3579456508159637,0.3725154399871826,0.561420738697052,0.0251689571887254
1629807986203,0.3641485869884491,0.3660390079021454,0.5822479724884033,0.0487834699451923
1629807986342,0.3642126321792602,0.3527674376964569,0.606886625289917,0.0740711241960525
1629807986417,0.3568687736988067,0.330287754535675,0.6382529139518738,0.0990940332412719
1629807986513,0.3451341092586517,0.3024286329746246,0.6591179966926575,0.1291144788265228
1629807986616,0.3332210481166839,0.2767714858055115,0.6665740609169006,0.1658674329519271
1629807986711,0.3217211067676544,0.258305549621582,0.6624944806098938,0.2045013755559921
1629807986836,0.3087439835071563,0.2466730624437332,0.6529895663261414,0.233551800251007
1629807986961,0.2962610125541687,0.2398964315652847,0.6467918157577515,0.2456132024526596
1629807987039,0.2840181589126587,0.2353514581918716,0.6491152048110962,0.242401048541069
1629807987148,0.2728508710861206,0.2288764119148254,0.6583791375160217,0.2305154502391815
1629807987211,0.2613311409950256,0.214612990617752,0.6683433651924133,0.2198607772588729
1629807987289,0.2522824704647064,0.1905557364225387,0.6749435067176819,0.214788943529129
1629807987446,0.2455693930387497,0.1605279445648193,0.6776894927024841,0.2153350114822387
1629807987527,0.236982524394989,0.1332106441259384,0.6748414039611816,0.2167096734046936
1629807987638,0.2260138839483261,0.1165762171149253,0.662840723991394,0.2126111686229705
1629807987717,0.2129205465316772,0.1123498454689979,0.6394169330596924,0.202681615948677
1629807987810,0.2027051895856857,0.1155820339918136,0.6065477132797241,0.1891288757324218
1629807987935,0.1985001862049102,0.1185371875762939,0.5718476176261902,0.1744583249092102
1629807988045,0.1999996453523636,0.1188236996531486,0.5459983348846436,0.1546309739351272
1629807988154,0.2046466916799545,0.1192006766796112,0.5354986786842346,0.1247612163424491
