timestamp,TP9,AF7,AF8,TP10
1629807853242,1.0091733932495115,0.5268547534942627,0.6279129981994629,0.4217207431793213
1629807853414,1.0091733932495115,0.5268547534942627,0.6325923800468445,0.4217207431793213
1629807853492,1.0091733932495115,0.5268547534942627,0.6366954445838928,0.4217207431793213
1629807853557,1.0091733932495115,0.5268547534942627,0.6474408507347107,0.4217207431793213
1629807853666,1.0091733932495115,0.5268547534942627,0.6536592245101929,0.4217207431793213
1629807853791,1.0091733932495115,0.5200809240341187,0.6621164083480835,0.4217207431793213
1629807853854,1.0091733932495115,0.5524820685386658,0.6654532551765442,0.4217207431793213
1629807853994,1.0091733932495115,0.5470929741859436,0.667006254196167,0.4217207431793213
1629807854104,1.0091733932495115,0.5498085618019104,0.667006254196167,0.4217207431793213
1629807854197,1.0091733932495115,0.5498085618019104,0.6454882025718689,0.4217207431793213
1629807854275,1.0091733932495115,0.5103017687797546,0.6215320229530334,0.4217207431793213
1629807854354,1.0091733932495115,0.4690079987049103,0.6134330034255981,0.4217207431793213
1629807854463,1.0091733932495115,0.3620570003986358,0.6100619435310364,0.4217207431793213
1629807854604,1.0091733932495115,0.3897750973701477,0.6050876975059509,0.4217207431793213
1629807854697,1.0091733932495115,0.4207075536251068,0.6018086671829224,0.4217207431793213
1629807854775,1.0091733932495115,0.4537945985794067,0.6004868149757385,0.4217207431793213
1629807854885,1.0091733932495115,0.4909104108810425,0.5405312776565552,0.4217207431793213
1629807854978,1.0091733932495115,0.4909104108810425,0.4747053682804107,0.4217207431793213
1629807855088,1.0091733932495115,0.4909104108810425,0.4222168624401092,0.4217207431793213
1629807855228,1.0091733932495115,0.4909104108810425,0.3898698687553406,0.4217207431793213
1629807855338,1.0091733932495115,0.4909104108810425,0.3797300159931183,0.4217207431793213
1629807855400,1.0091733932495115,0.4707855582237243,0.3771625757217407,0.4217207431793213
1629807855478,1.0091733932495115,0.4174367487430572,0.3586838841438293,0.4217207431793213
1629807855637,1.0091733932495115,0.3957654535770416,0.3355368673801422,0.4217207431793213
1629807855668,1.0091733932495115,0.3903465867042541,0.3814561367034912,0.4217207431793213
1629807855824,1.0091733932495115,0.3939831852912903,0.4350673854351043,0.4217207431793213
1629807855918,1.0091733932495115,0.4218319952487945,0.4418686032295227,0.4217207431793213
1629807856043,1.0091733932495115,0.4961418211460113,0.4473151862621307,0.4217207431793213
1629807856106,1.0091733932495115,0.5488719344139099,0.4543452560901642,0.4217207431793213
1629807856184,1.0091733932495115,0.5495806932449341,0.4561788439750671,0.4217207431793213
1629807856293,1.0091733932495115,0.5470600724220276,0.4397582411766052,0.4217207431793213
1629807856436,1.0091733932495115,0.536888837814331,0.414107084274292,0.4217207431793213
1629807856546,1.0091733932495115,0.4934765994548797,0.4199583828449249,0.4217207431793213
1629807856655,1.0091733932495115,0.4838489294052124,0.4188740253448486,0.4217207431793213
1629807856717,1.0091733932495115,0.4838489294052124,0.4188740253448486,0.4217207431793213
1629807856796,1.0091733932495115,0.4838489294052124,0.4249275922775268,0.4217207431793213
1629807856905,1.0091733932495115,0.4838489294052124,0.4461809992790222,0.4217207431793213
1629807857077,1.0091733932495115,0.4802765250205993,0.4478925764560699,0.4217207431793213
1629807857186,1.0091733932495115,0.4564606547355652,0.4478925764560699,0.4217207431793213
1629807857233,1.0091733932495115,0.4350509643554687,0.4478925764560699,0.4217207431793213
1629807857311,1.0091733932495115,0.4311698675155639,0.4478925764560699,0.4217207431793213
1629807857423,1.0091733932495115,0.4288851022720337,0.4387347102165222,0.4217207431793213
1629807857533,1.0091733932495115,0.42375248670578,0.4255071878433227,0.4217207431793213
1629807857642,1.0091733932495115,0.387792557477951,0.4186829328536987,0.4217207431793213
1629807857736,1.0091733932495115,0.2452356964349746,0.3865766525268554,0.4217207431793213
1629807857876,1.0091733932495115,0.0931136533617973,0.3635291457176208,0.4217207431793213
1629807857954,1.0091733932495115,0.0773107185959816,0.3635291457176208,0.4217207431793213
1629807858017,1.0091733932495115,0.0944454744458198,0.3018727600574493,0.4217207431793213
1629807858158,1.0091733932495115,0.1137963756918907,0.2434886991977691,0.4217207431793213
1629807858267,1.0091733932495115,0.1297589838504791,0.2813330292701721,0.4217207431793213
1629807858376,1.0091733932495115,0.1202962026000022,0.3335603475570678,0.4217207431793213
1629807858441,1.0091733932495115,0.0957761779427528,0.375138908624649,0.4217207431793213
1629807858566,0.4007266461849212,0.0844216644763946,0.3546712100505829,0.4122166037559509
1629807858691,0.4720799028873443,0.0736299306154251,0.3360747098922729,0.4473794996738434
1629807858753,0.5630319714546204,0.0729833543300628,0.327299565076828,0.4847223460674286
1629807858847,0.6176934242248535,0.062816597521305,0.2999438047409057,0.5243299007415771
1629807858956,0.6777976751327515,0.0474546626210212,0.2891091704368591,0.5302676558494568
1629807859113,0.7091274857521057,0.0459661222994327,0.3144706487655639,0.533901572227478
1629807859144,0.7091274857521057,0.0512434914708137,0.3769579827785492,0.533901572227478
1629807859238,0.7091274857521057,0.0717450603842735,0.4056253135204315,0.533901572227478
1629807859331,0.7091274857521057,0.1229112222790718,0.4174835979938507,0.533901572227478
1629807859493,0.7091274857521057,0.2065579444169998,0.4189671277999878,0.533901572227478
1629807859602,0.7091274857521057,0.3096746206283569,0.4189671277999878,0.533901572227478
1629807859633,0.7091274857521057,0.3694930970668793,0.4189671277999878,0.533901572227478
1629807859743,0.7091274857521057,0.3708793520927429,0.4189671277999878,0.533901572227478
1629807859852,0.7091274857521057,0.3658901751041412,0.4189671277999878,0.533901572227478
1629807859961,0.7091274857521057,0.3658901751041412,0.3997652232646942,0.5185865759849548
1629807860086,0.7091274857521057,0.3658901751041412,0.3394955992698669,0.4976277649402618
1629807860227,0.7091274857521057,0.3658901751041412,0.3180999159812927,0.4426730573177337
1629807860258,0.7091274857521057,0.3658901751041412,0.3180999159812927,0.4426730573177337
1629807860368,0.7091274857521057,0.3684699833393097,0.3180999159812927,0.4426730573177337
1629807860465,0.7091274857521057,0.4046905934810638,0.3180999159812927,0.4426730573177337
1629807860606,0.7091274857521057,0.4307460784912109,0.3296235501766205,0.4426730573177337
1629807860681,0.7091274857521057,0.4584619700908661,0.3679139614105224,0.4426730573177337
1629807860807,0.7091274857521057,0.4983411431312561,0.3943290710449219,0.4426730573177337
1629807860891,0.7091274857521057,0.5347273945808411,0.4205012321472168,0.4426730573177337
1629807860970,0.7091274857521057,0.5624127388000488,0.4418127834796905,0.4426730573177337
1629807861096,0.7091274857521057,0.560456395149231,0.4418127834796905,0.4426730573177337
1629807861174,0.7091274857521057,0.5554073452949524,0.4418127834796905,0.4426730573177337
1629807861346,0.7091274857521057,0.5460410118103027,0.4418127834796905,0.4426730573177337
1629807861427,0.7091274857521057,0.5460410118103027,0.4418127834796905,0.4426730573177337
1629807861536,0.7091274857521057,0.5460410118103027,0.4418127834796905,0.4426730573177337
1629807861623,0.7091274857521057,0.5460410118103027,0.4418127834796905,0.4426730573177337
1629807861652,0.7091274857521057,0.5469260215759277,0.4427711069583893,0.4426730573177337
1629807861746,0.7091274857521057,0.5622256398200989,0.4427711069583893,0.164849117398262
1629807861902,0.7106170058250427,0.5759508609771729,0.4427711069583893,0.2319795042276382
1629807862044,0.76153963804245,0.5862981677055359,0.4427711069583893,0.349632054567337
1629807862215,0.8070902228355408,0.6002265810966492,0.434846431016922,0.4722266495227813
1629807862248,0.8229662775993347,0.5977653861045837,0.4162012636661529,0.5284794569015503
1629807862277,0.8229662775993347,0.5794761180877686,0.3792429268360138,0.5296413898468018
1629807862386,0.8229662775993347,0.557457447052002,0.3304258286952972,0.5296413898468018
1629807862569,0.8229662775993347,0.5324375629425049,0.2535641491413116,0.5296413898468018
1629807862605,0.8299717903137207,0.4979450702667236,0.1255547404289245,0.5296413898468018
1629807862731,0.86176997423172,0.4966550469398498,0.0588040687143802,0.5296413898468018
1629807862791,0.915277659893036,0.5048331618309021,0.085186168551445,0.5350531339645386
1629807862980,0.915277659893036,0.5100145936012268,0.1743805259466171,0.5350531339645386
1629807862984,0.915277659893036,0.5229319930076599,0.4212042987346649,0.5350531339645386
1629807863170,0.915277659893036,0.6683112978935242,0.7503677010536194,0.5350531339645386
1629807863216,0.9124994874000548,0.8411042094230652,0.976379096508026,0.5297148823738098
1629807863327,0.8943442106246948,0.9377038478851318,1.0731465816497805,0.5171441435813904
1629807863387,0.8890290260314941,0.9639992713928224,1.0867725610733032,0.5088555216789246
1629807863511,0.8873277306556702,0.9650017619132996,1.0867725610733032,0.5052629709243774
1629807863626,0.8684536218643188,0.9650017619132996,1.0867725610733032,0.5017068982124329
1629807863735,0.8668211698532104,0.9650017619132996,1.0867725610733032,0.483392596244812
1629807863829,0.8668211698532104,0.9650017619132996,1.0867725610733032,0.4037248790264129
1629807863938,0.8668211698532104,0.9650017619132996,1.0867725610733032,0.332600861787796
1629807864063,0.8668211698532104,0.9650017619132996,1.0867725610733032,0.332600861787796
1629807864127,0.8668211698532104,0.9650017619132996,1.0867725610733032,0.332600861787796
1629807864221,0.8668211698532104,0.9650017619132996,1.0867725610733032,0.332600861787796
1629807864330,0.8668211698532104,0.9650017619132996,1.0867725610733032,0.332600861787796
1629807864424,0.8668211698532104,0.9650017619132996,1.0867725610733032,0.332600861787796
1629807864555,0.8668211698532104,0.9650017619132996,1.0867725610733032,0.332600861787796
1629807864665,0.8668211698532104,0.9650017619132996,1.0867725610733032,0.332600861787796
1629807864759,0.8668211698532104,0.9650017619132996,1.084959626197815,0.332600861787796
1629807864807,1.160491943359375,0.9175414443016052,1.0253303050994873,0.332600861787796
1629807864955,1.1608338356018066,0.7497595548629761,0.8318288922309875,0.332600861787796
1629807865064,1.1608338356018066,0.5679786801338196,0.8318288922309875,0.332600861787796
1629807865171,1.1632534265518188,0.5151380896568298,0.8318288922309875,0.332600861787796
1629807865233,1.1632534265518188,0.5185079574584961,0.8318288922309875,0.332600861787796
1629807865327,1.1632534265518188,0.5185079574584961,0.8318288922309875,0.332600861787796
1629807865468,1.1632534265518188,0.5185079574584961,0.6365134716033936,0.332600861787796
1629807865546,1.1632534265518188,0.5185079574584961,0.6368873119354248,0.332600861787796
1629807865655,1.1632534265518188,0.5185079574584961,0.6368873119354248,0.332600861787796
1629807865749,1.1632534265518188,0.5370628237724304,0.6368873119354248,0.332600861787796
1629807865858,1.1632534265518188,0.5025842189788818,0.6447235941886902,0.332600861787796
1629807865984,1.1632534265518188,0.4683859050273895,0.6781580448150635,0.332600861787796
1629807866046,1.1471246480941772,0.4607113897800445,0.7474395036697388,0.332600861787796
1629807866203,1.129441738128662,0.4005154073238373,0.7974427938461304,0.332600861787796
1629807866312,1.118545651435852,0.4005154073238373,0.8007808923721313,0.332600861787796
1629807866359,1.118545651435852,0.4005154073238373,0.8007808923721313,0.332600861787796
1629807866475,1.118545651435852,0.4005154073238373,0.8007808923721313,0.332600861787796
1629807866568,1.118545651435852,0.374724805355072,0.8007808923721313,0.332600861787796
1629807866646,1.118545651435852,0.3694406151771545,0.8007808923721313,0.332600861787796
1629807866803,1.118545651435852,0.4460614025592804,0.8007808923721313,0.332600861787796
1629807866912,1.118545651435852,0.4933229684829712,0.8007808923721313,0.332600861787796
1629807866959,1.118545651435852,0.4985532462596893,0.7822531461715698,0.332600861787796
1629807867068,1.118545651435852,0.4985532462596893,0.7568592429161072,0.332600861787796
1629807867178,1.118545651435852,0.4985532462596893,0.7568592429161072,0.332600861787796
1629807867256,1.118545651435852,0.4854727685451507,0.7568592429161072,0.332600861787796
1629807867414,1.118545651435852,0.4527276754379272,0.7568592429161072,0.332600861787796
1629807867461,1.118545651435852,0.4162437915802002,0.7568592429161072,0.332600861787796
1629807867571,1.118545651435852,0.3782544136047363,0.7487490177154541,0.332600861787796
1629807867680,1.118545651435852,0.3688644766807556,0.6895655989646912,0.332600861787796
1629807867805,1.118545651435852,0.3786876797676086,0.612241804599762,0.332600861787796
1629807867867,1.118545651435852,0.3786876797676086,0.5505563616752625,0.332600861787796
1629807868008,1.118545651435852,0.3786876797676086,0.5237250924110413,0.332600861787796
1629807868102,1.118545651435852,0.3783713281154632,0.5258715152740479,0.332600861787796
1629807868227,1.118545651435852,0.3783713281154632,0.5275880694389343,0.332600861787796
1629807868336,1.118545651435852,0.3770507574081421,0.5300058722496033,0.332600861787796
1629807868352,1.118545651435852,0.4070697426795959,0.534196138381958,0.332600861787796
1629807868511,1.118545651435852,0.5201670527458191,0.5703037977218628,0.332600861787796
1629807868605,1.118545651435852,0.5678034424781799,0.6130661964416504,0.332600861787796
1629807868746,1.118545651435852,0.575645387172699,0.6328300833702087,0.332600861787796
1629807868808,1.118545651435852,0.575645387172699,0.6338397264480591,0.332600861787796
1629807868902,1.118545651435852,0.575645387172699,0.6338632106781006,0.332600861787796
1629807868996,1.118545651435852,0.575645387172699,0.6338632106781006,0.332600861787796
1629807869105,1.118545651435852,0.575645387172699,0.6369539499282837,0.332600861787796
1629807869214,1.118545651435852,0.575645387172699,0.6395499110221863,0.332600861787796
1629807869355,1.118545651435852,0.5711471438407898,0.6310176849365234,0.332600861787796
1629807869402,1.118545651435852,0.5586533546447754,0.6473668217658997,0.332600861787796
1629807869511,1.118545651435852,0.549547016620636,0.6881032586097717,0.332600861787796
1629807869652,1.118545651435852,0.549547016620636,0.7102088332176208,0.332600861787796
1629807869730,1.118545651435852,0.549547016620636,0.7123100161552429,0.332600861787796
1629807869839,1.118545651435852,0.549547016620636,0.7123100161552429,0.332600861787796
1629807869933,1.118545651435852,0.549547016620636,0.7123100161552429,0.332600861787796
1629807870054,1.118545651435852,0.5369421243667603,0.7087134718894958,0.332600861787796
1629807870116,1.118545651435852,0.4678273797035217,0.6922218203544617,0.332600861787796
1629807870257,1.118545651435852,0.3529109060764313,0.6514809727668762,0.332600861787796
1629807870302,1.118545651435852,0.265812337398529,0.6110626459121704,0.332600861787796
1629807870438,1.118545651435852,0.2608702480792999,0.6110626459121704,0.332600861787796
1629807870551,1.118545651435852,0.2593809366226196,0.6110626459121704,0.332600861787796
1629807870634,1.118545651435852,0.2593809366226196,0.6110626459121704,0.332600861787796
1629807870730,0.475305438041687,0.2594591677188873,0.6110626459121704,0.5923743844032288
1629807870821,0.5121091604232788,0.2734635472297668,0.6110626459121704,0.5974698066711426
1629807870931,0.5635855197906494,0.3003102242946625,0.6110626459121704,0.5994247198104858
1629807871087,0.6089470386505127,0.3077452182769775,0.5823684930801392,0.6128976345062256
1629807871149,0.6089470386505127,0.2885155379772186,0.4998984634876251,0.6128976345062256
1629807871231,0.6089470386505127,0.2530584633350372,0.3819451928138733,0.6128976345062256
1629807871307,0.6089470386505127,0.2433690577745437,0.3511592447757721,0.6128976345062256
1629807871431,0.6089470386505127,0.3222830593585968,0.5316250324249268,0.6128976345062256
1629807871527,0.6089470386505127,0.3905398845672607,0.6719974875450134,0.6128976345062256
1629807871667,0.6089470386505127,0.4290164113044739,0.7007644772529602,0.6128976345062256
1629807871759,0.6089470386505127,0.4378706812858581,0.7007644772529602,0.6128976345062256
1629807871856,0.6089470386505127,0.4462453722953796,0.7007644772529602,0.6128976345062256
1629807871968,0.5903950929641724,0.4454310536384582,0.7007644772529602,0.5920119881629944
1629807872033,0.5713431239128113,0.4430448114871979,0.7007644772529602,0.5763425230979919
1629807872140,0.5596060752868652,0.4430448114871979,0.7007644772529602,0.5402464270591736
1629807872250,0.5596060752868652,0.4430448114871979,0.7007644772529602,0.5402464270591736
1629807872361,0.5596060752868652,0.4432533085346222,0.7007644772529602,0.5402464270591736
1629807872439,0.5596060752868652,0.4484314918518066,0.6985013484954834,0.5402464270591736
1629807872532,0.5596060752868652,0.4344393312931061,0.6985013484954834,0.5402464270591736
1629807872673,0.5596060752868652,0.428496241569519,0.6985013484954834,0.5402464270591736
1629807872752,0.5596060752868652,0.4669420421123504,0.6985013484954834,0.5402464270591736
1629807872874,0.5596060752868652,0.5295456051826477,0.6985013484954834,0.5402464270591736
1629807872983,0.5596060752868652,0.595234215259552,0.6985013484954834,0.5402464270591736
1629807873047,0.5596060752868652,0.6148532629013062,0.6869739890098572,0.5402464270591736
1629807873139,0.5596060752868652,0.6158010959625244,0.5813003778457642,0.5402464270591736
1629807873286,0.5596060752868652,0.6006996035575867,0.4427308738231659,0.5402464270591736
1629807873349,0.5596060752868652,0.5597929954528809,0.4025841355323791,0.5402464270591736
1629807873492,0.5596060752868652,0.4908868074417114,0.4025841355323791,0.5402464270591736
1629807873611,0.5596060752868652,0.4184832870960235,0.4025841355323791,0.5402464270591736
1629807873689,0.5596060752868652,0.3732638955116272,0.4025841355323791,0.5402464270591736
1629807873767,0.5596060752868652,0.3762936294078827,0.4025841355323791,0.5402464270591736
1629807873830,0.5596060752868652,0.3803174495697021,0.4025841355323791,0.5402464270591736
1629807873979,0.5596060752868652,0.3861007988452911,0.4025841355323791,0.5402464270591736
1629807874104,0.5596060752868652,0.3888132870197296,0.4025841355323791,0.5402464270591736
1629807874213,0.6884108185768127,0.3920090496540069,0.4025841355323791,0.5402464270591736
1629807874307,0.6884108185768127,0.3987914323806762,0.4053698480129242,0.5402464270591736
1629807874401,0.6884108185768127,0.4173418581485748,0.4167958796024322,0.5402464270591736
1629807874508,0.6884108185768127,0.4426743388175964,0.4180895388126373,0.5402464270591736
1629807874555,0.6884108185768127,0.3836254179477691,0.4145612120628357,0.5402464270591736
1629807874692,0.6884108185768127,0.2591926753520965,0.3573570251464844,0.5402464270591736
1629807874800,0.6884108185768127,0.2409259378910064,0.3094809353351593,0.5402464270591736
1629807874882,0.6884108185768127,0.2443624436855316,0.2959463894367218,0.5402464270591736
1629807874970,0.6884108185768127,0.2443624436855316,0.3036812543869018,0.5402464270591736
1629807875106,0.6884108185768127,0.2443624436855316,0.3111705183982849,0.5402464270591736
1629807875184,0.6884108185768127,0.2443624436855316,0.3168097734451294,0.5402464270591736
1629807875323,0.6884108185768127,0.2443624436855316,0.3230831325054168,0.5402464270591736
1629807875391,0.6884108185768127,0.3005991280078888,0.3415122330188751,0.5402464270591736
1629807875500,0.6884108185768127,0.4331543445587158,0.3730598092079162,0.5402464270591736
1629807875578,0.6884108185768127,0.557457447052002,0.3959233462810516,0.5402464270591736
1629807875672,0.6884108185768127,0.591960072517395,0.3954475522041321,0.5402464270591736
1629807875766,0.6884108185768127,0.591960072517395,0.3954475522041321,0.5402464270591736
1629807875906,0.6884108185768127,0.591960072517395,0.3954475522041321,0.5402464270591736
1629807876016,0.6884108185768127,0.591960072517395,0.3858411312103271,0.5402464270591736
1629807876078,0.6884108185768127,0.5866236686706543,0.3756113946437835,0.5402464270591736
1629807876187,0.6884108185768127,0.5793144702911377,0.4033710956573486,0.5402464270591736
1629807876344,0.6884108185768127,0.577239453792572,0.3956879377365112,0.5402464270591736
1629807876436,0.6884108185768127,0.5737200379371643,0.391386330127716,0.5402464270591736
1629807876513,0.6884108185768127,0.5719674825668335,0.4079464673995971,0.5402464270591736
1629807876622,0.6884108185768127,0.5719674825668335,0.5153186321258545,0.5402464270591736
1629807876717,0.6884108185768127,0.5719674825668335,0.6796343326568604,0.5402464270591736
1629807876829,0.6884108185768127,0.5768563151359558,0.7267787456512451,0.5402464270591736
1629807876905,0.6884108185768127,0.5776115655899048,0.7267787456512451,0.5402464270591736
1629807877031,0.6884108185768127,0.5776115655899048,0.7267787456512451,0.5402464270591736
1629807877155,0.6884108185768127,0.5776115655899048,0.7267787456512451,0.5402464270591736
1629807877216,0.6884108185768127,0.5292802453041077,0.7267787456512451,0.5402464270591736
1629807877323,0.6884108185768127,0.4633806943893432,0.7295756340026855,0.5402464270591736
1629807877417,0.6884108185768127,0.4551018178462982,0.7295756340026855,0.5402464270591736
1629807877493,0.6884108185768127,0.4492529630661011,0.7295756340026855,0.5402464270591736
1629807877618,0.6884108185768127,0.4415898621082306,0.7295756340026855,0.5402464270591736
1629807877743,0.6884108185768127,0.4300856590270996,0.7295756340026855,0.5402464270591736
1629807877900,0.6884108185768127,0.4134457111358642,0.7302349805831909,0.5402464270591736
1629807877978,0.6884108185768127,0.4074227213859558,0.7388581037521362,0.5402464270591736
1629807878041,0.6884108185768127,0.4581388831138611,0.7419734597206116,0.5402464270591736
1629807878119,0.6884108185768127,0.4889831244945526,0.7420328855514526,0.5402464270591736
1629807878213,0.6884108185768127,0.495861291885376,0.7418963313102722,0.5402464270591736
1629807878398,0.6884108185768127,0.4829020798206329,0.6629728674888611,0.5402464270591736
1629807878479,0.6884108185768127,0.4415302574634552,0.5327949523925781,0.5402464270591736
1629807878574,0.6884108185768127,0.4415042698383331,0.5273204445838928,0.5402464270591736
1629807878634,0.6884108185768127,0.4415042698383331,0.5273204445838928,0.5402464270591736
1629807878773,0.6884108185768127,0.4415042698383331,0.5273204445838928,0.5402464270591736
1629807878826,0.6884108185768127,0.4415042698383331,0.5273204445838928,0.5402464270591736
1629807878967,0.6884108185768127,0.4903048872947693,0.5273204445838928,0.5402464270591736
1629807879076,0.6884108185768127,0.5241437554359436,0.5273204445838928,0.5402464270591736
1629807879138,0.6884108185768127,0.5403810143470764,0.5273204445838928,0.5402464270591736
1629807879248,0.6884108185768127,0.5403810143470764,0.5273204445838928,0.5402464270591736
1629807879373,0.6884108185768127,0.5403810143470764,0.5221726894378662,0.5402464270591736
1629807879498,0.6884108185768127,0.5403810143470764,0.4552414715290069,0.5402464270591736
1629807879591,0.6884108185768127,0.5401121377944946,0.3509013056755066,0.5402464270591736
1629807879654,0.6884108185768127,0.5352542996406555,0.2274325340986251,0.5402464270591736
1629807879795,0.6884108185768127,0.5096688866615295,0.1928762048482895,0.5402464270591736
1629807879888,0.6884108185768127,0.4637746214866638,0.1809941977262497,0.5402464270591736
1629807879998,0.6884108185768127,0.4281902313232422,0.191011905670166,0.5402464270591736
1629807880107,0.6884108185768127,0.4190078973770141,0.2216811776161193,0.5402464270591736
1629807880185,0.6884108185768127,0.4231423735618591,0.2742930054664612,0.5402464270591736
1629807880279,0.6884108185768127,0.4438183009624481,0.2973149120807647,0.5402464270591736
1629807880404,0.6884108185768127,0.4613344669342041,0.3289420902729034,0.5402464270591736
1629807880483,0.6884108185768127,0.4643166661262512,0.3510110974311828,0.5402464270591736
1629807880558,0.6884108185768127,0.4486374855041504,0.3800528645515442,0.5402464270591736
1629807880668,0.6884108185768127,0.4110088050365448,0.3958799839019775,0.5402464270591736
1629807880839,0.6884108185768127,0.318837821483612,0.4138563573360443,0.5402464270591736
1629807880895,0.6884108185768127,0.2589146792888641,0.4287296831607818,0.5402464270591736
1629807880988,0.6884108185768127,0.2409325540065765,0.4287296831607818,0.5402464270591736
1629807881108,0.6884108185768127,0.2540605068206787,0.4287296831607818,0.5402464270591736
1629807881186,0.6884108185768127,0.2644979655742645,0.4287296831607818,0.5402464270591736
1629807881264,0.6884108185768127,0.2760409116744995,0.4287296831607818,0.5402464270591736
1629807881389,0.7083744406700134,0.3032357692718506,0.4287296831607818,1.0742348432540894
1629807881530,0.7161137461662292,0.328869491815567,0.4287296831607818,1.0742348432540894
1629807881608,0.7161137461662292,0.3413152396678924,0.4287296831607818,1.0742348432540894
1629807881670,0.7161137461662292,0.3413152396678924,0.4305325746536255,1.0742348432540894
1629807881826,0.7161137461662292,0.3413152396678924,0.4500907063484192,1.0742348432540894
1629807881904,0.7161137461662292,0.3143311142921448,0.4882988631725311,1.0742348432540894
1629807882045,0.7161137461662292,0.2192811667919159,0.5934376120567322,1.0742348432540894
1629807882126,0.7161137461662292,0.1846314519643783,0.710837185382843,1.0742348432540894
1629807882235,0.7161137461662292,0.1626724898815155,0.773071825504303,1.0742348432540894
1629807882282,0.7161137461662292,0.152696818113327,0.803203284740448,1.0742348432540894
1629807882437,0.7161137461662292,0.152696818113327,0.8157497048377991,1.0742348432540894
1629807882515,0.7161137461662292,0.2688145041465759,0.815825343132019,1.0742348432540894
1629807882612,0.6433762311935425,0.2681123912334442,0.8203449845314026,0.9353414177894592
1629807882722,0.6433762311935425,0.2611404955387115,0.8539499044418335,0.9353414177894592
1629807882815,0.6433762311935425,0.2459985464811325,0.8980150818824768,0.9353414177894592
1629807882893,0.6433762311935425,0.2396685183048248,0.9002698659896851,0.9353414177894592
1629807882987,0.6433762311935425,0.2603683471679687,0.9002698659896851,0.9353414177894592
1629807883143,0.6433762311935425,0.2505017518997192,0.9002698659896851,0.9353414177894592
1629807883253,0.6433762311935425,0.2261125445365905,0.9002698659896851,0.9353414177894592
1629807883300,0.6433762311935425,0.1965786069631576,0.9002698659896851,0.9353414177894592
1629807883427,0.6433762311935425,0.1639354228973388,0.9002698659896851,0.9353414177894592
1629807883552,0.6433762311935425,0.1639354228973388,0.8992788791656494,0.9353414177894592
1629807883646,0.6433762311935425,0.1712934970855713,0.8925809264183044,0.9353414177894592
1629807883756,0.6433762311935425,0.1851200759410858,0.8805698156356812,0.9353414177894592
1629807883834,0.6433762311935425,0.190127819776535,0.8755393028259277,0.9353414177894592
1629807883959,0.6433762311935425,0.1901976764202118,0.8591906428337097,0.9353414177894592
1629807884052,0.6433762311935425,0.1507979780435562,0.814937174320221,0.9353414177894592
1629807884146,0.6433762311935425,0.3262023031711578,0.7789871096611023,0.9353414177894592
1629807884209,0.6433762311935425,0.4621151089668274,0.7538065910339355,0.9353414177894592
1629807884349,0.6433762311935425,0.5396465063095093,0.7414193749427795,0.9353414177894592
1629807884446,0.6433762311935425,0.5953148603439331,0.6620679497718811,0.9353414177894592
1629807884524,0.6433762311935425,0.6508013606071472,0.5828238129615784,0.9353414177894592
1629807884676,0.6433762311935425,0.6755637526512146,0.5638933181762695,0.9353414177894592
1629807884755,0.6433762311935425,0.6827149391174316,0.5638933181762695,0.9353414177894592
1629807884862,0.6433762311935425,0.6846659779548645,0.5638933181762695,0.9353414177894592
1629807884956,0.6433762311935425,0.6857426762580872,0.5638933181762695,0.9353414177894592
1629807885082,0.6433762311935425,0.6857426762580872,0.5638933181762695,0.9353414177894592
1629807885158,0.6433762311935425,0.6857426762580872,0.5638933181762695,0.9353414177894592
1629807885267,0.6433762311935425,0.6850773692131042,0.5638933181762695,0.9353414177894592
1629807885347,0.6433762311935425,0.6850773692131042,0.5638933181762695,0.9353414177894592
1629807885438,0.6550131440162659,0.6850001215934753,0.5638933181762695,0.6772375106811523
1629807885549,0.7590650320053101,0.6850001215934753,0.5638933181762695,0.7149743437767029
1629807885661,0.8388447761535645,0.6850001215934753,0.5638933181762695,0.7691255211830139
1629807885786,0.8840276598930359,0.6880580186843872,0.5358427166938782,0.8330138921737671
1629807885860,0.8908781409263611,0.6976339221000671,0.4419657289981842,0.8658391833305359
1629807885938,0.891819417476654,0.6954649090766907,0.302893579006195,0.8658391833305359
1629807886089,0.891819417476654,0.679324209690094,0.1858622133731842,0.8658391833305359
1629807886151,0.891819417476654,0.6151943206787109,0.1156165450811386,0.8658391833305359
1629807886310,0.891819417476654,0.5232258439064026,0.0441427044570446,0.8658391833305359
1629807886378,0.891819417476654,0.4201685786247253,0.0162182301282882,0.8658391833305359
1629807886459,0.891819417476654,0.3753141462802887,0.0921840369701385,0.8658391833305359
1629807886595,0.891819417476654,0.3632347285747528,0.2175065129995346,0.8658391833305359
1629807886642,0.891819417476654,0.3544251918792724,0.3447659909725189,0.8605368137359619
1629807886782,0.891819417476654,0.3471889495849609,0.4317665100097656,0.8605368137359619
1629807886907,0.8901222944259644,0.3727660775184631,0.4973307251930237,0.8605368137359619
1629807887001,0.8636016845703125,0.3778410255908966,0.5531371235847473,0.8550246953964233
1629807887079,0.8355392813682556,0.3793127238750458,0.5794476270675659,0.8104666471481323
1629807887197,0.7982852458953857,0.3795095384120941,0.579478919506073,0.7515413165092468
1629807887275,0.7862669825553894,0.3829662203788757,0.5768779516220093,0.7327994704246521
1629807887384,0.7347702980041504,0.3829662203788757,0.5694943070411682,0.6947818994522095
1629807887513,0.7347702980041504,0.3821966648101806,0.5697426199913025,0.6947818994522095
1629807887669,0.7347702980041504,0.3377297222614288,0.5730065703392029,0.6947818994522095
1629807887700,0.7347702980041504,0.2750682830810547,0.5736718773841858,0.6947818994522095
1629807887810,0.7347702980041504,0.2717689871788025,0.5754565596580505,0.6947818994522095
1629807887888,0.7347702980041504,0.2717689871788025,0.577272355556488,0.6947818994522095
1629807887997,0.9831063747406006,0.2717689871788025,0.5787642598152161,0.7364697456359863
1629807888139,0.9878199100494384,0.2717689871788025,0.5787642598152161,0.7399193048477173
1629807888186,0.9896303415298462,0.2717689871788025,0.5787642598152161,0.7457969784736633
1629807888311,0.9896303415298462,0.2646860182285309,0.567348301410675,0.7626312971115112
1629807888420,0.9913884401321412,0.2273606210947036,0.5161167979240417,0.7675166726112366
1629807888483,0.991795539855957,0.1230105757713317,0.4761670231819153,0.7695940136909485
1629807888576,0.991795539855957,0.0928533896803855,0.4647083282470703,0.7730598449707031
1629807888733,0.991795539855957,0.1013288348913192,0.4310368001461029,0.7825413346290588
1629807888842,0.991795539855957,0.1376397162675857,0.3846428096294403,0.8037502765655518
1629807888889,0.991795539855957,0.2023968547582626,0.329762727022171,0.8279256820678711
1629807889029,0.991795539855957,0.2649948596954345,0.2869641184806824,0.8374559283256531
1629807889108,0.991795539855957,0.311980664730072,0.2728252410888672,0.8434176445007324
1629807889186,0.9303603768348694,0.3295238316059112,0.2728252410888672,0.7919536232948303
1629807889371,0.8869138956069946,0.3190225064754486,0.2722395956516266,0.7617945671081543
1629807889449,0.8304077982902527,0.3233455419540405,0.2722395956516266,0.7440544962882996
1629807889543,0.756633460521698,0.3307518661022186,0.2677334249019623,0.7254444360733032
1629807889595,0.7436521053314209,0.3393338620662689,0.2578576803207397,0.723707914352417
1629807889704,0.7351094484329224,0.3457603454589844,0.2530447244644165,0.723707914352417
1629807889814,0.7351094484329224,0.373595118522644,0.2573857009410858,0.7092943787574768
1629807889970,0.733383059501648,0.4463172554969787,0.3512908220291137,0.6999908089637756
1629807890064,0.7316915988922119,0.5073230862617493,0.5135008096694946,0.6696972250938416
1629807890126,0.78960120677948,0.5449637770652771,0.5683251619338989,0.6273139119148254
1629807890251,0.8370048403739929,0.5466837882995605,0.570600152015686,0.6334569454193115
1629807890346,0.8714370131492615,0.5466837882995605,0.570600152015686,0.6570133566856384
1629807890442,0.8758787512779236,0.5453882813453674,0.5776488184928894,0.6484295725822449
1629807890563,0.8646600246429443,0.5441275238990784,0.5765132308006287,0.6718194484710693
1629807890672,0.7991055846214294,0.5426663756370544,0.5761595964431763,0.6814808249473572
1629807890735,0.7414096593856812,0.5433071851730347,0.5761595964431763,0.6398141384124756
1629807890814,0.7407227158546448,0.5574353337287903,0.5775245428085327,0.5952550768852234
1629807890986,0.7425832748413086,0.5834465026855469,0.5858956575393677,0.5717260241508484
1629807891002,0.7455329895019531,0.5932415127754211,0.5914433002471924,0.5809938311576843
1629807891142,0.7455329895019531,0.5934323668479919,0.5921391844749451,0.5964787006378174
1629807891236,0.7455329895019531,0.5934323668479919,0.6044415831565857,0.6065680384635925
1629807891361,0.7455329895019531,0.5934323668479919,0.6106504797935486,0.614730954170227
1629807891427,0.7455329895019531,0.5934323668479919,0.6132136583328247,0.6267819404602051
1629807891567,0.7455329895019531,0.5687004327774048,0.6206160187721252,0.6267819404602051
1629807891614,0.7430746555328369,0.5495957136154175,0.5936775207519531,0.6267819404602051
1629807891739,0.7207102179527283,0.6330919861793518,0.6242139935493469,0.6267819404602051
1629807891864,0.6813940405845642,0.7841842770576477,0.8522168397903442,0.6267819404602051
1629807891942,0.5924809575080872,0.8620027899742126,0.9977904558181764,0.6218788623809814
1629807892099,0.5168310403823853,0.8740852475166321,1.0344942808151243,0.5896721482276917
1629807892177,0.4579314887523651,0.8740852475166321,1.0344942808151243,0.5251597762107849
1629807892239,0.393190324306488,0.8740852475166321,1.0344942808151243,0.4194954633712768
1629807892395,0.3287229835987091,0.8740852475166321,1.0344942808151243,0.3455618023872375
1629807892476,0.2741857171058655,0.8740852475166321,1.0344656705856323,0.290466845035553
1629807892570,0.1980152875185012,0.8740852475166321,1.0331437587738037,0.2535417079925537
1629807892664,0.1980152875185012,0.8740852475166321,1.0327194929122925,0.2535417079925537
1629807892742,0.1980152875185012,0.8740852475166321,1.0327194929122925,0.2535417079925537
1629807892851,0.1980152875185012,0.8740852475166321,1.0327194929122925,0.2535417079925537
1629807893007,0.1980152875185012,0.8740852475166321,1.0327194929122925,0.2535417079925537
1629807893101,0.1980152875185012,0.8740852475166321,1.0327194929122925,0.2535417079925537
1629807893210,0.1980152875185012,0.8740852475166321,1.0327194929122925,0.2535417079925537
1629807893288,0.1980152875185012,0.8740852475166321,1.0335257053375244,0.2535417079925537
1629807893351,0.1980152875185012,0.868240237236023,1.0335257053375244,0.2535417079925537
1629807893429,0.1980152875185012,0.8022836446762085,1.0096627473831177,0.2535417079925537
1629807893587,0.1980152875185012,0.6299759149551392,0.9136188626289368,0.2535417079925537
1629807893728,0.1980152875185012,0.4806603193283081,0.762732207775116,0.2535417079925537
1629807893775,0.1980152875185012,0.4113902151584625,0.6086931824684143,0.2535417079925537
1629807893869,0.1980152875185012,0.399040549993515,0.510685920715332,0.2535417079925537
1629807893993,0.1980152875185012,0.380490094423294,0.4924095273017883,0.2535417079925537
1629807894087,0.1980152875185012,0.3780121207237243,0.4904206097126007,0.2535417079925537
1629807894275,0.1980152875185012,0.5076566338539124,0.4904206097126007,0.2535417079925537
1629807894306,0.1980152875185012,0.6276417374610901,0.4904206097126007,0.2535417079925537
1629807894415,0.1980152875185012,0.6680492758750916,0.4942464828491211,0.2535417079925537
1629807894493,0.1980152875185012,0.6630803346633911,0.4971094727516174,0.2535417079925537
1629807894605,0.1980152875185012,0.6624088287353516,0.4830323755741119,0.2535417079925537
1629807894715,0.1980152875185012,0.6607545614242554,0.4614723324775696,0.2535417079925537
1629807894840,0.1980152875185012,0.6536390781402588,0.3870265483856201,0.2535417079925537
1629807894918,0.1980152875185012,0.6400317549705505,0.3025999367237091,0.2535417079925537
1629807894996,0.1980152875185012,0.6618310809135437,0.2396067678928375,0.2535417079925537
1629807895074,0.1980152875185012,0.6781683564186096,0.1925093233585357,0.2535417079925537
1629807895215,0.1980152875185012,0.6890711784362793,0.1679524928331375,0.2535417079925537
1629807895293,0.1980152875185012,0.6947540640830994,0.1406925469636917,0.2535417079925537
1629807895418,0.1980152875185012,0.6960218548774719,0.1093316674232482,0.2535417079925537
1629807895496,0.1980152875185012,0.6960218548774719,0.1008155643939971,0.2535417079925537
1629807895636,0.1980152875185012,0.6960218548774719,0.1079271659255027,0.2535417079925537
1629807895699,0.8147075176239014,0.6960218548774719,0.118534043431282,0.3876420259475708
1629807895808,0.8288487195968628,0.6960218548774719,0.1334756761789322,0.4008567929267883
1629807895886,0.8406792283058167,0.6442698240280151,0.1682775020599365,0.4298807680606842
1629807896058,0.8479126691818237,0.5088637471199036,0.2338996231555938,0.471701979637146
1629807896167,0.8479126691818237,0.4009085595607757,0.3328469693660736,0.471701979637146
1629807896214,0.8479126691818237,0.387730211019516,0.3741979598999023,0.471701979637146
1629807896308,0.8479126691818237,0.4583169221878052,0.4189503192901611,0.471701979637146
1629807896433,0.8479126691818237,0.4531066119670868,0.473951518535614,0.471701979637146
1629807896495,0.8479126691818237,0.443244606256485,0.5048998594284058,0.471701979637146
1629807896671,0.8479126691818237,0.4314349591732025,0.511930525302887,0.471701979637146
1629807896718,0.8479126691818237,0.4055938422679901,0.511930525302887,0.471701979637146
1629807896827,0.8479126691818237,0.3733872473239898,0.511930525302887,0.471701979637146
1629807896936,0.7872545719146729,0.3371680378913879,0.511930525302887,0.4655795097351074
1629807897077,0.6585623025894165,0.3278319537639618,0.5138293504714966,0.4610024988651275
1629807897124,0.5502349138259888,0.3562789261341095,0.5229752659797668,0.429269790649414
1629807897264,0.5502349138259888,0.351747065782547,0.5356372594833374,0.429269790649414
1629807897342,0.5502349138259888,0.351747065782547,0.5356372594833374,0.429269790649414
1629807897421,0.5502349138259888,0.360049843788147,0.5356372594833374,0.429269790649414
1629807897561,0.5502349138259888,0.3779464960098266,0.5398406386375427,0.429269790649414
1629807897624,0.5502349138259888,0.3794536292552948,0.5398406386375427,0.429269790649414
1629807897752,0.5502349138259888,0.3794536292552948,0.5362480878829956,0.429269790649414
1629807897861,0.7435070872306824,0.2374942302703857,0.5126520395278931,0.6086662411689758
1629807897970,0.7515603303909302,0.2374942302703857,0.4830380976200104,0.6086662411689758
1629807898060,0.7596861124038696,0.2374942302703857,0.4805516898632049,0.6086662411689758
1629807898185,0.7596861124038696,0.2374942302703857,0.5156214237213135,0.6086662411689758
1629807898247,0.7596861124038696,0.2477155923843383,0.5626447796821594,0.6086662411689758
1629807898356,0.7596861124038696,0.2702938914299011,0.628536581993103,0.6086662411689758
1629807898516,0.7596861124038696,0.3202562034130096,0.6617410182952881,0.6086662411689758
1629807898563,0.7596861124038696,0.3671250641345978,0.6988056898117065,0.6086662411689758
1629807898625,0.7638754844665527,0.4116167724132538,0.7175145745277405,0.6086662411689758
1629807898735,0.7868566513061523,0.4305389821529388,0.7167319655418396,0.6094539165496826
1629807898828,0.8202646970748901,0.4333839118480682,0.7147331833839417,0.6189077496528625
1629807898938,0.8202646970748901,0.4333839118480682,0.7124602198600769,0.6189077496528625
1629807899078,0.7991979122161865,0.4315904676914215,0.7131237983703613,0.6071807146072388
1629807899188,0.7775734663009644,0.4105733633041382,0.7207813858985901,0.5556291341781616
1629807899281,0.7546823620796204,0.3981820940971374,0.732566237449646,0.5102307200431824
1629807899344,0.7143727540969849,0.3981820940971374,0.7439898252487183,0.4684197306632995
1629807899438,0.7009410858154297,0.3981820940971374,0.7424598932266235,0.4351692497730255
1629807899563,0.6842470765113831,0.3981820940971374,0.7403129935264587,0.4225024282932281
1629807899719,0.6728173494338989,0.3981820940971374,0.7403129935264587,0.4170081615447998
1629807899828,0.6679123640060425,0.398983746767044,0.7403129935264587,0.4085308611392975
1629807899906,0.6617832779884338,0.4155076146125793,0.7403129935264587,0.3824613392353058
1629807900000,0.6555963158607483,0.4271512329578399,0.7307336926460266,0.3325817286968231
1629807900078,0.6555963158607483,0.4202245771884918,0.6819059252738953,0.3325817286968231
1629807900156,0.6555963158607483,0.3825881779193878,0.5776497721672058,0.3325817286968231
1629807900344,0.6555963158607483,0.3331736028194427,0.4272401034832001,0.3325817286968231
1629807900390,0.6555963158607483,0.3523085415363312,0.3349479436874389,0.3325817286968231
1629807900500,0.6555963158607483,0.3812660276889801,0.3835305273532867,0.3325817286968231
1629807900581,0.6555963158607483,0.4010438024997711,0.439694732427597,0.3325817286968231
1629807900675,0.6555963158607483,0.43288454413414,0.5039728879928589,0.3325817286968231
1629807900800,0.6555963158607483,0.5911825299263,0.5997158288955688,0.3325817286968231
1629807900894,0.6555963158607483,0.7632983326911926,0.6824919581413269,0.3325817286968231
1629807900972,0.6555963158607483,0.7632983326911926,0.7230269312858582,0.3325817286968231
1629807901097,0.6555963158607483,0.7632983326911926,0.7320336103439331,0.3325817286968231
1629807901175,0.6555963158607483,0.7632983326911926,0.7320336103439331,0.3325817286968231
1629807901307,0.6555963158607483,0.7632983326911926,0.7320336103439331,0.3325817286968231
1629807901385,0.6555963158607483,0.7632983326911926,0.7320336103439331,0.3325817286968231
1629807901545,0.6555963158607483,0.7632983326911926,0.7320336103439331,0.3325817286968231
1629807901607,0.6555963158607483,0.7632983326911926,0.7320336103439331,0.3325817286968231
1629807901701,0.6555963158607483,0.7632983326911926,0.7320336103439331,0.3325817286968231
1629807901826,0.6555963158607483,0.7632983326911926,0.7320336103439331,0.3325817286968231
1629807901888,0.6555963158607483,0.758536696434021,0.7320336103439331,0.3325817286968231
1629807902014,0.6555963158607483,0.7384478449821472,0.7328749895095825,0.3325817286968231
1629807902127,0.6555963158607483,0.7176187038421631,0.7368901968002319,0.3325817286968231
1629807902221,0.6555963158607483,0.7194069027900696,0.745445728302002,0.3325817286968231
1629807902361,0.6555963158607483,0.7282291054725647,0.7376821637153625,0.3325817286968231
1629807902439,0.6555963158607483,0.6342597603797913,0.6916472911834717,0.3325817286968231
1629807902518,0.6555963158607483,0.634306788444519,0.6126314997673035,0.3325817286968231
1629807902614,0.6555963158607483,0.634306788444519,0.5312069654464722,0.3325817286968231
1629807902723,0.6555963158607483,0.6347262859344482,0.4809956550598144,0.3325817286968231
1629807902864,0.6555963158607483,0.6358792185783386,0.4557636082172394,0.3325817286968231
1629807902973,0.6555963158607483,0.636120080947876,0.4391984939575195,0.3325817286968231
1629807903067,0.6555963158607483,0.636192262172699,0.3824351727962494,0.3325817286968231
1629807903098,0.6555963158607483,0.6375271081924438,0.3231103718280792,0.3325817286968231
1629807903192,0.6555963158607483,0.6382312774658203,0.3075520098209381,0.3325817286968231
1629807903333,0.6555963158607483,0.6389317512512207,0.3095641732215881,0.3325817286968231
1629807903430,0.6724321842193604,0.6389726996421814,0.3095641732215881,0.6922389268875122
1629807903570,0.6906895041465759,0.6676438450813293,0.3076928853988647,0.697028398513794
1629807903617,0.7339864373207092,0.7282096743583679,0.3093014359474182,0.697028398513794
1629807903742,0.8108408451080322,0.7538903951644897,0.3128588795661926,0.7023929953575134
1629807903836,0.8633809089660645,0.714440107345581,0.2795400321483612,0.7065610289573669
1629807903977,0.8704912662506104,0.6259977221488953,0.2449005842208862,0.7068449854850769
1629807904039,0.8704912662506104,0.5398668050765991,0.2033625543117523,0.7068449854850769
1629807904180,0.8704912662506104,0.5174117088317871,0.1832634210586547,0.7159224152565002
1629807904227,0.8704912662506104,0.5174117088317871,0.1673407405614853,0.7411631345748901
1629807904305,0.8709588050842285,0.5174117088317871,0.1635200381278991,0.7876160740852356
1629807904433,0.9102307558059692,0.5174117088317871,0.1692810952663421,0.8340209126472473
1629807904542,1.025199294090271,0.5180976986885071,0.1920090168714523,0.869354248046875
1629807904636,1.1315728425979614,0.5490794777870178,0.3135630488395691,0.8826069831848145
1629807904807,1.1999350786209106,0.6220477223396301,0.3135630488395691,0.8799104690551758
1629807904886,1.207247257232666,0.6802107095718384,0.3135630488395691,0.8808608055114746
1629807904932,1.2145386934280396,0.6802107095718384,0.3135630488395691,0.8742629289627075
1629807905026,1.223591446876526,0.6802107095718384,0.3135630488395691,0.848281741142273
1629807905167,1.223591446876526,0.6802107095718384,0.3135630488395691,0.809829592704773
1629807905292,1.221072554588318,0.6708034873008728,0.3135630488395691,0.7898754477500916
1629807905354,1.221072554588318,0.6382612586021423,0.3030675649642944,0.7795544266700745
1629807905481,1.221072554588318,0.7249417304992676,0.2669549882411957,0.7795544266700745
1629807905559,1.221072554588318,0.7330597043037415,0.2473150491714477,0.7795544266700745
1629807905684,1.221072554588318,0.7410426139831543,0.2932512462139129,0.7795544266700745
1629807905809,1.221072554588318,0.7426968216896057,0.3262929320335388,0.7795544266700745
1629807905856,1.221072554588318,0.7426968216896057,0.3407029509544372,0.7795544266700745
1629807906028,1.221072554588318,0.7426968216896057,0.3410882651805877,0.7795544266700745
1629807906075,1.221072554588318,0.7426968216896057,0.3416484892368316,0.7716817855834961
1629807906138,1.221072554588318,0.7426968216896057,0.2030137181282043,0.7552362680435181
1629807906294,1.221072554588318,0.7293338775634766,0.2048798203468322,0.7552362680435181
1629807906388,1.221072554588318,0.5738793611526489,0.2097166031599044,0.7552362680435181
1629807906500,1.221072554588318,0.5738793611526489,0.2303001284599304,0.7552362680435181
1629807906609,1.221072554588318,0.5738793611526489,0.2568486630916595,0.7552362680435181
1629807906687,1.221072554588318,0.5790842771530151,0.2912834286689758,0.7552362680435181
1629807906843,1.221072554588318,0.5790842771530151,0.2921662926673889,0.7552362680435181
1629807906874,1.221072554588318,0.5790842771530151,0.2921662926673889,0.7552362680435181
1629807906984,1.221072554588318,0.5790842771530151,0.2874311506748199,0.7552362680435181
1629807907078,1.221072554588318,0.5644935369491577,0.2874311506748199,0.7552362680435181
1629807907187,1.221072554588318,0.5134334564208984,0.292946457862854,0.7552362680435181
1629807907328,1.221072554588318,0.4297690093517303,0.2955739498138428,0.7552362680435181
1629807907374,1.221072554588318,0.3659112453460693,0.2900623381137848,0.7552362680435181
1629807907468,1.221072554588318,0.3565825223922729,0.2817957103252411,0.7552362680435181
1629807907596,1.221072554588318,0.3533923923969269,0.2583644092082977,0.7552362680435181
1629807907721,1.221072554588318,0.3552348017692566,0.2251564115285873,0.7552362680435181
1629807907799,1.221072554588318,0.3540449738502502,0.2217781245708465,0.7943791151046753
1629807907924,0.9614874124526978,0.3379489183425903,0.2317067235708236,0.7943791151046753
1629807907986,0.9772905111312866,0.3009178936481476,0.2409777045249939,0.7943791151046753
1629807908064,0.9924958348274232,0.2250128537416458,0.2425621151924133,0.7943791151046753
1629807908236,0.9966070652008056,0.1331744045019149,0.2308606952428817,0.7985522747039795
1629807908314,0.9966070652008056,0.1387426108121872,0.1934705525636673,0.7985522747039795
1629807908424,0.9966070652008056,0.1639350056648254,0.1926087737083435,0.7985522747039795
1629807908502,0.9966070652008056,0.2266115695238113,0.3143963515758514,0.7985522747039795
1629807908599,0.9966070652008056,0.2892110347747803,0.5578581094741821,0.7985522747039795
1629807908693,0.9966070652008056,0.357307106256485,0.686855137348175,0.7985522747039795
1629807908833,0.9966070652008056,0.39107146859169,0.7247781157493591,0.7985522747039795
1629807908958,0.9966070652008056,0.403509646654129,0.7397081255912781,0.7985522747039795
1629807909036,0.9966070652008056,0.4012285768985748,0.7408429980278015,0.778298020362854
1629807909130,0.9361302256584167,0.394418865442276,0.7408429980278015,0.7319405674934387
1629807909208,0.7825457453727722,0.3916984796524048,0.7408429980278015,0.595342755317688
1629807909280,0.6057530045509338,0.3916984796524048,0.7408429980278015,0.4032618403434753
1629807909452,0.6057530045509338,0.3916984796524048,0.7408429980278015,0.4032618403434753
1629807909563,0.6057530045509338,0.3916984796524048,0.7408429980278015,0.4032618403434753
1629807909625,0.6057530045509338,0.3927518725395202,0.7408429980278015,0.4032618403434753
1629807909720,0.6057530045509338,0.3931987285614013,0.7408429980278015,0.4032618403434753
1629807909825,0.6057530045509338,0.4183225929737091,0.7408429980278015,0.4032618403434753
1629807909888,1.0340906381607056,0.4664125740528106,0.7408429980278015,0.827021062374115
1629807910076,1.0440994501113892,0.4848650097846985,0.7408429980278015,0.8359133005142212
1629807910189,1.0534555912017822,0.4935974776744842,0.7408429980278015,0.8400875926017761
1629807910234,1.0588161945343018,0.4885287880897522,0.7115315794944763,0.8437078595161438
1629807910373,1.0596647262573242,0.4629315137863159,0.5833634734153748,0.8441191911697388
1629807910465,1.0596647262573242,0.441912978887558,0.4732075333595276,0.8441191911697388
1629807910511,1.0596647262573242,0.4302098751068115,0.4096017181873321,0.8441191911697388
1629807910667,1.0596647262573242,0.4105238318443298,0.3680292069911957,0.8441191911697388
1629807910728,1.0596647262573242,0.3838255405426025,0.3474098443984985,0.8441191911697388
1629807910822,1.2767794132232666,0.3688552975654602,0.337486982345581,1.1293407678604126
1629807910949,1.27955162525177,0.3627643287181854,0.3346078991889953,1.1293407678604126
1629807911051,1.27955162525177,0.3579633235931396,0.3310959041118622,1.1293407678604126
1629807911128,1.27955162525177,0.3579633235931396,0.3267586827278137,1.1293407678604126
1629807911278,1.27955162525177,0.3579633235931396,0.3248264193534851,1.1290887594223022
1629807911323,1.26319420337677,0.3579633235931396,0.3226615190505981,1.1185234785079956
1629807911430,1.2114568948745728,0.3589476644992828,0.3226615190505981,1.1062724590301514
1629807911570,1.1612472534179688,0.3179858028888702,0.3155926465988159,1.096083402633667
1629807911648,1.134739637374878,0.2148371189832687,0.3061025142669678,1.093452215194702
1629807911758,1.134739637374878,0.0861111134290695,0.2492245882749557,1.092332363128662
1629807911873,1.134739637374878,-0.0075439759530127,0.1510161310434341,1.0836900472640991
1629807911967,1.134739637374878,-0.1050014495849609,0.1041144281625747,1.0836900472640991
1629807912059,1.134739637374878,-0.175150915980339,0.1730913519859314,1.0836900472640991
1629807912198,1.134739637374878,-0.0459018237888813,0.3720082938671112,1.0836900472640991
1629807912244,1.134739637374878,0.0857850015163421,0.5502527952194214,1.0836900472640991
1629807912338,1.100439190864563,0.1342618465423584,0.6331357955932617,1.0274872779846191
1629807912498,0.5366755723953247,0.1337810903787613,0.6472315788269043,0.8826446533203125
1629807912556,0.5366755723953247,0.1357157230377197,0.652744710445404,0.685792863368988
1629807912681,0.5366755723953247,0.1738923192024231,0.6570492386817932,0.685792863368988
1629807912773,0.5366755723953247,0.2336625158786773,0.6690621376037598,0.685792863368988
1629807912897,0.5366755723953247,0.2672067582607269,0.6848852038383484,0.685792863368988
1629807912928,0.5366755723953247,0.2664007842540741,0.6902369260787964,0.685792863368988
1629807913135,0.5366755723953247,0.281841516494751,0.6902369260787964,0.685792863368988
1629807913166,0.5366755723953247,0.2914853990077972,0.6902369260787964,0.685792863368988
1629807913311,0.5366755723953247,0.2929916083812713,0.6902369260787964,0.685792863368988
1629807913390,0.5366755723953247,0.2957768440246582,0.6902369260787964,0.685792863368988
1629807913484,0.9828342199325562,0.3020240068435669,0.6902369260787964,0.834730327129364
1629807913550,0.9828342199325562,0.3171324133872986,0.6902369260787964,0.834730327129364
1629807913688,0.9828342199325562,0.3489560484886169,0.6902369260787964,0.834730327129364
1629807913816,0.9828342199325562,0.3849412500858307,0.6900894045829773,0.834730327129364
1629807913907,0.9828342199325562,0.4149049818515777,0.6661943197250366,0.834730327129364
1629807913999,0.9828342199325562,0.4361651539802551,0.5960549712181091,0.834730327129364
1629807914078,0.9828342199325562,0.4422680139541626,0.4902847409248352,0.834730327129364
1629807914157,0.9828342199325562,0.4422680139541626,0.3996437191963196,0.834730327129364
1629807914298,0.9828342199325562,0.4422680139541626,0.3569898903369903,0.834730327129364
1629807914396,0.9828342199325562,0.4422680139541626,0.3230182826519012,0.834730327129364
1629807914507,0.9828342199325562,0.4422680139541626,0.2851100862026214,0.834730327129364
1629807914581,0.9828342199325562,0.4411666095256805,0.2174064964056015,0.834730327129364
1629807914690,0.9828342199325562,0.437506228685379,0.1505606323480606,0.834730327129364
1629807914845,0.9828342199325562,0.437506228685379,0.1049418002367019,0.834730327129364
1629807914955,0.9828342199325562,0.4346774220466614,0.0310548655688762,0.834730327129364
1629807915001,0.9828342199325562,0.4383150935173034,0.0211224537342786,0.834730327129364
1629807915092,0.9828342199325562,0.4458900392055511,0.0486751832067966,0.834730327129364
1629807915236,0.9828342199325562,0.4458900392055511,0.0736475959420204,0.834730327129364
1629807915312,0.9828342199325562,0.4458900392055511,0.1079071760177612,0.834730327129364
1629807915404,0.9828342199325562,0.4404399394989013,0.1271093487739563,0.834730327129364
1629807915517,0.9828342199325562,0.3892773687839508,0.1296968758106231,0.834730327129364
1629807915644,0.9828342199325562,0.3442243337631225,0.1390782445669174,0.834730327129364
1629807915702,0.9828342199325562,0.3096641600131988,0.1480069607496261,0.834730327129364
1629807915830,0.9828342199325562,0.2954692244529724,0.153271809220314,0.834730327129364
1629807915957,0.9828342199325562,0.2954692244529724,0.154846578836441,0.834730327129364
1629807916004,0.9828342199325562,0.2954692244529724,0.156474307179451,0.834730327129364
1629807916128,0.9828342199325562,0.2954692244529724,0.1625616401433944,0.834730327129364
1629807916222,0.9828342199325562,0.2955983281135559,0.1774711161851883,0.834730327129364
1629807916335,0.9828342199325562,0.2964380383491516,0.197015181183815,0.834730327129364
1629807916414,0.9828342199325562,0.2998752892017364,0.1953758001327514,0.834730327129364
1629807916521,0.9828342199325562,0.311790257692337,0.1993679851293563,0.834730327129364
1629807916604,0.9828342199325562,0.3315812349319458,0.2307141423225402,0.834730327129364
1629807916755,1.1851292848587036,0.3515756726264953,0.2521931827068329,0.9606874585151672
1629807916867,1.197163701057434,0.3562516272068023,0.2576074302196502,1.030072808265686
1629807916927,1.197163701057434,0.376184731721878,0.2557317614555359,1.0324952602386477
1629807916995,1.197163701057434,0.3817634284496307,0.2554974555969238,1.0324952602386477
1629807917104,1.197163701057434,0.3817634284496307,0.256801426410675,1.0324952602386477
1629807917229,1.1999883651733398,0.3499671816825866,0.256801426410675,1.0392595529556274
1629807917388,1.2071343660354614,0.3205585181713104,0.2657161653041839,1.0636142492294312
1629807917450,1.22010338306427,0.3051597476005554,0.3407398760318756,1.087738871574402
1629807917559,1.2367098331451416,0.3463689684867859,0.4430631399154663,1.087738871574402
1629807917638,1.2532473802566528,0.4465287327766418,0.5379825830459595,1.087738871574402
1629807917747,1.2688734531402588,0.5626506209373474,0.6355526447296143,1.087738871574402
1629807917809,1.2782212495803833,0.5808305740356445,0.674939751625061,1.087738871574402
1629807918024,1.2782212495803833,0.5808305740356445,0.6763125061988831,1.087738871574402
1629807918071,1.2782212495803833,0.5808305740356445,0.6763125061988831,1.087738871574402
1629807918144,1.267699122428894,0.5808305740356445,0.6763125061988831,1.080890417098999
1629807918284,1.2558125257492063,0.5808305740356445,0.6763125061988831,1.0634382963180542
1629807918362,1.2234500646591189,0.5808305740356445,0.6763125061988831,1.0372456312179563
1629807918461,1.2174209356307983,0.6012424230575562,0.6813463568687439,0.9625943899154664
1629807918586,1.2174209356307983,0.6212515234947205,0.6894274950027466,0.8882155418395996
1629807918664,1.2174209356307983,0.6212515234947205,0.6890321373939514,0.8229496479034424
1629807918758,1.2174209356307983,0.6212515234947205,0.6889310479164124,0.7683931589126587
1629807918898,1.2174209356307983,0.6212515234947205,0.6889310479164124,0.7444902062416077
1629807918976,1.214312195777893,0.6212515234947205,0.6889310479164124,0.6998708248138428
1629807919101,1.2094658613204956,0.6212515234947205,0.6886552572250366,0.5899059772491455
1629807919242,1.2003117799758911,0.6212515234947205,0.6778358817100525,0.4676294326782226
1629807919336,1.2003117799758911,0.6067834496498108,0.6422135829925537,0.4676294326782226
1629807919398,1.2003117799758911,0.556277871131897,0.5539917945861816,0.4676294326782226
1629807919480,1.2003117799758911,0.5670146346092224,0.4791537523269653,0.4676294326782226
1629807919558,1.2003117799758911,0.5782327055931091,0.4727782607078552,0.4676294326782226
1629807919668,1.2003117799758911,0.5789696574211121,0.4685441553592682,0.4676294326782226
1629807919808,1.2003117799758911,0.5789696574211121,0.4813418984413147,0.4676294326782226
1629807919918,1.2003117799758911,0.5789696574211121,0.4932321906089782,0.4676294326782226
1629807920027,1.2003117799758911,0.5789696574211121,0.4932321906089782,0.4676294326782226
1629807920058,1.2003117799758911,0.5401352047920227,0.4752784073352813,0.4676294326782226
1629807920168,1.2003117799758911,0.4923082888126373,0.4257579445838928,0.4676294326782226
1629807920261,1.2003117799758911,0.464106947183609,0.4031950831413269,0.4676294326782226
1629807920429,1.2003117799758911,0.464106947183609,0.3957854211330414,0.4676294326782226
1629807920525,1.2003117799758911,0.464106947183609,0.3957854211330414,0.4676294326782226
1629807920634,1.2003117799758911,0.464106947183609,0.3957854211330414,0.4676294326782226
1629807920727,1.2003117799758911,0.4606080651283264,0.3921466171741485,0.4676294326782226
1629807920759,1.2003117799758911,0.4364019632339477,0.3777597844600677,0.4676294326782226
1629807920853,0.9045175909996032,0.4123726487159729,0.3793703317642212,0.4767218232154846
1629807921009,0.9045175909996032,0.4037515223026275,0.3930284678936004,0.557200014591217
1629807921133,0.9045175909996032,0.4019975066184997,0.3965475559234619,0.5972490906715393
1629807921243,0.9045175909996032,0.3806354701519012,0.3909817636013031,0.5972490906715393
1629807921274,0.9045175909996032,0.3285620212554931,0.3672426044940948,0.5972490906715393
1629807921383,0.9045175909996032,0.3561901450157165,0.4802487790584564,0.5972490906715393
1629807921477,0.9045175909996032,0.4226776659488678,0.7039419412612915,0.5972490906715393
1629807921636,0.9045175909996032,0.5107430815696716,0.8693646788597107,0.5972490906715393
1629807921730,0.9045175909996032,0.5809743404388428,0.9156506657600404,0.5972490906715393
1629807921808,0.9045175909996032,0.618161141872406,0.9224711656570436,0.5972490906715393
1629807921914,0.9045175909996032,0.618161141872406,0.9224711656570436,0.5972490906715393
1629807921992,0.9045175909996032,0.618161141872406,0.9224711656570436,0.5972490906715393
1629807922145,0.7075331211090088,0.6370567679405212,0.9224711656570436,0.5849732160568237
1629807922270,0.4782081842422485,0.647884726524353,0.9224711656570436,0.5790900588035583
1629807922317,0.4782081842422485,0.6485635042190552,0.9224711656570436,0.5790900588035583
1629807922442,0.4782081842422485,0.6516862511634827,0.9224711656570436,0.5790900588035583
1629807922535,0.4782081842422485,0.6574428081512451,0.9224711656570436,0.5790900588035583
1629807922631,0.4782081842422485,0.6615510582923889,0.9224711656570436,0.5790900588035583
1629807922772,0.4782081842422485,0.6753095388412476,0.9224711656570436,0.5790900588035583
1629807922834,0.4782081842422485,0.6882562637329102,0.9224711656570436,0.5790900588035583
1629807923006,0.4782081842422485,0.6980173587799072,0.9224711656570436,0.5790900588035583
1629807923037,0.4782081842422485,0.6980173587799072,0.9224711656570436,0.5790900588035583
1629807923100,0.4782081842422485,0.6980173587799072,0.9224711656570436,0.5790900588035583
1629807923240,0.4782081842422485,0.6980173587799072,0.9224711656570436,0.5790900588035583
1629807923352,0.4782081842422485,0.6886758208274841,0.9224711656570436,0.5790900588035583
1629807923446,0.4782081842422485,0.6487752199172974,0.9224711656570436,0.5790900588035583
1629807923524,0.4782081842422485,0.6292840838432312,0.9224711656570436,0.5790900588035583
1629807923649,0.4782081842422485,0.6280537843704224,0.9224711656570436,0.5790900588035583
1629807923758,0.4782081842422485,0.5921769738197327,0.9224711656570436,0.5790900588035583
1629807923836,0.4782081842422485,0.5656323432922363,0.9224711656570436,0.5790900588035583
1629807923915,0.4782081842422485,0.5531488060951233,0.9224711656570436,0.5790900588035583
1629807924071,0.4782081842422485,0.5403033494949341,0.9224711656570436,0.5790900588035583
1629807924149,0.7878779768943787,0.544033408164978,0.9224711656570436,0.5790900588035583
1629807924243,0.8156151175498962,0.5449724197387695,0.095412790775299,0.5790900588035583
1629807924385,0.8156151175498962,0.5397328734397888,0.0994075462222099,0.5790900588035583
1629807924448,0.8279799222946167,0.5072693228721619,0.0994075462222099,0.5790900588035583
1629807924541,0.8458053469657898,0.4595999121665954,0.0994075462222099,0.5790900588035583
1629807924698,0.8466457724571228,0.3706933557987213,0.0994075462222099,0.5790900588035583
1629807924792,0.8466457724571228,0.3706933557987213,0.1026548147201538,0.5790900588035583
1629807924901,0.8583307266235352,0.3719585537910461,0.1042280793190002,0.5790900588035583
1629807925010,0.8732773661613464,0.3719585537910461,0.107996366918087,0.7044341564178467
1629807925057,0.8732773661613464,0.3627931475639343,0.1107131913304328,0.7044341564178467
1629807925177,0.8732773661613464,0.3572994470596313,0.1107131913304328,0.7044341564178467
1629807925287,0.8732773661613464,0.3563366532325744,0.112271249294281,0.7044341564178467
1629807925380,0.8610800504684448,0.3515039980411529,0.112271249294281,0.3894802331924438
1629807925473,0.8536179065704346,0.3240141570568084,0.1128794401884079,0.3894802331924438
1629807925555,0.8508161902427673,0.3037692308425903,0.1046783402562141,0.3894802331924438
1629807925678,0.8508161902427673,0.4004105031490326,0.1166649684309959,0.3894802331924438
1629807925772,0.8235758543014526,0.4482123255729675,0.0935365185141563,0.3894802331924438
1629807925884,0.7544552683830261,0.4305991232395172,0.0537384487688541,0.3894802331924438
1629807925991,0.7076424956321716,0.3962686061859131,0.0476833879947662,0.3894802331924438
1629807926085,0.674371600151062,0.3868544399738312,0.0384869538247585,0.3894802331924438
1629807926179,0.589120626449585,0.3868544399738312,0.0384735316038131,0.3894802331924438
1629807926271,0.485007643699646,0.3870943784713745,0.0502564348280429,0.2503103017807007
1629807926395,0.4530321359634399,0.3870943784713745,0.0622698776423931,0.052851527929306
1629807926521,0.4530321359634399,0.3870943784713745,0.0622698776423931,0.052851527929306
1629807926595,0.4530321359634399,0.3870943784713745,0.0622698776423931,0.052851527929306
1629807926705,0.4530321359634399,0.3866152167320251,0.0622698776423931,0.052851527929306
1629807926798,0.4530321359634399,0.3824428021907806,0.0622698776423931,0.052851527929306
1629807926892,0.4530321359634399,0.3824428021907806,0.0913358330726623,0.052851527929306
1629807926962,0.4530321359634399,0.3824428021907806,0.2017060816287994,0.052851527929306
1629807927118,0.4530321359634399,0.3824428021907806,0.2673234343528747,0.052851527929306
1629807927212,0.4530321359634399,0.3793907761573791,0.2874592244625091,0.052851527929306
1629807927275,0.4530321359634399,0.3326132893562317,0.2883564233779907,0.052851527929306
1629807927414,0.4530321359634399,0.3461180627346039,0.2883564233779907,0.052851527929306
1629807927527,0.4530321359634399,0.2906420826911926,0.2911857068538666,0.052851527929306
1629807927635,0.4530321359634399,0.2526013255119324,0.2985385656356811,0.052851527929306
1629807927714,0.4530321359634399,0.2512819170951843,0.3058184683322906,0.052851527929306
1629807927824,0.4530321359634399,0.2512819170951843,0.3183160424232483,0.052851527929306
1629807927943,0.4530321359634399,0.2544487714767456,0.3321055173873901,0.052851527929306
1629807928037,0.4530321359634399,0.2582555711269378,0.335563451051712,0.052851527929306
1629807928115,0.4530321359634399,0.2582555711269378,0.3366452753543854,0.052851527929306
1629807928193,0.4530321359634399,0.2582555711269378,0.3366452753543854,0.052851527929306
1629807928349,0.4530321359634399,0.2582555711269378,0.3366452753543854,0.052851527929306
1629807928459,0.4530321359634399,0.2582555711269378,0.340052992105484,0.052851527929306
1629807928559,0.4530321359634399,0.2809327244758606,0.4054763317108154,0.052851527929306
1629807928652,0.4530321359634399,0.3347148299217224,0.4463508427143097,0.052851527929306
1629807928699,0.4530321359634399,0.362405389547348,0.44054114818573,0.052851527929306
1629807928793,0.4530321359634399,0.365016371011734,0.4358605146408081,0.052851527929306
1629807928965,0.4530321359634399,0.3128626048564911,0.4358605146408081,0.052851527929306
1629807929062,0.4530321359634399,0.3196185529232025,0.4333944618701935,0.052851527929306
1629807929140,0.4530321359634399,0.3546930849552154,0.4566047191619873,0.052851527929306
1629807929249,0.4530321359634399,0.3937476873397827,0.5512402057647705,0.052851527929306
1629807929328,0.4530321359634399,0.4161101281642914,0.615856409072876,0.052851527929306
1629807929489,0.4530321359634399,0.4161101281642914,0.6207726001739502,0.052851527929306
1629807929547,0.4530321359634399,0.4149113893508911,0.6207726001739502,0.052851527929306
1629807929641,0.4530321359634399,0.4093706607818603,0.6207726001739502,0.052851527929306
1629807929766,0.4530321359634399,0.4093706607818603,0.6207726001739502,0.052851527929306
1629807929844,0.4530321359634399,0.4093706607818603,0.6207726001739502,0.052851527929306
1629807929938,0.4530321359634399,0.4093706607818603,0.6207726001739502,0.052851527929306
1629807930047,0.4530321359634399,0.4093706607818603,0.6207726001739502,0.052851527929306
1629807930172,0.4530321359634399,0.4084325134754181,0.6143935918807983,0.052851527929306
1629807930281,0.4530321359634399,0.3813329637050628,0.5808477997779846,0.052851527929306
1629807930344,0.4530321359634399,0.3715536296367645,0.5558812022209167,0.052851527929306
1629807930438,0.4530321359634399,0.3687149584293365,0.5321233868598938,0.052851527929306
1629807930547,0.4530321359634399,0.3676847517490387,0.5073866248130798,0.052851527929306
1629807930659,0.4530321359634399,0.363881379365921,0.4812144637107849,0.052851527929306
1629807930816,0.4530321359634399,0.3546022176742553,0.4620841443538666,0.052851527929306
1629807930878,0.4530321359634399,0.327676773071289,0.4030417799949646,0.052851527929306
1629807930956,0.4530321359634399,0.333245038986206,0.222612202167511,0.052851527929306
1629807931112,0.4530321359634399,0.3585575819015503,-0.0599116794764995,0.052851527929306
1629807931144,0.4530321359634399,0.3659597933292389,-0.344489187002182,0.052851527929306
1629807931222,0.4530321359634399,0.3800883591175079,-0.4153020083904266,0.052851527929306
1629807931394,0.4530321359634399,0.4181180298328399,-0.2985474765300751,0.052851527929306
1629807931440,0.4530321359634399,0.4910890758037567,-0.023577993735671,0.052851527929306
1629807931560,0.4530321359634399,0.5298559665679932,0.2471050471067428,0.052851527929306
1629807931702,0.4530321359634399,0.5324521064758301,0.3798851072788238,0.052851527929306
1629807931827,0.4530321359634399,0.5371674299240112,0.3927265405654907,0.052851527929306
1629807931874,0.4530321359634399,0.5424826741218567,0.3927265405654907,0.052851527929306
1629807931983,0.4530321359634399,0.5483471155166626,0.3927265405654907,0.052851527929306
1629807932061,0.4530321359634399,0.5558344721794128,0.3927265405654907,0.052851527929306
1629807932202,0.4530321359634399,0.5719199776649475,0.3927265405654907,0.052851527929306
1629807932296,0.4530321359634399,0.5874577760696411,0.3927265405654907,0.052851527929306
1629807932374,0.4530321359634399,0.5823091864585876,0.3927265405654907,0.052851527929306
1629807932470,0.4530321359634399,0.5628000497817993,0.3927265405654907,0.052851527929306
1629807932580,0.4530321359634399,0.547580897808075,0.3927265405654907,0.052851527929306
1629807932720,0.4530321359634399,0.5350695848464966,0.3927265405654907,0.052851527929306
1629807932798,0.4530321359634399,0.5350695848464966,0.3927265405654907,0.052851527929306
1629807932892,0.4530321359634399,0.5357046723365784,0.3927265405654907,0.052851527929306
1629807932986,0.4530321359634399,0.5491029620170593,0.3927265405654907,0.052851527929306
1629807933064,0.4530321359634399,0.5411344170570374,0.3927265405654907,0.052851527929306
1629807933189,0.4530321359634399,0.485287994146347,0.3635335564613342,0.052851527929306
1629807933345,0.4530321359634399,0.4277384281158447,0.2431202381849289,0.052851527929306
1629807933439,0.4530321359634399,0.4053265154361725,0.1712140589952469,0.052851527929306
1629807933522,0.4530321359634399,0.4012521803379059,0.1712140589952469,0.052851527929306
1629807933579,0.4530321359634399,0.4004648625850677,0.1712140589952469,0.052851527929306
1629807933705,0.4530321359634399,0.3991776704788208,0.1712140589952469,0.052851527929306
1629807933829,0.4530321359634399,0.3969622552394867,0.1705845445394516,0.052851527929306
1629807933907,0.4530321359634399,0.3713035881519317,0.1777580082416534,0.052851527929306
1629807934017,0.4530321359634399,0.3573494553565979,0.1919715106487274,0.052851527929306
1629807934079,0.4530321359634399,0.3591414093971252,0.1752242296934127,0.052851527929306
1629807934204,0.4530321359634399,0.3643224537372589,0.1049467548727989,0.052851527929306
1629807934329,0.4530321359634399,0.374526172876358,0.039759162813425,0.052851527929306
1629807934454,0.9467340111732484,0.3918463289737701,0.0723391100764274,0.5241872072219849
1629807934581,0.97175270318985,0.4188595116138458,0.1560169458389282,0.5980692505836487
1629807934612,0.9882095456123352,0.4567581117153168,0.3389175534248352,0.6399871110916138
1629807934706,1.0123882293701172,0.4768506288528442,0.4472556114196777,0.6478965282440186
1629807934784,1.0316510200500488,0.4686340093612671,0.4835496842861175,0.6489676237106323
1629807934940,1.0316510200500488,0.4583617746829986,0.4835496842861175,0.6489676237106323
1629807935065,1.0316510200500488,0.4531929492950439,0.4835496842861175,0.6582252383232117
1629807935143,1.0316510200500488,0.4537345767021179,0.4835496842861175,0.6959624886512756
1629807935190,1.0316510200500488,0.4601874649524688,0.4841783344745636,0.7765127420425415
1629807935362,1.0316510200500488,0.4548127949237823,0.5276011228561401,0.8299638628959656
1629807935409,1.0316510200500488,0.4555968344211578,0.589152455329895,0.8299638628959656
1629807935534,1.0316510200500488,0.5088135600090027,0.6399272084236145,0.8299638628959656
1629807935646,1.0316510200500488,0.6141207814216614,0.6681203246116638,0.8299638628959656
1629807935803,1.0211811065673828,0.7514026165008545,0.6789394021034241,0.8299638628959656
1629807935865,1.0066851377487185,0.8776212930679321,0.7074169516563416,0.815804123878479
1629807935974,0.9809069633483888,0.898915708065033,0.7336952090263367,0.7864153981208801
1629807936006,0.9809069633483888,0.8982794284820557,0.726571261882782,0.7827816009521484
1629807936131,0.9809069633483888,0.893750011920929,0.7226225733757019,0.7813850045204163
1629807936256,0.9809069633483888,0.8912323117256165,0.7200351357460022,0.7813850045204163
1629807936334,0.9809069633483888,0.8899553418159485,0.7194902300834656,0.7813850045204163
1629807936434,0.9809069633483888,0.889893114566803,0.7194902300834656,0.7790761590003967
1629807936543,0.9809069633483888,0.889893114566803,0.7208817005157471,0.7790761590003967
1629807936653,0.9809069633483888,0.8913325071334839,0.7248046398162842,0.7790761590003967
1629807936746,0.9809069633483888,0.8866565823554993,0.7248046398162842,0.7790761590003967
1629807936887,0.9809069633483888,0.8787268400192261,0.7248046398162842,0.7790761590003967
1629807936980,0.9809069633483888,0.8787268400192261,0.709973931312561,0.7790761590003967
1629807937059,0.7875148057937622,0.8787268400192261,0.6741542220115662,0.3132197260856628
1629807937199,0.7875148057937622,0.8794445991516113,0.6501903533935547,0.4176965951919555
1629807937246,0.7875148057937622,0.8804478049278259,0.6183903217315674,0.5320866107940674
1629807937324,0.7875148057937622,0.8861620426177979,0.5744748115539551,0.5682374238967896
1629807937466,0.7875148057937622,0.7959407567977905,0.5080183148384094,0.5691866874694824
1629807937607,0.7875148057937622,0.5984495282173157,0.4072042107582092,0.5722240805625916
1629807937670,0.7875148057937622,0.359053760766983,0.3670989274978637,0.5735583901405334
1629807937779,0.7973092794418335,0.2953748404979706,0.3666417896747589,0.5762559771537781
1629807937888,0.8132787942886353,0.2953748404979706,0.3666417896747589,0.5762559771537781
1629807937935,0.8214355111122131,0.2953748404979706,0.3666417896747589,0.5762559771537781
1629807938076,0.8214355111122131,0.2978084683418274,0.3666417896747589,0.5762559771537781
1629807938185,0.8394066095352173,0.3573321402072906,0.3145194053649902,0.5804100632667542
1629807938248,0.8552253842353821,0.3940660953521728,0.1364980936050415,0.6227016448974609
1629807938373,0.8778967261314392,0.3979677259922027,0.0437882803380489,0.6943727731704712
1629807938485,0.8546144366264343,0.4103325605392456,0.1079900041222572,0.6943727731704712
1629807938563,0.8460786938667297,0.4356872141361236,0.1631497740745544,0.6943727731704712
1629807938719,0.8362720012664795,0.4354083240032196,0.2508153319358825,0.6938038468360901
1629807938781,0.8362720012664795,0.4354083240032196,0.3725013732910156,0.687759518623352
1629807938926,0.8362720012664795,0.4354083240032196,0.5014875531196594,0.6631659865379333
1629807938974,0.8362720012664795,0.4263875186443329,0.5510450005531311,0.6046554446220398
1629807939065,0.8362720012664795,0.4189281761646271,0.562621533870697,0.5605882406234741
1629807939222,0.8362720012664795,0.4117130935192108,0.5672292113304138,0.5473253130912781
1629807939354,0.8362720012664795,0.4069325923919678,0.5710457563400269,0.5453656911849976
1629807939396,0.8362720012664795,0.4191299974918365,0.5732302665710449,0.544498860836029
1629807939538,0.8301703333854675,0.4252104759216308,0.5736278891563416,0.5368772745132446
1629807939648,0.8301703333854675,0.4252104759216308,0.5736278891563416,0.5368772745132446
1629807939731,0.8301703333854675,0.4252104759216308,0.5748946070671082,0.5368772745132446
1629807939759,0.8301703333854675,0.4245106875896454,0.5819544196128845,0.5368772745132446
1629807939925,0.8301703333854675,0.3894825577735901,0.5802008509635925,0.5368772745132446
1629807940003,0.8301703333854675,0.3195125758647918,0.5766775012016296,0.5368772745132446
1629807940081,0.7519525289535522,0.1005443260073661,0.5766775012016296,0.7754738926887512
1629807940191,0.7781651616096497,0.1452616602182388,0.5844908356666565,0.7762784361839294
1629807940269,0.7781651616096497,0.2050612121820449,0.609671950340271,0.7762784361839294
1629807940459,0.7781651616096497,0.2710449993610382,0.6589875221252441,0.7762784361839294
1629807940537,0.7781651616096497,0.4224605560302734,0.6943386197090149,0.7762784361839294
1629807940615,0.7781651616096497,0.4224605560302734,0.7328378558158875,0.7762784361839294
1629807940709,0.7781651616096497,0.7163757085800171,0.831794798374176,0.7762784361839294
1629807940796,0.7781651616096497,0.721434473991394,0.8640838861465454,0.7762784361839294
1629807940874,0.7781651616096497,0.7214210629463196,0.8640838861465454,0.7762784361839294
1629807940999,0.7781651616096497,0.7212347984313965,0.8640838861465454,0.7762784361839294
1629807941155,0.7781651616096497,0.7212347984313965,0.8640838861465454,0.7762784361839294
1629807941249,0.7781651616096497,0.7212347984313965,0.8640838861465454,0.7762784361839294
1629807941311,0.7672179937362671,0.7212347984313965,0.8640838861465454,0.7084259986877441
1629807941452,0.7672179937362671,0.7212347984313965,0.8628341555595398,0.7084259986877441
1629807941533,0.7672179937362671,0.7212347984313965,0.8583824634552002,0.7084259986877441
1629807941611,0.7672179937362671,0.7212347984313965,0.8543343544006348,0.7084259986877441
1629807941720,0.7672179937362671,0.7185618877410889,0.8523476123809814,0.7084259986877441
1629807941861,0.7672179937362671,0.7114747762680054,0.8552504777908325,0.7084259986877441
1629807941923,0.7672179937362671,0.7110650539398193,0.8554747104644775,0.7084259986877441
1629807942001,0.7672179937362671,0.7174049019813538,0.8551573753356934,0.7084259986877441
1629807942126,0.7672179937362671,0.7237368226051331,0.8341727256774902,0.7084259986877441
1629807942223,0.7672179937362671,0.7036240100860596,0.7728632092475891,0.7084259986877441
1629807942333,0.7672179937362671,0.4673857390880584,0.6606603264808655,0.7084259986877441
1629807942473,0.7672179937362671,0.4673857390880584,0.5316568613052368,0.7084259986877441
1629807942554,0.7672179937362671,0.4673857390880584,0.4105648100376129,0.7084259986877441
1629807942647,0.7672179937362671,0.4673857390880584,0.3262583613395691,0.7084259986877441
1629807942741,0.7672179937362671,0.4687137007713318,0.3162363767623901,0.7084259986877441
1629807942804,0.7672179937362671,0.4687137007713318,0.3162363767623901,0.7084259986877441
1629807942960,0.7672179937362671,0.4657860100269317,0.3162363767623901,0.7084259986877441
1629807943085,0.7672179937362671,0.4590550065040588,0.3174398839473724,0.7084259986877441
1629807943179,0.701278567314148,0.4539526402950287,0.3229366540908813,0.6871490478515625
1629807943225,0.701278567314148,0.4301359951496124,0.3186587393283844,0.6871490478515625
1629807943370,0.701278567314148,0.3968823254108429,0.3158833682537079,0.6871490478515625
1629807943464,0.701278567314148,0.3148541152477264,0.3073188364505768,0.6871490478515625
1629807943576,0.701278567314148,0.2624371945858001,0.295847088098526,0.6871490478515625
1629807943670,0.701278567314148,0.2482094019651413,0.3119921684265136,0.6871490478515625
1629807943778,0.701278567314148,0.3081522583961487,0.3248253762722015,0.6871490478515625
1629807943825,0.701278567314148,0.3343861401081085,0.3119314312934875,0.6871490478515625
1629807943982,0.701278567314148,0.3441749811172485,0.3061427772045135,0.6871490478515625
1629807944044,0.701278567314148,0.3375941812992096,0.2852570712566376,0.6871490478515625
1629807944185,0.701278567314148,0.3482237756252289,0.2726193368434906,0.6871490478515625
1629807944278,0.701278567314148,0.3341004848480224,0.2768745124340057,0.6871490478515625
1629807944388,0.6766894459724426,0.2969842255115509,0.3825168907642364,0.6871490478515625
1629807944466,0.6766894459724426,0.2667534351348877,0.3825168907642364,0.6871490478515625
1629807944559,0.6766894459724426,0.261744737625122,0.3825168907642364,0.6871490478515625
1629807944640,0.6766894459724426,0.2591554820537567,0.3825168907642364,0.6871490478515625
1629807944811,0.6766894459724426,0.2591554820537567,0.3825168907642364,0.6871490478515625
1629807944874,0.6766894459724426,0.2591554820537567,0.3825168907642364,0.6871490478515625
1629807944952,0.6766894459724426,0.2591554820537567,0.3825168907642364,0.6871490478515625
1629807945092,0.6766894459724426,0.2574811577796936,0.3825168907642364,0.6871490478515625
1629807945186,0.6766894459724426,0.2552713453769684,0.3825168907642364,0.6871490478515625
1629807945280,0.6766894459724426,0.240504652261734,0.3778050541877746,0.6871490478515625
1629807945454,0.6766894459724426,0.240504652261734,0.3433308005332947,0.2911655306816101
1629807945501,0.6766894459724426,0.240504652261734,0.3056373298168182,0.3065566718578338
1629807945594,0.6766894459724426,0.240504652261734,0.287886381149292,0.3168587684631347
1629807945657,0.6766894459724426,0.240504652261734,0.2720257043838501,0.3283699750900268
1629807945829,0.6766894459724426,0.240504652261734,0.2599834203720093,0.3951053917407989
1629807945891,0.7904893755912781,-0.1543325036764145,-0.072267010807991,0.4350805282592773
1629807946019,0.8040657043457031,-0.1336821317672729,-0.0629153028130531,0.4770598411560058
1629807946124,0.8164209723472595,-0.1202442571520805,0.0165407508611679,0.6049220561981201
1629807946217,0.8197728991508484,-0.1154183000326156,0.202025681734085,0.7949110269546509
1629807946293,0.8207980990409851,-0.0936975330114364,0.3435996770858764,0.9241544008255004
1629807946393,0.8236718773841858,-0.0720801353454589,0.3888780474662781,0.9563509225845336
1629807946491,0.8236718773841858,-0.0672678127884864,0.3945126533508301,0.9563509225845336
1629807946629,0.7495148181915283,-0.0672678127884864,0.4071912169456482,0.9553521275520324
1629807946738,0.6292458176612854,-0.0672678127884864,0.4203709661960602,0.953496515750885
1629807946832,0.6292458176612854,-0.0672678127884864,0.4312869012355804,0.9514712691307068
1629807946925,0.6292458176612854,-0.0513213351368904,0.4342713356018066,0.9475874304771424
1629807947035,0.6292458176612854,-0.0458885431289672,0.4397638142108917,0.9453258514404296
1629807947113,0.6292458176612854,-0.1285891383886337,0.4542078971862793,0.9424257278442384
1629807947222,0.6292458176612854,-0.1630371063947677,0.4759168326854706,0.9410475492477416
1629807947312,0.6237703561782837,-0.116816945374012,0.4870941936969757,0.9410475492477416
1629807947408,0.5892964601516724,-0.0152841843664646,0.5062034130096436,0.9376455545425416
1629807947505,0.501666247844696,0.0419755056500434,0.5213441848754883,0.9376455545425416
1629807947594,0.501666247844696,0.0528735779225826,0.5337179899215698,0.9376455545425416
1629807947753,0.501666247844696,0.0331785455346107,0.5353348255157471,0.9376455545425416
1629807947859,0.501666247844696,-0.0025603126268833,0.5353348255157471,0.9376455545425416
1629807947953,0.501666247844696,-0.0108232265338301,0.5291609168052673,0.9376455545425416
1629807948025,0.501666247844696,0.0837879031896591,0.525118350982666,0.9376455545425416
1629807948109,0.501666247844696,0.2515958249568939,0.5194337964057922,0.9376455545425416
1629807948265,0.501666247844696,0.3870686590671539,0.5206459164619446,0.9376455545425416
1629807948313,0.501666247844696,0.4821140468120575,0.5218973755836487,0.9376455545425416
1629807948440,0.501666247844696,0.5489711761474609,0.5176695585250854,0.9376455545425416
1629807948529,0.501666247844696,0.5646847486495972,0.507563591003418,0.9376455545425416
1629807948611,0.501666247844696,0.5691643357276917,0.4988157749176025,0.9376455545425416
1629807948744,0.501666247844696,0.5763599276542664,0.5004639625549316,0.9376455545425416
1629807948790,0.8978641629219055,0.5852615833282471,0.4931659996509552,0.9376455545425416
1629807948909,0.8978641629219055,0.5863927602767944,0.4883325695991516,0.9376455545425416
1629807949050,0.8978641629219055,0.5863927602767944,0.4835536479949951,0.9376455545425416
1629807949139,0.8978641629219055,0.5863927602767944,0.4618206024169922,0.9376455545425416
1629807949218,0.8978641629219055,0.5863927602767944,0.4166190326213836,0.9376455545425416
1629807949327,0.8978641629219055,0.5863927602767944,0.368010938167572,0.9376455545425416
1629807949471,0.8978641629219055,0.5863927602767944,0.2931003272533417,0.9376455545425416
1629807949502,0.8978641629219055,0.5863927602767944,0.2475313544273376,0.9376455545425416
1629807949659,0.8978641629219055,0.5863927602767944,0.2380362451076507,0.9376455545425416
1629807949748,0.8978641629219055,0.5863927602767944,0.2338517606258392,0.9376455545425416
1629807949832,0.8978641629219055,0.5840787291526794,0.2218040972948074,0.9376455545425416
1629807949957,0.8978641629219055,0.5502853393554688,0.2093729823827743,0.9376455545425416
1629807950052,0.8978641629219055,0.454687625169754,0.1823548227548599,0.9376455545425416
1629807950144,0.8978641629219055,0.454687625169754,0.3311079442501068,0.9376455545425416
1629807950284,0.8978641629219055,0.454687625169754,0.3107993900775909,0.9376455545425416
1629807950363,0.8978641629219055,0.454687625169754,0.2925883531570434,0.9376455545425416
1629807950471,0.8978641629219055,0.454687625169754,0.2488034963607788,0.9376455545425416
1629807950550,0.8978641629219055,0.0748624354600906,0.2800613939762115,0.9376455545425416
1629807950657,0.8978641629219055,0.2056962102651596,0.3192152380943298,0.9376455545425416
1629807950719,0.8978641629219055,0.2471927255392074,0.3583526611328125,0.9376455545425416
1629807950891,0.8978641629219055,0.2541152536869049,0.4083430171012878,0.9376455545425416
1629807951001,0.8978641629219055,0.2580145597457886,0.4345703721046448,0.9376455545425416
1629807951063,0.8978641629219055,0.2615600824356079,0.4593817591667175,0.9376455545425416
1629807951176,0.8978641629219055,0.2657650709152221,0.462685763835907,0.9376455545425416
1629807951282,0.8978641629219055,0.2717659771442413,0.4646472632884979,0.9376455545425416
1629807951358,0.8978641629219055,0.2762787044048309,0.4669986367225647,0.9376455545425416
1629807951505,0.8978641629219055,0.278610497713089,0.4669986367225647,0.9376455545425416
1629807951580,0.8978641629219055,0.278610497713089,0.4669986367225647,0.9376455545425416
1629807951705,0.8978641629219055,0.278610497713089,0.4669986367225647,0.9376455545425416
1629807951768,0.8978641629219055,0.278610497713089,0.4669986367225647,0.9376455545425416
1629807951876,0.8978641629219055,0.278610497713089,0.4669986367225647,0.9376455545425416
1629807951956,0.8978641629219055,0.2731876969337463,0.4697175025939941,0.9376455545425416
1629807952129,0.8978641629219055,0.257209300994873,0.5043294429779053,0.9376455545425416
1629807952224,0.8978641629219055,0.2474235743284225,0.5201190710067749,0.9376455545425416
1629807952287,0.8978641629219055,0.2197784632444381,0.5258350968360901,0.9376455545425416
1629807952380,0.8978641629219055,0.3436023294925689,0.529865026473999,0.9376455545425416
1629807952506,0.8978641629219055,0.4821600317955017,0.5318681597709656,0.9376455545425416
1629807952552,0.8978641629219055,0.5199798345565796,0.5161858797073364,0.9376455545425416
1629807952680,0.8978641629219055,0.5220797061920166,0.5043060779571533,0.9376455545425416
1629807952773,0.8978641629219055,0.5249930620193481,0.503825306892395,0.9376455545425416
1629807952903,0.8978641629219055,0.5422964096069336,0.5074711441993713,0.9376455545425416
1629807952978,0.8978641629219055,0.5622503757476807,0.5138125419616699,0.9376455545425416
1629807953104,0.8978641629219055,0.6097635626792908,0.5140115022659302,0.9376455545425416
1629807953183,0.8978641629219055,0.6683406233787537,0.5140115022659302,0.9376455545425416
1629807953354,0.8978641629219055,0.6797176599502563,0.5140115022659302,0.9376455545425416
1629807953416,0.8978641629219055,0.6797176599502563,0.5140115022659302,0.9376455545425416
1629807953514,0.8978641629219055,0.6797176599502563,0.5140115022659302,0.9376455545425416
1629807953620,0.8978641629219055,0.6797176599502563,0.5122705101966858,0.9376455545425416
1629807953686,0.8978641629219055,0.6797176599502563,0.4956560134887695,0.9376455545425416
1629807953775,0.8978641629219055,0.6797176599502563,0.4729851484298706,0.9376455545425416
1629807953948,0.8978641629219055,0.6797176599502563,0.429964005947113,0.9376455545425416
1629807953993,0.8978641629219055,0.6744699478149414,0.3877242803573608,0.9376455545425416
1629807954118,0.8978641629219055,0.6360394954681396,0.3515719473361969,0.9376455545425416
1629807954210,0.8978641629219055,0.6091134548187256,0.3469597399234772,0.9376455545425416
1629807954293,0.8978641629219055,0.6222556829452515,0.3704549372196197,0.9376455545425416
1629807954405,0.8978641629219055,0.6251930594444275,0.3978016376495361,0.9376455545425416
1629807954562,0.8978641629219055,0.6235381364822388,0.3995925188064575,0.9376455545425416
1629807954624,0.8978641629219055,0.6202985644340515,0.3748481273651123,0.9376455545425416
1629807954702,0.8978641629219055,0.6005615592002869,0.3611111640930176,0.9376455545425416
1629807954827,0.8978641629219055,0.545724093914032,0.3533944189548492,0.9376455545425416
1629807954928,0.8978641629219055,0.4926422834396362,0.3582631051540375,0.9376455545425416
1629807954995,0.8978641629219055,0.456767201423645,0.3597840070724487,0.9376455545425416
1629807955137,0.8978641629219055,0.4231114089488983,0.3466351330280304,0.9376455545425416
1629807955210,0.8978641629219055,0.4155246019363403,0.3403854072093963,0.9376455545425416
1629807955367,0.8978641629219055,0.4155246019363403,0.3444524705410003,0.9376455545425416
1629807955494,0.8978641629219055,0.4167144000530243,0.3425137400627136,0.9376455545425416
1629807955526,0.8978641629219055,0.4174938797950744,0.3425137400627136,0.9376455545425416
1629807955625,0.8978641629219055,0.4212441146373749,0.3425137400627136,0.9376455545425416
1629807955813,0.8978641629219055,0.4237152934074402,0.3425137400627136,0.9376455545425416
1629807955875,0.8978641629219055,0.4346267282962799,0.3425137400627136,0.9376455545425416
1629807955938,0.8978641629219055,0.4356839656829834,0.337259829044342,0.9376455545425416
1629807956063,0.8978641629219055,0.4747378528118133,0.2885721623897552,0.9376455545425416
1629807956156,0.8978641629219055,0.5036305785179138,0.2498331665992736,0.9376455545425416
1629807956266,0.8978641629219055,0.5202581882476807,0.2202467620372772,0.9376455545425416
1629807956344,0.8978641629219055,0.5494574308395386,0.2037544846534729,0.9376455545425416
1629807956445,0.8978641629219055,0.6312418580055237,0.175446406006813,0.9376455545425416
1629807956586,0.8978641629219055,0.6725887060165405,0.1870376914739608,0.9376455545425416
1629807956632,0.8978641629219055,0.6697771549224854,0.2214876413345337,0.9376455545425416
1629807956726,0.8978641629219055,0.6697771549224854,0.2400201112031936,0.9376455545425416
1629807956820,0.8978641629219055,0.6697771549224854,0.2743552029132843,0.9376455545425416
1629807956997,0.8978641629219055,0.6697771549224854,0.31085404753685,0.9376455545425416
1629807957045,0.8978641629219055,0.6697771549224854,0.3369461894035339,0.9376455545425416
1629807957173,0.8978641629219055,0.6697771549224854,0.341000884771347,0.9376455545425416
1629807957264,0.8978641629219055,0.6697771549224854,0.3461837768554687,0.9376455545425416
1629807957340,0.8978641629219055,0.6697771549224854,0.3785155117511749,0.9376455545425416
1629807957434,0.8978641629219055,0.6697771549224854,0.4700897634029388,0.9376455545425416
1629807957610,0.8978641629219055,0.6735610961914062,0.514205813407898,0.9376455545425416
1629807957703,0.8978641629219055,0.6600914001464844,0.529667317867279,0.9376455545425416
1629807957811,0.8978641629219055,0.6502809524536133,0.5359447598457336,0.9376455545425416
1629807957843,0.8978641629219055,0.6438400745391846,0.5359447598457336,0.9376455545425416
1629807957936,0.8978641629219055,0.6390693187713623,0.5359447598457336,0.9376455545425416
1629807958060,0.8978641629219055,0.5882142186164856,0.5359447598457336,0.9376455545425416
1629807958170,0.8978641629219055,0.4589920341968536,0.5359447598457336,0.9376455545425416
1629807958314,0.8978641629219055,0.3983553349971771,0.5359447598457336,0.9376455545425416
1629807958390,0.8978641629219055,0.384897232055664,0.5359447598457336,0.9376455545425416
1629807958519,0.8978641629219055,0.3829589486122131,0.5327515006065369,0.9376455545425416
1629807958549,0.8978641629219055,0.3829589486122131,0.5333593487739563,0.9376455545425416
1629807958642,0.8978641629219055,0.3766185641288757,0.5333593487739563,0.9376455545425416
1629807958798,0.8978641629219055,0.3759069144725799,0.5333593487739563,0.9376455545425416
1629807958892,0.8978641629219055,0.3751373589038849,0.5333593487739563,0.9376455545425416
1629807958970,0.8978641629219055,0.3678217828273773,0.5333593487739563,0.9376455545425416
1629807959093,0.8978641629219055,0.3252737522125244,0.5048262476921082,0.9376455545425416
1629807959156,0.8978641629219055,0.281145691871643,0.4323011040687561,0.9376455545425416
1629807959249,0.8978641629219055,0.3690691590309143,0.3003603219985962,0.9376455545425416
1629807959421,0.8978641629219055,0.4375537633895874,0.1473494917154312,0.9376455545425416
1629807959548,0.8978641629219055,0.4431557953357696,0.0663413107395172,0.9376455545425416
1629807959578,0.8978641629219055,0.4431557953357696,0.0594827607274055,0.9376455545425416
1629807959672,0.8978641629219055,0.4411187171936035,0.0594827607274055,0.9376455545425416
1629807959797,0.8978641629219055,0.4386743307113647,0.0594827607274055,0.9376455545425416
1629807959907,0.8978641629219055,0.4386743307113647,0.0481429062783718,0.9376455545425416
1629807960019,0.8978641629219055,0.4386743307113647,0.0209567882120609,0.9376455545425416
1629807960108,0.8978641629219055,0.4386743307113647,0.0017464162083342,0.9376455545425416
1629807960210,0.8978641629219055,0.4386743307113647,-0.00252809911035,0.9376455545425416
1629807960304,0.8978641629219055,0.4386743307113647,0.021815912798047,0.9376455545425416
1629807960445,0.8978641629219055,0.4386743307113647,0.078851893544197,0.9376455545425416
1629807960476,0.8978641629219055,0.4386743307113647,0.1506456583738327,0.9376455545425416
1629807960636,0.8978641629219055,0.4382074773311615,0.2458581626415252,0.9376455545425416
1629807960744,0.8978641629219055,0.4361697733402252,0.334453672170639,0.9376455545425416
1629807960823,0.8978641629219055,0.4294359087944031,0.4105117917060852,0.9376455545425416
1629807960918,0.8978641629219055,0.3814151287078857,0.4707256853580475,0.9376455545425416
1629807960980,0.8978641629219055,0.3532879054546356,0.4715800583362579,0.9376455545425416
1629807961106,0.8978641629219055,0.3269886970520019,0.4537375271320343,0.9376455545425416
1629807961215,0.8978641629219055,0.316604346036911,0.4512559175491333,0.9376455545425416
1629807961356,0.8978641629219055,0.3304657638072967,0.4726409018039703,0.9376455545425416
1629807961419,0.8978641629219055,0.4173732399940491,0.4875746071338653,0.9376455545425416
1629807961528,0.8978641629219055,0.5515465140342712,0.4922188520431518,0.9376455545425416
1629807961609,0.8978641629219055,0.6572992205619812,0.4922188520431518,0.9376455545425416
1629807961734,0.8978641629219055,0.6705718040466309,0.4922188520431518,0.9376455545425416
1629807961873,0.8978641629219055,0.6705718040466309,0.4922188520431518,0.9376455545425416
1629807961951,0.8978641629219055,0.6705718040466309,0.4922188520431518,0.9376455545425416
1629807962029,0.8978641629219055,0.6705718040466309,0.4922188520431518,0.9376455545425416
1629807962170,0.8978641629219055,0.6705718040466309,0.4922188520431518,0.9376455545425416
1629807962248,0.8978641629219055,0.6705718040466309,0.4922188520431518,0.9376455545425416
1629807962341,0.8978641629219055,0.6705718040466309,0.4806602299213409,0.9376455545425416
1629807962451,0.8978641629219055,0.6705718040466309,0.4466682076454162,0.9376455545425416
1629807962545,0.8978641629219055,0.6705718040466309,0.3663205802440643,0.9376455545425416
1629807962638,0.8978641629219055,0.6922551989555359,0.239661157131195,0.9376455545425416
1629807962732,0.8978641629219055,0.7299894094467163,0.1748755127191543,0.9376455545425416
1629807962841,0.8978641629219055,0.7552696466445923,0.1715061217546463,0.9376455545425416
1629807962951,0.8978641629219055,0.7681630849838257,0.1486706435680389,0.9376455545425416
1629807963076,0.8978641629219055,0.7678549885749817,0.1007022112607956,0.9376455545425416
1629807963185,0.8701383471488953,0.7490931749343872,0.0267819035798311,0.9376455545425416
1629807963294,0.8803229928016663,0.7009767889976501,-0.0392549522221088,0.9376455545425416
1629807963404,0.8803229928016663,0.6599413752555847,-0.0392549522221088,0.9376455545425416
1629807963419,0.8803229928016663,0.6420419812202454,-0.0392549522221088,0.9376455545425416
1629807963529,0.8803229928016663,0.6399531960487366,-0.0392549522221088,0.9376455545425416
1629807963673,0.8906042575836182,0.6399531960487366,-0.0392549522221088,0.9376455545425416
1629807963810,0.9190170764923096,0.6399531960487366,-0.0392549522221088,0.9376455545425416
1629807963857,0.9296420216560364,0.637212872505188,-0.0392549522221088,0.9376455545425416
1629807963967,0.9340896010398864,0.637212872505188,-0.0392549522221088,1.2783231735229492
1629807964060,0.9340896010398864,0.637212872505188,-0.0392549522221088,1.2510892152786257
1629807964138,0.9340896010398864,0.6282255053520203,-0.0392549522221088,1.1997783184051514
1629807964310,0.9412698149681092,0.5603306889533997,-0.0392549522221088,1.1997783184051514
1629807964372,0.9421524405479432,0.461349219083786,-0.0392549522221088,1.1997783184051514
1629807964497,0.9397170543670654,0.22963747382164,-0.0392549522221088,1.1997783184051514
1629807964607,0.9397170543670654,0.2397551536560058,-0.0392549522221088,1.1998605728149414
1629807964701,0.9397170543670654,0.2401014864444732,-0.0392549522221088,1.200066328048706
1629807964810,0.9397170543670654,0.2401014864444732,-0.0392549522221088,1.207112431526184
1629807964872,0.94271057844162,0.2401014864444732,-0.0392549522221088,1.2204850912094116
1629807964951,0.954508900642395,0.2401014864444732,-0.0392549522221088,1.2270410060882568
1629807965091,0.9575113654136658,0.2599188685417175,-0.0392549522221088,1.231311559677124
1629807965232,0.9866532683372498,0.2944055497646332,-0.0392549522221088,1.2332100868225098
1629807965247,1.0500365495681765,0.3281471133232116,-0.0392549522221088,1.2332100868225098
1629807965357,1.1501407623291016,0.4010221064090729,-0.0392549522221088,1.2332100868225098
1629807965515,1.1806234121322632,0.450430303812027,-0.0392549522221088,1.1948816776275637
1629807965593,1.1806234121322632,0.4633427560329437,0.4775116145610809,1.1506712436676023
1629807965702,1.1806234121322632,0.4680038392543793,0.5205280780792236,1.081984281539917
1629807965780,1.1688271760940552,0.463460236787796,0.5523200035095215,1.0670084953308103
1629807965874,1.152724027633667,0.4885685741901397,0.560670018196106,1.063166260719299
1629807965968,1.1463947296142578,0.5572255849838257,0.560670018196106,1.052839279174805
1629807966124,1.1463947296142578,0.5957812666893005,0.5625837445259094,1.0460212230682373
1629807966218,1.1463947296142578,0.5957812666893005,0.5625837445259094,1.0460212230682373
1629807966312,1.1463947296142578,0.5957812666893005,0.5625837445259094,1.0460212230682373
1629807966421,1.1463947296142578,0.5957812666893005,0.5625837445259094,1.0415639877319336
1629807966483,1.14300274848938,0.5957812666893005,0.5625837445259094,1.027455449104309
1629807966674,1.1364315748214722,0.5957812666893005,0.5625837445259094,1.0225368738174438
1629807966721,1.1353461742401123,0.5957812666893005,0.5625837445259094,1.006458044052124
1629807966862,1.1279082298278809,0.5922887921333313,0.5314089059829712,0.9703310132026672
1629807966924,1.1228010654449463,0.5593851208686829,0.4858376681804657,0.9138672947883606
1629807967096,0.973416805267334,0.5197467803955078,0.4561814665794372,0.788378119468689
1629807967096,1.0547984838485718,0.5269895792007446,0.4650527834892273,0.8532784581184387
1629807967174,0.9020639657974244,0.5261504054069519,0.4488376677036285,0.7662140727043152
1629807967346,0.8743588924407959,0.5287021994590759,0.4208627939224243,0.7662140727043152
1629807967424,0.868370532989502,0.5253124833106995,0.3534223735332489,0.7662140727043152
1629807967518,0.8555731773376465,0.5229660272598267,0.3534223735332489,0.7662140727043152
1629807967611,0.7708997130393982,0.4694629609584808,0.3534223735332489,0.7662140727043152
1629807967721,0.723544716835022,0.3587645292282104,0.3534223735332489,0.7662140727043152
1629807967861,0.7228972315788269,0.2587500512599945,0.3534223735332489,0.7662140727043152
1629807967955,0.7228972315788269,0.2587500512599945,0.3534223735332489,0.7662140727043152
1629807968033,0.7228972315788269,0.2587500512599945,0.3534223735332489,0.7662140727043152
1629807968174,0.7103019952774048,0.2587500512599945,0.3534223735332489,0.75605708360672
1629807968221,0.6575676202774048,0.2587500512599945,0.3534223735332489,0.6915637254714966
1629807968350,0.5500637888908386,0.2155143618583679,0.3534223735332489,0.5468658804893494
1629807968428,0.4478908777236938,0.1872023791074752,0.3534223735332489,0.3538985550403595
1629807968553,0.3955943286418915,0.1714772880077362,0.3534223735332489,0.2049485892057418
1629807968678,0.3662031292915344,0.1640218794345855,0.3534223735332489,0.0777775198221206
1629807968725,0.3631344735622406,0.1440048068761825,0.3534223735332489,-0.0560394115746021
1629807968851,0.3631344735622406,0.0431207306683063,0.3534223735332489,-0.1993751227855682
1629807968944,0.3631344735622406,0.1238434091210365,0.3534223735332489,-0.1993751227855682
1629807969069,0.3631344735622406,0.1811387985944748,0.6754075288772583,-0.1993751227855682
1629807969179,0.3631344735622406,0.2062601149082183,0.6791706085205078,-0.1993751227855682
1629807969273,0.3631344735622406,0.2103229016065597,0.6791706085205078,-0.1993751227855682
1629807969382,0.3631344735622406,0.2103229016065597,0.6791706085205078,-0.1993751227855682
1629807969445,0.3631344735622406,0.2103229016065597,0.6791706085205078,-0.1993751227855682
1629807969512,0.3631344735622406,0.2136609107255935,0.6791706085205078,-0.1993751227855682
1629807969687,0.3631344735622406,0.3030383586883545,0.301823228597641,-0.1993751227855682
1629807969744,0.3631344735622406,0.4605485498905182,0.301823228597641,-0.1993751227855682
1629807969839,0.3631344735622406,0.5925114154815674,0.5840387344360352,-0.1993751227855682
1629807969967,0.3631344735622406,0.6319210529327393,0.7193816900253296,-0.1993751227855682
1629807970076,0.3631344735622406,0.6577863693237305,0.7649637460708618,-0.1993751227855682
1629807970155,0.3631344735622406,0.6770575642585754,0.8004785180091858,-0.1993751227855682
1629807970213,0.3631344735622406,0.6770575642585754,0.8057398200035095,-0.1993751227855682
1629807970354,0.3631344735622406,0.6798463463783264,0.8080170750617981,-0.1993751227855682
1629807970463,0.3631344735622406,0.6798463463783264,0.8275518417358398,-0.1993751227855682
1629807970586,0.3631344735622406,0.6798463463783264,0.8602684736251831,-0.1993751227855682
1629807970664,0.3631344735622406,0.6798463463783264,0.8742346167564392,-0.1993751227855682
1629807970731,0.3631344735622406,0.6798463463783264,0.879990816116333,-0.1993751227855682
1629807970853,0.3631344735622406,0.6798463463783264,0.879990816116333,-0.1993751227855682
1629807970961,0.3631344735622406,0.6798463463783264,0.879990816116333,-0.1993751227855682
1629807971072,0.3631344735622406,0.6798463463783264,0.879990816116333,-0.1993751227855682
1629807971199,0.3631344735622406,0.6798463463783264,0.879990816116333,-0.1993751227855682
1629807971306,0.3631344735622406,0.6798463463783264,0.879990816116333,-0.1993751227855682
1629807971369,0.3631344735622406,0.6776695847511292,0.879990816116333,-0.1993751227855682
1629807971465,0.3631344735622406,0.5958173274993896,0.8679327368736267,-0.1993751227855682
1629807971559,0.3631344735622406,0.4634402692317962,0.7973787784576416,-0.1993751227855682
1629807971715,0.3631344735622406,0.3186181187629699,0.709507167339325,-0.1993751227855682
1629807971762,0.3631344735622406,0.1940188258886337,0.6446986198425293,-0.1993751227855682
1629807971967,0.3631344735622406,0.1717046946287155,0.6345431804656982,-0.1993751227855682
1629807972013,0.930262804031372,0.243342787027359,0.6405622959136963,0.7182018160820007
1629807972060,1.0836522579193115,0.3155957162380218,0.6428523659706116,0.840207576751709
1629807972210,1.1433933973312378,0.3447490334510803,0.6210977435112,0.8676557540893555
1629807972319,1.1516412496566772,0.3447490334510803,0.5561715960502625,0.8690773248672485
1629807972396,1.1516412496566772,0.3447490334510803,0.4359172582626343,0.8690773248672485
1629807972505,1.1516412496566772,0.3447490334510803,0.3482778072357178,0.8690773248672485
1629807972594,1.1516412496566772,0.3447490334510803,0.305251270532608,0.8690773248672485
1629807972735,1.1516412496566772,0.3447490334510803,0.2820494771003723,0.8690773248672485
1629807972813,1.1516412496566772,0.3447490334510803,0.278670459985733,0.8690773248672485
1629807972938,1.1516412496566772,0.3447490334510803,0.284971684217453,0.8690773248672485
1629807972999,1.1516412496566772,0.3447490334510803,0.2940576374530792,0.8690773248672485
1629807973124,1.1516412496566772,0.3447490334510803,0.3021711707115173,0.8690773248672485
1629807973217,1.149544358253479,0.3447490334510803,0.3041544556617737,0.8686016798019409
1629807973280,1.149544358253479,0.3447490334510803,0.3041544556617737,0.8673706650733948
1629807973452,1.149544358253479,0.3447490334510803,0.3041544556617737,0.865954577922821
1629807973530,1.149544358253479,0.3773290812969208,0.3021235167980194,0.8665470480918884
1629807973624,1.1206365823745728,0.4142559766769409,0.2756953537464142,0.8504350781440735
1629807973702,1.0554052591323853,0.3873661458492279,0.2281312942504882,0.8135349154472351
1629807973827,0.9567057490348816,0.3228724300861358,0.1983156204223632,0.75270676612854
1629807973952,0.8355283737182617,0.2640549540519714,0.1864659935235977,0.7052773237228394
1629807974045,0.7625559568405151,0.2490943819284439,0.1837126761674881,0.6809424757957458
1629807974139,0.7781241536140442,0.2494994401931762,0.1748431473970413,0.6767767071723938
1629807974241,0.8073846697807312,0.260426253080368,0.1482335925102234,0.662929117679596
1629807974319,0.8893464803695679,0.2642412483692169,0.1190188452601432,0.6618412137031555
1629807974397,0.9311740398406982,0.2642412483692169,0.1190188452601432,0.6490731239318848
1629807974556,0.9353399276733398,0.2642412483692169,0.1169364601373672,0.638384997844696
1629807974650,0.9353399276733398,0.2642412483692169,0.1109823584556579,0.6360235214233398
1629807974743,0.9353399276733398,0.2642412483692169,0.09062060713768,0.6592548489570618
1629807974853,0.9353399276733398,0.2634256482124328,0.0700081437826156,0.722427487373352
1629807974946,0.9353399276733398,0.2592025995254516,0.0673931539058685,0.7811557650566101
1629807975025,0.9353399276733398,0.2572605311870575,0.0673931539058685,0.8451738357543945
1629807975103,0.9353399276733398,0.2506305575370788,0.0673931539058685,0.8865782618522644
1629807975243,0.9353399276733398,0.1601047813892364,0.0673931539058685,0.8932337164878845
1629807975368,0.9353399276733398,0.0346924662590026,0.0673931539058685,0.8932337164878845
1629807975509,0.9366669654846193,0.0058992118574678,0.034799251705408,0.8932337164878845
1629807975575,0.9366669654846193,0.0457386150956153,0.0527158118784427,0.8979542851448059
1629807975700,0.9379913806915284,0.053975909948349,0.0781348049640655,0.8993098735809326
1629807975747,0.9849771857261658,0.0560726597905159,0.0938501879572868,0.9765836000442504
1629807975872,1.1495085954666138,0.0644605085253715,0.1227258965373039,1.1026116609573364
1629807975997,1.2895689010620115,0.0884992331266403,0.1666776835918426,1.2237437963485718
1629807976060,1.3612521886825562,0.1378711760044098,0.192699521780014,1.2562199831008911
1629807976210,1.3726818561553955,0.1686286628246307,0.197007417678833,1.255289912223816
1629807976272,1.3788374662399292,0.1834688931703567,0.2010197192430496,1.2546265125274658
1629807976336,1.3828048706054688,0.2096444517374038,0.2163267880678177,1.2546265125274658
1629807976514,1.3853790760040283,0.2672686278820038,0.2312520444393158,1.256180763244629
1629807976624,1.3853790760040283,0.3684260249137878,0.2340274155139923,1.260351300239563
1629807976686,1.3853790760040283,0.4114071428775787,0.2255723178386688,1.260351300239563
1629807976780,1.3853790760040283,0.4114071428775787,0.2425410896539688,1.260351300239563
1629807976889,1.3853790760040283,0.4114071428775787,0.334184467792511,1.260351300239563
1629807976967,1.385069727897644,0.4235059022903442,0.4526222050189972,1.260351300239563
1629807977077,1.3841859102249146,0.457018107175827,0.5521289110183716,1.2590922117233276
1629807977186,1.3841859102249146,0.4703418612480163,0.5851243734359741,1.2533471584320068
1629807977264,1.3841859102249146,0.4756728410720825,0.5918817520141602,1.246945858001709
1629807977358,1.3841859102249146,0.4776560962200165,0.5950351357460022,1.2426753044128418
1629807977518,1.3841859102249146,0.4812673926353454,0.6239956617355347,1.2356369495391846
1629807977612,1.3692121505737305,0.4929000437259674,0.6458091735839844,1.1748926639556885
1629807977674,1.2833622694015503,0.4965094327926636,0.6471812129020691,1.0353714227676392
1629807977784,1.2833622694015503,0.4955364167690277,0.6471812129020691,1.0353714227676392
1629807977924,1.2833622694015503,0.4955364167690277,0.6471812129020691,1.0353714227676392
1629807977987,1.2833622694015503,0.4899657964706421,0.6471812129020691,1.0353714227676392
1629807978080,1.2833622694015503,0.4777083396911621,0.6494024395942688,1.0353714227676392
1629807978206,1.0010278224945068,0.4337826371192932,0.6545990705490112,1.0353714227676392
1629807978338,1.0746039152145386,0.3588435649871826,0.6545990705490112,0.8577338457107544
1629807978385,1.1091471910476685,0.3369870185852051,0.6545990705490112,0.8577338457107544
1629807978496,1.1114280223846436,0.3293188512325287,0.6542601585388184,0.8615389466285706
1629807978575,1.1114280223846436,0.3259429037570953,0.6440300941467285,0.8900244832038879
1629807978668,1.1114280223846436,0.3207445442676544,0.5908477902412415,0.916269063949585
1629807978778,1.1114280223846436,0.3207445442676544,0.5178948044776917,0.916269063949585
1629807978918,1.1114280223846436,0.3207445442676544,0.4826148152351379,0.916269063949585
1629807979012,1.1114280223846436,0.3309559822082519,0.4865347743034363,0.916269063949585
1629807979121,1.1114280223846436,0.3568025529384613,0.6017196774482727,0.916269063949585
1629807979231,1.1114280223846436,0.4165725409984588,0.7601618766784668,0.916269063949585
1629807979277,1.1114280223846436,0.429027795791626,0.7527706027030945,0.916269063949585
1629807979434,1.1114280223846436,0.4186714589595794,0.7527706027030945,0.916269063949585
1629807979514,1.1080878973007202,0.4331659972667694,0.7527706027030945,0.8831333518028259
1629807979639,1.0810256004333496,0.4555085897445678,0.7527706027030945,0.7980210185050964
1629807979701,1.0370553731918335,0.4739921987056732,0.7527706027030945,0.7010316252708435
1629807979826,0.9847857356071472,0.4832578897476196,0.7527706027030945,0.6238852739334106
1629807979889,0.9847857356071472,0.4887742698192596,0.7527706027030945,0.6238852739334106
1629807979998,0.9847857356071472,0.4904561340808868,0.7529191374778748,0.6238852739334106
1629807980123,0.9847857356071472,0.4904561340808868,0.7529191374778748,0.6238852739334106
1629807980217,0.9847857356071472,0.4904561340808868,0.7529191374778748,0.6238852739334106
1629807980295,0.9847857356071472,0.4904561340808868,0.7529191374778748,0.6238852739334106
1629807980420,0.4486826956272125,0.4904561340808868,0.7529191374778748,0.6238852739334106
1629807980530,0.5315327048301697,0.4904561340808868,0.7529191374778748,0.4721845686435699
1629807980611,0.649608850479126,0.4904561340808868,0.7529191374778748,0.6424450874328613
1629807980736,0.7257829904556274,0.4902024567127228,0.2907909154891968,0.793084442615509
1629807980845,0.7350019812583923,0.4455084204673767,0.2907909154891968,0.8412529230117798
1629807980939,0.7350019812583923,0.3302659690380096,0.2907909154891968,0.8551531434059143
1629807981001,0.7350019812583923,0.2391102910041809,0.2907909154891968,0.8555660843849182
1629807981110,0.7350019812583923,0.1925619095563888,0.2907909154891968,0.8555660843849182
1629807981235,0.7350019812583923,0.1698074638843536,0.2934651672840118,0.8555660843849182
1629807981360,0.7350019812583923,0.1781001687049865,0.2934651672840118,0.8555660843849182
1629807981470,0.7350019812583923,0.1858972311019897,0.2934651672840118,0.8555660843849182
1629807981548,0.7350019812583923,0.1831353902816772,0.276902973651886,0.8555660843849182
1629807981626,0.7350019812583923,0.1515787988901138,0.3018864691257477,0.8555660843849182
1629807981720,0.7257216572761536,0.1392631083726883,0.3759329617023468,0.8555660843849182
1629807981829,0.6916585564613342,0.1392631083726883,0.4846995770931244,0.8525811433792114
1629807982032,0.6685596108436584,0.1392631083726883,0.5605561137199402,0.8521213531494141
1629807982110,0.6535449028015137,0.1392631083726883,0.5616517663002014,0.8443682193756104
1629807982142,0.6419249176979065,0.1392631083726883,0.5400758385658264,0.8335025906562805
1629807982225,0.6272098422050476,0.1392631083726883,0.5315878987312317,0.8231956362724304
1629807982366,0.5280733704566956,0.125786155462265,0.5315878987312317,0.7251275777816772
1629807982451,0.3838512003421783,0.1140974760055542,0.5315878987312317,0.6040700674057007
1629807982592,0.2908468842506408,0.1079527139663696,0.5315878987312317,0.5548818707466125
1629807982670,0.2908468842506408,0.1047760769724845,0.5315878987312317,0.5548818707466125
1629807982764,0.2908468842506408,0.1349445879459381,0.5315878987312317,0.5548818707466125
1629807982873,0.2908468842506408,0.1475189179182052,0.5315878987312317,0.5548818707466125
1629807982967,0.2908468842506408,0.1441368609666824,0.5315878987312317,0.5548818707466125
1629807983059,0.2908468842506408,0.1070912033319473,0.5315878987312317,0.5548818707466125
1629807983200,0.2908468842506408,0.0664016008377075,0.5315878987312317,0.5548818707466125
1629807983310,0.2908468842506408,0.0644404366612434,0.5315878987312317,0.5548818707466125
1629807983403,0.2908468842506408,0.0635625198483467,0.5315878987312317,0.5548818707466125
1629807983502,0.2908468842506408,0.0635625198483467,0.5108428597450256,0.5548818707466125
1629807983564,0.2908468842506408,0.0631712898612022,0.3953610956668854,0.5548818707466125
1629807983643,0.2908468842506408,0.0601695068180561,0.1624635308980941,0.5548818707466125
1629807983752,0.2908468842506408,0.0791516974568367,0.0141165172681212,0.5548818707466125
1629807983876,0.2908468842506408,0.137233018875122,0.0075675006955862,0.5548818707466125
1629807983955,0.2908468842506408,0.2067869752645492,0.050335731357336,0.5548818707466125
1629807984048,0.2908468842506408,0.3519272208213806,0.050335731357336,0.5548818707466125
1629807984158,0.2908468842506408,0.5568066835403442,0.0412965230643749,0.5548818707466125
1629807984272,0.2908468842506408,0.6919943690299988,-0.007089524064213,0.6513274908065796
1629807984397,0.2908468842506408,0.7204689383506775,-0.0919871553778648,0.7318500876426697
1629807984504,0.2908468842506408,0.7204689383506775,-0.1414687782526016,0.7935593128204346
1629807984615,0.2908468842506408,0.7204689383506775,-0.1549784839153289,0.815694272518158
1629807984725,0.2908468842506408,0.7204689383506775,-0.1607308685779571,0.8468579649925232
1629807984802,0.2908468842506408,0.7204689383506775,-0.1657139658927917,0.8700088262557983
1629807984897,0.2908468842506408,0.7253649234771729,0.0208510644733905,0.8942245244979858
1629807985053,0.2908468842506408,0.7318457365036011,0.0749562382698059,0.908987522125244
1629807985136,1.2367141246795654,0.7354370355606079,0.0956562757492065,0.9250608086586
1629807985211,1.240465760231018,0.7354370355606079,0.1113085448741912,0.9496089220046996
1629807985259,1.240465760231018,0.7354370355606079,0.121433287858963,0.9757596254348756
1629807985384,1.240465760231018,0.7354370355606079,0.1446409970521927,0.9979217052459716
1629807985478,1.240465760231018,0.7333241701126099,0.0995557829737663,1.0142849683761597
1629807985645,1.240465760231018,0.729957103729248,0.1624624133110046,1.0069595575332642
1629807985676,1.240465760231018,0.7190170288085938,0.1878340542316436,0.9824864864349364
1629807985786,1.240465760231018,0.6965199112892151,0.1890874058008194,0.9683532118797302
1629807985911,1.2006131410598757,0.6156795620918274,0.190595343708992,0.9682655930519104
1629807985973,1.0593115091323853,0.4804230630397796,0.1913036108016967,0.9641939401626588
1629807986093,0.7073980569839478,0.3367034792900085,0.1923597604036331,0.9391444325447084
1629807986203,0.7073980569839478,0.2859505116939544,0.1923597604036331,0.9290074110031128
1629807986342,0.7073980569839478,0.270566463470459,0.1923597604036331,0.9164018630981444
1629807986417,0.7073980569839478,0.2625737488269806,0.1923597604036331,0.9095697999000548
1629807986513,0.708371639251709,0.2581788301467895,0.1845532804727554,0.9051591753959656
1629807986598,0.7127328515052795,0.2401417046785354,0.1726799458265304,0.9048566222190856
1629807986711,0.6820973753929138,0.1918706595897674,0.1580624431371688,0.9034708738327026
1629807986836,0.6464130282402039,0.1141868904232978,0.1619446724653244,0.901357352733612
1629807986945,0.6248391270637512,0.10662542283535,0.162003219127655,0.8971901535987854
1629807987023,0.6277053952217102,0.10662542283535,0.162003219127655,0.863242506980896
1629807987132,0.6244454979896545,0.1076762750744819,0.162003219127655,0.7743748426437378
1629807987211,0.6116273999214172,0.1157502681016922,0.1430403441190719,0.6759802103042603
1629807987289,0.5804244875907898,0.1201691776514053,0.1164663359522819,0.6282816529273987
1629807987446,0.536194384098053,0.1075291708111763,0.1160637959837913,0.5942630767822266
1629807987542,0.520855188369751,0.0804427862167358,0.1104657873511314,0.5655800104141235
1629807987638,0.605096161365509,0.0627455189824104,0.1092824786901474,0.5498055815696716
1629807987717,0.713598906993866,0.0428451001644134,0.1107430607080459,0.5262402892112732
1629807987810,0.7632802128791809,0.0401172302663326,0.0858804658055305,0.5978733897209167
1629807987935,0.8106908202171326,0.0401172302663326,0.0728233233094215,0.6277676820755005
1629807988045,0.8209949731826782,0.0380254909396171,0.0704606473445892,0.6413012146949768
1629807988138,0.8213399052619934,0.0350095592439174,0.0679985135793685,0.6442058086395264
1629807988279,0.8213399052619934,0.0640328675508499,0.0636720433831214,0.6442058086395264
1629807988310,0.8213399052619934,0.0961016491055488,0.0529865883290767,0.6506229043006897
1629807988435,0.8213399052619934,0.1279387921094894,0.0325576663017272,0.6615992188453674
1629807988544,0.8213399052619934,0.1877340823411941,0.0600937269628047,0.6712009310722351
1629807988641,0.8213399052619934,0.2350893765687942,0.1151578947901725,0.6712009310722351
1629807988781,0.8213399052619934,0.2765156626701355,0.1162059381604194,0.6712009310722351
1629807988844,0.8213399052619934,0.2856676280498504,0.0696492195129394,0.6598126888275146
1629807988937,0.8401533365249634,0.2804777920246124,0.0387422852218151,0.6371432542800903
1629807989061,0.8889549374580383,0.2787579298019409,0.0282466784119606,0.6354535818099976
1629807989155,0.9255397915840148,0.2787579298019409,0.02479731105268,0.6354535818099976
1629807989264,0.9338942766189576,0.2787579298019409,0.0498979836702346,0.6354535818099976
