timestamp,TP9,AF7,AF8,TP10
1631021159174,0.6374946236610413,0.228494107723236,-0.3309516012668609,0.1475929915904998
1631021159302,0.6374946236610413,0.228494107723236,-0.3309516012668609,0.1475929915904998
1631021159365,0.6374946236610413,0.228494107723236,-0.3309516012668609,0.1475929915904998
1631021159427,0.6374946236610413,0.2071486860513687,-0.34724822640419,0.1403510719537735
1631021159536,0.6083803176879883,0.1832252144813537,-0.362204909324646,0.1343669444322586
1631021159661,0.5763433575630188,0.1634284555912017,-0.3750690817832947,0.1231747344136238
1631021159786,0.5475703477859497,0.1470791697502136,-0.3858761191368103,0.1131057888269424
1631021159880,0.5330850481987,0.1303147822618484,-0.3911451995372772,0.1084887608885765
1631021159989,0.5371123552322388,0.1233307719230651,-0.383775919675827,0.107351578772068
1631021160052,0.5371123552322388,0.125233918428421,-0.3660663962364197,0.107351578772068
1631021160177,0.5371123552322388,0.1431637555360794,-0.3660663962364197,0.107351578772068
1631021160255,0.5371123552322388,0.1825783401727676,-0.3660663962364197,0.107351578772068
1631021160380,0.5371123552322388,0.2344761192798614,-0.3660663962364197,0.107351578772068
1631021160489,0.5371123552322388,0.282820463180542,-0.3660663962364197,0.107351578772068
1631021160583,0.5930579900741577,0.2759383022785187,-0.3093949258327484,0.2661906480789184
1631021160677,0.5953738689422607,0.2598705291748047,-0.3232533037662506,0.2558843195438385
1631021160755,0.5972907543182373,0.2381967157125473,-0.3401519954204559,0.2426467984914779
1631021160880,0.5967667102813721,0.2146246582269668,-0.3546088635921478,0.2310241013765335
1631021161052,0.5947102308273315,0.1930125057697296,-0.3658623695373535,0.215311512351036
1631021161114,0.5933601260185242,0.1751603931188583,-0.3777439296245575,0.1940980702638626
1631021161192,0.5934244394302368,0.1612763851881027,-0.3924358785152435,0.1698944121599197
1631021161317,0.5936201214790344,0.1511741876602172,-0.4090393185615539,0.1479787528514862
1631021161364,0.5914239883422852,0.1446969211101532,-0.4090393185615539,0.1354201883077621
1631021161473,0.5914239883422852,0.1371665447950363,-0.4090393185615539,0.1360598653554916
1631021161598,0.5914239883422852,0.1295663714408874,-0.4090393185615539,0.1360598653554916
1631021161723,0.5914239883422852,0.1196365654468536,-0.4090393185615539,0.1360598653554916
1631021161833,0.5846394300460815,0.1049865260720253,-0.4174285233020782,0.1309044957160949
1631021161942,0.5852463245391846,0.088966928422451,-0.4340084791183471,0.1148296743631362
1631021162005,0.5888184905052185,0.0800093486905098,-0.4560459554195404,0.0892152786254882
1631021162083,0.5906047224998474,0.0675941929221153,-0.4782779812812805,0.0627751052379608
1631021162226,0.5885805487632751,0.0646612420678138,-0.4962812066078186,0.0399213880300521
1631021162320,0.5854769349098206,0.0716821178793907,-0.5093662738800049,0.0177712924778461
1631021162414,0.5838320851325989,0.0866376385092735,-0.5246210694313049,-0.0097237061709165
1631021162539,0.5847761034965515,0.1018743067979812,-0.5246210694313049,-0.0316300690174102
1631021162586,0.5596092939376831,0.1177228987216949,-0.5246210694313049,-0.0161643717437982
1631021162664,0.526513397693634,0.1289529204368591,-0.5246210694313049,0.003445402951911
1631021162836,0.4767864942550659,0.1309578567743301,-0.5246210694313049,0.015941871330142
1631021162945,0.4209407567977905,0.1220248714089393,-0.3174332082271576,0.0001174802382593
1631021163086,0.415373146533966,0.1012680977582931,-0.3343249261379242,-0.0732885748147964
1631021163132,0.4282138645648956,0.0721768960356712,-0.3529697358608246,-0.1069536432623863
1631021163191,0.449794590473175,0.0414372086524963,-0.3666513860225677,-0.1359473168849945
1631021163306,0.4684769213199615,0.0161823276430368,-0.3674142956733703,-0.1470571160316467
1631021163447,0.4811597168445587,-0.0021499970462173,-0.3564404547214508,-0.1353989094495773
1631021163525,0.4909517168998718,-0.0203642360866069,-0.3420532047748565,-0.1052526086568832
1631021163634,0.4909517168998718,-0.0112265218049287,-0.3420532047748565,-0.1052526086568832
1631021163712,0.4909517168998718,-0.0112265218049287,-0.3420532047748565,-0.1052526086568832
1631021163811,0.4909517168998718,-0.0112265218049287,-0.3420532047748565,-0.1052526086568832
1631021163904,0.4909517168998718,-0.0112265218049287,-0.3420532047748565,-0.1052526086568832
1631021164092,0.4909517168998718,-0.0189636293798685,-0.3420532047748565,-0.1052526086568832
1631021164184,0.4931236207485199,-0.0329193845391273,-0.3473376929759979,-0.1254609525203704
1631021164245,0.4974759221076965,-0.0481941141188144,-0.3538879752159118,-0.1394072473049163
1631021164333,0.5102684497833252,-0.0557346306741237,-0.3589923977851867,-0.1480429768562317
1631021164420,0.5320504307746887,-0.0486207231879234,-0.3592778146266937,-0.1509375572204589
1631021164735,0.5707712173461914,0.0078078643418848,-0.3261762857437134,-0.1027134954929351
1631021164766,0.5707712173461914,0.0434693172574043,-0.3261762857437134,-0.1027134954929351
1631021164875,0.5707712173461914,0.0197799615561962,-0.3261762857437134,-0.1027134954929351
1631021164950,0.5707712173461914,-0.019038263708353,-0.3261762857437134,-0.1027134954929351
1631021165028,0.5707712173461914,-0.0708194449543953,-0.3261762857437134,-0.1027134954929351
1631021165182,0.3886404931545257,-0.1146234348416328,-0.3921427130699157,0.168785884976387
1631021165273,0.3997595012187958,-0.0901195406913757,-0.3646461963653564,0.1376330256462097
1631021165408,0.4070426225662231,-0.0603757314383983,-0.3526192009449005,0.1046011000871658
1631021165466,0.4138916134834289,-0.0327308066189289,-0.358136385679245,0.0765280351042747
1631021165574,0.4216393530368805,-0.015906011685729,-0.3764991760253906,0.0566601529717445
1631021165635,0.4283394515514374,-0.0117489723488688,-0.3989267349243164,0.0462906621396541
1631021165745,0.4311799108982086,-0.0154273584485054,-0.4148659408092499,0.0433716922998428
1631021165898,0.4316405057907104,-0.0206442512571811,-0.4178904592990875,0.0443817377090454
1631021165990,0.430557906627655,-0.0248618740588426,-0.4083099663257599,0.046786468476057
1631021166067,0.4285591840744018,-0.0282525569200515,-0.3920000195503235,0.0494835041463375
1631021166192,0.4284442365169525,-0.0290489848703145,-0.3755876123905182,0.0533579140901565
1631021166267,0.4335919022560119,-0.0238615199923515,-0.3630903959274292,0.059201531112194
1631021166356,0.4454211294651031,-0.0044365357607603,-0.350963830947876,0.0595373511314392
1631021166525,0.460197776556015,0.0121165122836828,-0.3460413217544555,0.056450568139553
1631021166584,0.4674431383609772,0.0242510717362165,-0.351350873708725,0.052634410560131
1631021166646,0.46391162276268,0.0353177115321159,-0.364798754453659,0.0519270487129688
1631021166753,0.4547634720802307,0.050033301115036,-0.3775184154510498,0.0573425889015197
1631021166865,0.4462918639183044,0.0694098472595214,-0.3794071078300476,0.067141443490982
1631021166943,0.4420218765735626,0.0899491533637046,-0.3680488765239715,0.0765151605010032
1631021167083,0.4430943727493286,0.1086445376276969,-0.3499718308448791,0.0815330669283866
1631021167177,0.4492365717887878,0.1236528158187866,-0.3327371776103973,0.0820672735571861
1631021167289,0.4586985409259796,0.1335017681121826,-0.3195092976093292,0.0818040519952774
1631021167351,0.4669354856014251,0.1381902247667312,-0.3104428946971893,0.0839126035571098
1631021167491,0.4714923501014709,0.1406874358654022,-0.3076178729534149,0.0888770297169685
1631021167549,0.4727911949157715,0.1466889232397079,-0.3141458630561828,0.0943472683429718
1631021167735,0.4710474014282226,0.1586716771125793,-0.3301235437393188,0.0963729619979858
1631021167811,0.4652270078659057,0.1732410490512848,-0.3504822850227356,0.0921240597963333
1631021167901,0.4561314880847931,0.1861596554517746,-0.3669154644012451,0.0806717425584793
1631021168011,0.4506443440914154,0.195197656750679,-0.3728695809841156,0.0656038448214531
1631021168104,0.4558744430541992,0.1987492889165878,-0.3674645125865936,0.0521167069673538
1631021168198,0.4710301756858825,0.1943514198064804,-0.3561998605728149,0.0422964841127395
1631021168285,0.4875122010707855,0.1800891458988189,-0.3483073115348816,0.0323608107864856
1631021168435,0.4973946809768677,0.1573352217674255,-0.3492805063724518,0.018302634358406
1631021168510,0.4996702671051025,0.1307943165302276,-0.3550567030906677,0.0001076634944183
1631021168593,0.4969277679920196,0.1055720001459121,-0.3569667339324951,-0.0176113601773977
1631021168694,0.4915930032730102,0.0852920413017273,-0.3529012799263,-0.0325744859874248
1631021168828,0.4857840240001678,0.0723878592252731,-0.3507691621780395,-0.0476503670215606
1631021168943,0.4816017746925354,0.0663425624370575,-0.3589262962341308,-0.0655337423086166
1631021169010,0.4810391664505005,0.0623704046010971,-0.3754779696464538,-0.0864166170358657
1631021169143,0.4853773117065429,0.0628263503313064,-0.387845367193222,-0.0958665311336517
1631021169217,0.4948780238628387,0.0527198351919651,-0.3833668529987335,-0.1175388023257255
1631021169322,0.5101785063743591,0.0292673166841268,-0.3629690408706665,-0.1361157000064849
1631021169401,0.5320837497711182,-0.005171968601644,-0.3390525281429291,-0.149259015917778
1631021169526,0.5576351284980774,-0.04287039488554,-0.3212993443012237,-0.1594107151031494
1631021169706,0.5812318325042725,-0.0722574740648269,-0.3106853067874908,-0.1699266284704208
1631021169778,0.5984285473823547,-0.0849727392196655,-0.3035297691822052,-0.1835346817970276
1631021169874,0.6096805334091187,-0.0828112214803695,-0.2983046472072601,-0.1959113776683807
1631021169959,0.6221413612365723,-0.0776466950774192,-0.297718197107315,-0.1967434138059616
1631021170042,0.6332149505615234,-0.0785973891615867,-0.2963772118091583,-0.1766282320022583
1631021170134,0.6449201703071594,-0.0856686830520629,-0.2984931170940399,-0.1401464939117431
1631021170228,0.6561487913131714,-0.0856686830520629,-0.3028487861156463,-0.0983945876359939
1631021170339,0.6678582429885864,-0.0856686830520629,-0.3033042550086975,-0.0983945876359939
1631021170433,0.6819781064987183,-0.0856686830520629,-0.293388158082962,-0.0983945876359939
1631021170519,0.699507474899292,-0.0856686830520629,-0.2728184759616852,-0.0983945876359939
1631021170660,0.7194628119468689,-0.0856686830520629,-0.2494188249111175,-0.0983945876359939
1631021170738,0.7395065426826477,-0.0856686830520629,-0.2344599366188049,-0.0983945876359939
1631021170847,0.7555238008499146,-0.0856686830520629,-0.2344443500041961,-0.0983945876359939
1631021170991,0.7619492411613464,-0.0856686830520629,-0.2457838654518127,-0.0983945876359939
1631021171034,0.7532913088798523,-0.0856686830520629,-0.2584377825260162,-0.0983945876359939
1631021171142,0.7532913088798523,-0.0856686830520629,-0.2584377825260162,-0.0983945876359939
1631021171231,0.7532913088798523,-0.0856686830520629,-0.2584377825260162,-0.0983945876359939
1631021171433,0.7532913088798523,-0.0856686830520629,-0.2584377825260162,-0.0983945876359939
1631021171518,0.7532913088798523,-0.0856686830520629,-0.2584377825260162,-0.0983945876359939
1631021171565,0.7532913088798523,-0.0856686830520629,-0.1641289144754409,-0.0983945876359939
1631021171635,0.7579788565635681,0.4484710097312927,-0.1206320375204086,0.5533776879310608
1631021171745,0.7792971134185791,0.4337575733661651,-0.0899579524993896,0.5210884809494019
1631021171839,0.778441309928894,0.4172378778457641,-0.0781944841146469,0.5210884809494019
1631021171999,0.7673228979110718,0.4021470546722412,-0.083211563527584,0.4656624794006347
1631021172107,0.7575124502182007,0.3899247348308563,-0.0984718054533004,0.4149104058742523
1631021172149,0.7514820098876953,0.3801617920398712,-0.1172344014048576,0.3707591593265533
1631021172283,0.7453562617301941,0.3737797737121582,-0.1349372565746307,0.3335556983947754
1631021172345,0.7341493368148804,0.3714166581630707,-0.1494981348514557,0.303031861782074
1631021172471,0.7161784768104553,0.3715159595012665,-0.1613346934318542,0.2785510122776031
1631021172613,0.6942276954650879,0.3697287142276764,-0.1727624237537384,0.2587825953960418
1631021172676,0.6719341278076172,0.3632887005805969,-0.1857601106166839,0.2422091960906982
1631021172770,0.6520337462425232,0.3527859449386596,-0.1982272416353225,0.2277756780385971
1631021172863,0.6392276287078857,0.3316012918949127,-0.2151673287153244,0.1800557523965835
1631021172992,0.617931604385376,0.3101030588150024,-0.2382126897573471,0.1191844940185546
1631021173043,0.5835828185081482,0.2904681265354156,-0.2717777788639068,0.059109017252922
1631021173216,0.5396418571472168,0.2721092402935028,-0.3177082538604736,0.0168566685169935
1631021173281,0.4979214072227478,0.2542689442634582,-0.3712766170501709,-0.0026175663806498
1631021173366,0.4694315791130066,0.2367342263460159,-0.419916033744812,-0.0026175663806498
1631021173472,0.4462167024612427,0.231959730386734,-0.4519212543964386,-0.0005785488174296
1631021173587,0.4193315207958221,0.2268777340650558,-0.472827136516571,0.0113101564347743
1631021173677,0.3819058835506439,0.2208867222070694,-0.486304223537445,0.0278067141771316
1631021173822,0.335475742816925,0.2116079330444336,-0.4987774491310119,0.0458756908774375
1631021173878,0.292412132024765,0.1954157501459121,-0.5163593888282776,0.0636908933520317
1631021174028,0.2689806520938873,0.1703978329896927,-0.5418926477432251,0.0802531987428665
1631021174124,0.2686062753200531,0.142128974199295,-0.571582019329071,0.0963484570384025
1631021174193,0.2829898297786712,0.120449423789978,-0.5969482660293579,0.1143526881933212
1631021174281,0.2997209131717682,0.1115066558122634,-0.609626293182373,0.1373557597398758
1631021174390,0.313279241323471,0.1089188084006309,-0.6075003147125244,0.167504221200943
1631021174550,0.313279241323471,0.1020415052771568,-0.5962238907814026,0.167504221200943
1631021174609,0.313279241323471,0.1020415052771568,-0.5962238907814026,0.167504221200943
1631021174751,0.313279241323471,0.1020415052771568,-0.5962238907814026,0.167504221200943
1631021174785,0.313279241323471,0.1020415052771568,-0.5962238907814026,0.167504221200943
1631021174886,0.313279241323471,0.1020415052771568,-0.5962238907814026,0.167504221200943
1631021175011,0.313279241323471,0.1020415052771568,-0.5962238907814026,0.167504221200943
1631021175121,0.313279241323471,0.1020415052771568,-0.5962238907814026,0.167504221200943
1631021175206,0.313279241323471,0.1020415052771568,-0.5962238907814026,0.167504221200943
1631021175319,0.313279241323471,0.1020415052771568,-0.5962238907814026,0.167504221200943
1631021175397,0.313279241323471,0.1020415052771568,-0.5962238907814026,0.167504221200943
1631021175491,0.313279241323471,0.1020415052771568,-0.5962238907814026,0.167504221200943
1631021175616,0.313279241323471,0.1020415052771568,-0.5962238907814026,0.167504221200943
1631021175710,0.313279241323471,0.1020415052771568,-0.5962238907814026,0.167504221200943
1631021175835,0.313279241323471,0.1020415052771568,-0.5962238907814026,0.167504221200943
1631021175897,0.313279241323471,0.1020415052771568,-0.5962238907814026,0.167504221200943
1631021175975,0.313279241323471,0.1020415052771568,-0.5962238907814026,0.167504221200943
1631021176085,0.313279241323471,0.1020415052771568,-0.5962238907814026,0.167504221200943
1631021176241,0.313279241323471,0.1020415052771568,-0.5962238907814026,0.167504221200943
1631021176308,0.313279241323471,0.1020415052771568,-0.5962238907814026,0.167504221200943
1631021176436,0.313279241323471,0.1020415052771568,-0.5962238907814026,0.167504221200943
1631021176514,0.313279241323471,0.1020415052771568,-0.5962238907814026,0.167504221200943
1631021176608,0.313279241323471,0.1020415052771568,-0.5962238907814026,0.167504221200943
1631021176686,0.313279241323471,0.1020415052771568,-0.5962238907814026,0.167504221200943
1631021176843,0.313279241323471,0.1020415052771568,-0.5962238907814026,0.167504221200943
1631021176936,0.313279241323471,0.1020415052771568,-0.5962238907814026,0.167504221200943
1631021177030,0.313279241323471,0.1020415052771568,-0.5962238907814026,0.167504221200943
1631021177124,0.313279241323471,0.1020415052771568,-0.5962238907814026,0.167504221200943
1631021177217,0.313279241323471,0.1020415052771568,-0.5962238907814026,0.167504221200943
1631021177299,0.313279241323471,0.1020415052771568,-0.5962238907814026,0.167504221200943
1631021177471,0.313279241323471,0.1020415052771568,-0.5962238907814026,0.167504221200943
1631021177533,0.313279241323471,0.1020415052771568,-0.5962238907814026,0.167504221200943
1631021177643,0.9420964121818542,0.1020415052771568,-0.1191655471920967,0.167504221200943
1631021177721,0.9324773550033568,0.2039834111928939,-0.1386151909828186,0.167504221200943
1631021177830,0.9259242415428162,0.1966578513383865,-0.1555749475955963,0.0890609249472618
1631021177924,0.9174477458000184,0.2010216414928436,-0.1654699444770813,0.0939117223024368
1631021178078,0.9025992155075072,0.211420327425003,-0.1714666783809662,0.1042738780379295
1631021178179,0.8813108801841736,0.2226893454790115,-0.1786296367645263,0.1102393493056297
1631021178257,0.8565304279327393,0.2304559350013733,-0.1880978792905807,0.1079290062189102
1631021178335,0.8314825296401978,0.2330296039581298,-0.1986273825168609,0.0992938131093978
1631021178460,0.8078300952911377,0.2289959788322448,-0.2088196873664856,0.0878066942095756
1631021178570,0.7876725196838379,0.2199857085943222,-0.2193269878625869,0.0746940448880195
1631021178710,0.7727611660957336,0.2100801318883896,-0.2306362688541412,0.0610904023051261
1631021178757,0.7619888186454773,0.203973039984703,-0.2420927286148071,0.048128105700016
1631021178882,0.7367423176765442,0.204636201262474,-0.2621710896492004,0.036710649728775
1631021178960,0.7034084796905518,0.20966437458992,-0.2873374223709106,0.0285092443227767
1631021179038,0.6659767627716064,0.2168967574834823,-0.3158898949623108,0.0135392034426331
1631021179194,0.629639744758606,0.2220873534679412,-0.3425772786140442,0.0109845399856567
1631021179291,0.5937581658363342,0.2229890078306198,-0.3649919331073761,0.016311652958393
1631021179416,0.5543292164802551,0.2177849858999252,-0.3858419358730316,0.0201720688492059
1631021179448,0.5138451457023621,0.2042563557624817,-0.4086639285087585,0.0164302103221416
1631021179573,0.4817269444465637,0.1823332756757736,-0.432585060596466,0.0063075278885662
1631021179729,0.468537300825119,0.1537404209375381,-0.4528433978557586,-0.003977027721703
1631021179800,0.4738414287567138,0.1233420446515083,-0.4665659070014953,-0.0086070476099848
1631021179883,0.4862109720706939,0.0968798846006393,-0.4753780663013458,-0.0059602512046694
1631021179992,0.4949069321155548,0.0808287784457206,-0.4837612807750702,0.0017048193840309
1631021180086,0.4959381520748138,0.0775393843650817,-0.4920627176761627,0.0114712389186024
1631021180211,0.49317467212677,0.0823597833514213,-0.4965476095676422,0.0202367510646581
1631021180277,0.4938355386257171,0.0861060544848442,-0.4935252666473388,0.0245892275124788
1631021180402,0.5013301968574524,0.0816817432641983,-0.484150230884552,0.0228674821555614
1631021180511,0.512209951877594,0.0688028410077095,-0.4713461399078369,0.0140165034681558
1631021180573,0.5209105014801025,0.052434928715229,-0.4569300711154938,-0.0020632424857467
1631021180683,0.5244771838188171,0.0377631895244121,-0.4422873556613922,-0.0237447451800107
1631021180776,0.5254462361335754,0.0272084567695856,-0.4292227923870086,-0.0463572703301906
1631021180901,0.5307106971740723,0.0237125270068645,-0.4188490509986877,-0.0619722679257392
1631021180995,0.5456789135932922,0.0313093587756156,-0.4104479849338531,-0.0654257461428642
1631021181089,0.56792813539505,0.0481940582394599,-0.4056299030780792,-0.0615674406290054
1631021181275,0.5878875851631165,0.0663184374570846,-0.4073827266693115,-0.0616396181285381
1631021181326,0.6000896096229553,0.0796817615628242,-0.4164198935031891,-0.0731758549809455
1631021181404,0.6069337129592896,0.0879252180457115,-0.4290317595005035,-0.0975201502442359
1631021181560,0.6134253740310669,0.0924517214298248,-0.4388301968574524,-0.129906490445137
1631021181591,0.6187434792518616,0.091890275478363,-0.4418291747570038,-0.1636545062065124
1631021181716,0.6182284355163574,0.0847797319293022,-0.4409433007240295,-0.1927816271781921
1631021181810,0.6112704873085022,0.0730150118470192,-0.4436671435832977,-0.2121761590242386
1631021181966,0.6029022932052612,0.0604666620492935,-0.4542916417121887,-0.2216358035802841
1631021182013,0.5985289216041565,0.048421274870634,-0.4706354439258575,-0.2232369482517242
1631021182091,0.5985601544380188,0.0368748530745506,-0.4855930507183075,-0.2207316905260086
1631021182216,0.600010871887207,0.0276728831231594,-0.4920893609523773,-0.2187647372484207
1631021182345,0.6016402244567871,0.0226949024945497,-0.4889134466648102,-0.2226074934005737
1631021182407,0.6030117869377136,0.0197016522288322,-0.4805778264999389,-0.2363111525774002
1631021182485,0.601448118686676,0.0130284894257783,-0.4718301594257355,-0.2598194777965545
1631021182610,0.594385027885437,0.0016093414742499,-0.4624537527561188,-0.286202073097229
1631021182688,0.5824083089828491,-0.0092839105054736,-0.4508936405181885,-0.3047775328159332
1631021182766,0.5677304863929749,-0.0143360449001193,-0.4389870464801788,-0.3101164400577545
1631021182907,0.55133455991745,-0.0132450899109244,-0.4312421977519989,-0.3036072552204132
1631021183047,0.5337432026863098,-0.0081180585548281,-0.4303036332130432,-0.2923060059547424
1631021183110,0.5188238024711609,0.0010334540857002,-0.4349138438701629,-0.2812878489494324
1631021183235,0.5108748078346252,0.014601738192141,-0.4400288164615631,-0.271746426820755
1631021183314,0.5100582838058472,0.0294139701873064,-0.4409969747066498,-0.2624409794807434
1631021183424,0.5149638652801514,0.040252149105072,-0.4372887015342712,-0.2522253692150116
1631021183533,0.5253666639328003,0.0447654537856578,-0.434474229812622,-0.2428620755672454
1631021183643,0.5396617650985718,0.0461974218487739,-0.4390509724617004,-0.2344213873147964
1631021183736,0.5532885193824768,0.0494241788983345,-0.453284740447998,-0.226398304104805
1631021183830,0.5601698756217957,0.0569673925638198,-0.4734713137149811,-0.2200657427310943
1631021183940,0.5582371950149536,0.0677055045962333,-0.493177980184555,-0.2190756201744079
1631021184017,0.5494713187217712,0.0788745060563087,-0.5046327710151672,-0.2244741171598434
1631021184158,0.5374005436897278,0.0884819775819778,-0.4984827041625976,-0.232889711856842
1631021184285,0.5260371565818787,0.0946902707219123,-0.4697350859642029,-0.2378216534852981
1631021184347,0.5213201642036438,0.0960141420364379,-0.4260159730911255,-0.2366660982370376
1631021184441,0.5329480171203613,0.0924157798290252,-0.3827466070652008,-0.2322578430175781
1631021184566,0.5649617314338684,0.0839145928621292,-0.3508081436157226,-0.2284602224826812
1631021184660,0.607088029384613,0.0699583366513252,-0.3323038518428802,-0.2261969745159149
1631021184785,0.6424826383590698,0.0516551621258258,-0.3247645795345306,-0.2267501950263977
1631021184832,0.6634570360183716,0.0331527329981327,-0.3249489367008209,-0.2320373505353927
1631021184988,0.6733903288841248,0.019124086946249,-0.3288758993148803,-0.2404801994562149
1631021185129,0.6795094609260559,0.0114562660455703,-0.3314791619777679,-0.2483386099338531
1631021185191,0.6853265762329102,0.0063612260855734,-0.3296754658222198,-0.2551946640014648
1631021185284,0.6896795630455017,-0.0009381720446981,-0.3247413635253906,-0.2620641887187958
1631021185382,0.6908209919929504,-0.0131285386160016,-0.3211186230182647,-0.2674532234668731
1631021185460,0.6885693073272705,-0.0312106907367706,-0.3219712674617767,-0.2679939866065979
1631021185569,0.6855320930480957,-0.0534998029470443,-0.3302785456180572,-0.2667469978332519
1631021185663,0.6855471730232239,-0.0768080800771713,-0.3514982461929321,-0.2705184817314148
1631021185819,0.6896651387214661,-0.096754252910614,-0.3910127878189087,-0.2834608852863312
1631021185881,0.6934926509857178,-0.1094807535409927,-0.4479666650295257,-0.3003765344619751
1631021186006,0.6884555816650391,-0.1139064878225326,-0.5107810497283936,-0.3135612905025482
1631021186069,0.6692449450492859,-0.1087249740958213,-0.5632469654083252,-0.3201943039894104
1631021186178,0.639807939529419,-0.0905421823263168,-0.5972800850868225,-0.3232071995735168
1631021186290,0.6123849153518677,-0.0607756860554218,-0.6128666996955872,-0.3222017586231231
1631021186337,0.5952879190444946,-0.0267175715416669,-0.608508288860321,-0.3114246428012848
1631021186446,0.5848368406295776,0.0048514590598642,-0.583580732345581,-0.2914499640464782
1631021186586,0.5719633102416992,0.0325209721922874,-0.5460771918296814,-0.2687310576438904
1631021186696,0.5538530945777893,0.0581129193305969,-0.5085251331329346,-0.248785138130188
1631021186790,0.5344831347465515,0.080213613808155,-0.4788137078285217,-0.2324289083480835
1631021186868,0.5193705558776855,0.0939944013953208,-0.4577599167823791,-0.2187201082706451
1631021186977,0.5114482641220093,0.0976365730166435,-0.442460298538208,-0.2090009301900863
1631021187071,0.5084125995635986,0.0954637229442596,-0.4307163655757904,-0.2029047459363937
1631021187196,0.5058659315109253,0.0957982838153839,-0.4217154383659363,-0.1966090202331543
1631021187276,0.5020484924316406,0.1036287173628807,-0.415558248758316,-0.1874213814735412
1631021187370,0.5005759000778198,0.1166685670614242,-0.4114343523979187,-0.1778301447629928
1631021187526,0.5076856017112732,0.129109188914299,-0.4067049026489258,-0.1702685058116912
1631021187589,0.5250936150550842,0.1352821290493011,-0.3986024558544159,-0.1647486686706543
1631021187682,0.5484414100646973,0.131490409374237,-0.3875877559185028,-0.160805195569992
1631021187839,0.5705980658531189,0.1173950284719467,-0.379928857088089,-0.1602912545204162
1631021187917,0.5853509306907654,0.0960290133953094,-0.3835287392139435,-0.166853129863739
1631021188010,0.5885462760925293,0.0713012591004371,-0.4032055139541626,-0.1795925199985504
1631021188135,0.580696165561676,0.0442886762320995,-0.4374354481697082,-0.1945956498384475
1631021188213,0.567982017993927,0.0140695357695221,-0.4791687726974487,-0.2102482169866562
1631021188278,0.5597133636474609,-0.0158139467239379,-0.519308865070343,-0.2278635054826736
1631021188435,0.5614565014839172,-0.0352156050503253,-0.5507360100746155,-0.2482502907514572
1631021188513,0.5706104636192322,-0.0344927944242954,-0.5727839469909668,-0.2651322484016418
1631021188606,0.5806429386138916,-0.0151807535439729,-0.5882896780967712,-0.2705489993095398
1631021188731,0.5855271220207214,0.00895506888628,-0.5991504788398743,-0.26273974776268
1631021188810,0.5819726586341858,0.0242653638124465,-0.6038106083869934,-0.2454244494438171
1631021188872,0.5694900751113892,0.0259446520358324,-0.6011378169059753,-0.2260612100362777
1631021189013,0.5489181876182556,0.0177618563175201,-0.5943277478218079,-0.2133908569812774
1631021189106,0.5210906863212585,0.0083214156329631,-0.5897137522697449,-0.2124799638986587
1631021189216,0.4869242906570434,0.0043328437022864,-0.5905648469924927,-0.2223628610372543
1631021189297,0.4494126141071319,0.0073604094795882,-0.5932842493057251,-0.236162468791008
1631021189375,0.4136432707309723,0.0149330245330929,-0.5922183990478516,-0.2480931729078292
1631021189469,0.384981095790863,0.0227079223841428,-0.5828461050987244,-0.257303237915039
1631021189672,0.3683805763721466,0.0268752444535493,-0.5666879415512085,-0.2643222510814667
1631021189719,0.3676024377346039,0.0260668098926544,-0.5490020513534546,-0.2679490745067596
1631021189829,0.3813168704509735,0.0209092907607555,-0.5338550209999084,-0.2681155800819397
1631021189891,0.4001941680908203,0.0127837108448147,-0.5220718383789062,-0.2650577127933502
1631021189985,0.4140691459178924,0.0010514775058254,-0.5121675729751587,-0.2622401714324951
1631021190078,0.4217375218868255,-0.0161670465022325,-0.5035698413848877,-0.262809544801712
1631021190234,0.4305906891822815,-0.0377712771296501,-0.4964020848274231,-0.2696075141429901
1631021190347,0.4475683569908142,-0.0576743595302104,-0.4920035004615783,-0.2843958139419555
1631021190441,0.4729678630828857,-0.0700185745954513,-0.4915938973426819,-0.3047558963298797
1631021190551,0.5026229023933411,-0.0748491436243057,-0.4965645670890808,-0.3239615261554718
1631021190644,0.5340512990951538,-0.0781384035944938,-0.5067300200462341,-0.3345722556114197
1631021190722,0.5648457407951355,-0.08443084359169,-0.5194433331489563,-0.3336175680160522
1631021190863,0.5913815498352051,-0.0928810611367225,-0.5305472016334534,-0.3273873329162597
1631021190941,0.6110343337059021,-0.1002258360385894,-0.5369250178337097,-0.3235577642917633
1631021191066,0.6240110993385315,-0.1041518598794937,-0.5398367643356323,-0.3246098160743713
1631021191097,0.6314030885696411,-0.1033551394939422,-0.54286128282547,-0.3278345763683319
1631021191238,0.6328593492507935,-0.0977207720279693,-0.5477455258369446,-0.3285528421401977
1631021191316,0.6267668008804321,-0.0889066010713577,-0.5549255013465881,-0.3245935440063476
1631021191488,0.6138030290603638,-0.0798860639333725,-0.5654687881469727,-0.3180617988109588
1631021191566,0.5979573726654053,-0.0723456665873527,-0.5806732177734375,-0.3147660791873932
1631021191644,0.5838679075241089,-0.0651593878865242,-0.5982749462127686,-0.3168461322784424
1631021191769,0.5744543075561523,-0.0568981654942035,-0.6124575734138489,-0.3221827745437622
1631021191816,0.5703009366989136,-0.0477196238934993,-0.6186484098434448,-0.3284760415554046
1631021191956,0.5693574547767639,-0.0392768830060958,-0.6186795830726624,-0.3340019285678863
1631021192050,0.5676313638687134,-0.0338939242064952,-0.6171218156814575,-0.3381273746490478
1631021192144,0.5624791383743286,-0.0321047976613044,-0.6141965985298157,-0.3379459381103515
1631021192287,0.5555232167243958,-0.0328401513397693,-0.6069551706314087,-0.3314269781112671
1631021192365,0.5510919094085693,-0.0345728769898414,-0.5957143306732178,-0.319315105676651
1631021192443,0.5513200759887695,-0.0361618734896183,-0.5838514566421509,-0.3055388629436493
1631021192537,0.5539538860321045,-0.0366150215268135,-0.5736445188522339,-0.2939701676368713
1631021192662,0.5552594661712646,-0.0350962802767753,-0.5627521872520447,-0.2879891693592071
1631021192756,0.5544568300247192,-0.0299728885293006,-0.5486912727355957,-0.2881743311882019
1631021192896,0.5548560619354248,-0.0205849185585975,-0.5299619436264038,-0.2905896306037903
1631021193005,0.5593199729919434,-0.0094578545540571,-0.5068271160125732,-0.2921755909919739
1631021193083,0.5658075213432312,-0.0020891122985631,-0.4831891357898712,-0.2933177053928375
1631021193193,0.5683532357215881,-0.0029009289573878,-0.4631937444210052,-0.2989441454410553
1631021193289,0.5619348287582397,-0.0104086762294173,-0.450041651725769,-0.3125526010990143
1631021193383,0.5465613007545471,-0.0185432787984609,-0.443813294172287,-0.3319652080535888
1631021193461,0.5263139009475708,-0.0222835913300514,-0.4420608878135681,-0.3514731526374817
1631021193601,0.5057042241096497,-0.0214069187641143,-0.4407921135425567,-0.3647424578666687
1631021193695,0.4844318926334381,-0.0198477245867252,-0.4381449818611145,-0.3724400103092193
1631021193773,0.4597135186195373,-0.0215410310775041,-0.4361394047737121,-0.37786865234375
1631021193929,0.4322178661823272,-0.0292545836418867,-0.4387767612934112,-0.3844248354434967
1631021194023,0.4080316424369812,-0.0425937287509441,-0.4478518962860107,-0.3937509059906006
1631021194132,0.3951765298843384,-0.0566774904727935,-0.4603116810321808,-0.4047180712223053
1631021194195,0.3955906927585602,-0.065535232424736,-0.4716192483901977,-0.4147076606750488
1631021194293,0.4020861685276031,-0.0688272193074226,-0.4798170924186706,-0.4219509959220886
1631021194371,0.4064637720584869,-0.0729685351252555,-0.4887425303459167,-0.4282160699367523
1631021194574,0.4075085520744324,-0.0825946927070617,-0.5037162899971008,-0.4369860589504242
1631021194668,0.4114079177379608,-0.0949636325240135,-0.5245652794837952,-0.4435888230800628
1631021194730,0.4258283972740173,-0.1044982820749282,-0.5445792078971863,-0.44010129570961
1631021194777,0.4521048367023468,-0.1113738864660263,-0.555222749710083,-0.4235004186630249
1631021194871,0.4830259084701538,-0.1211821883916854,-0.5527278780937195,-0.3979891836643219
1631021194980,0.5095911026000977,-0.1367954164743423,-0.541526734828949,-0.3727177381515503
1631021195105,0.5274702310562134,-0.1567344218492508,-0.5312392711639404,-0.3561507761478424
1631021195246,0.5385966300964355,-0.1767562180757522,-0.5284484028816223,-0.3523959815502167
1631021195327,0.5463542938232422,-0.191824659705162,-0.530531644821167,-0.3609153926372528
1631021195373,0.5520495772361755,-0.1957776695489883,-0.5253474116325378,-0.3698114156723022
1631021195503,0.5564504265785217,-0.1873212307691574,-0.5015326142311096,-0.3582618534564972
1631021195597,0.5618987679481506,-0.1752703338861465,-0.4610624611377716,-0.3202055990695953
1631021195706,0.5701934695243835,-0.1703064888715744,-0.4164758026599884,-0.2698570787906647
1631021195815,0.581129789352417,-0.1737440824508667,-0.3778547048568725,-0.2240012288093567
1631021195972,0.5938330292701721,-0.1765533536672592,-0.3471974432468414,-0.1886111199855804
1631021196003,0.6088967323303223,-0.1701694726943969,-0.3222683370113373,-0.1600203216075897
1631021196143,0.6259965300559998,-0.1552392542362213,-0.3000696897506714,-0.1347139775753021
1631021196206,0.6406692862510681,-0.1345396190881729,-0.2814720869064331,-0.1129753738641738
1631021196400,0.6471697688102722,-0.1088365837931633,-0.2692258059978485,-0.096393346786499
1631021196438,0.643928050994873,-0.0811650604009628,-0.2647818326950073,-0.0869890451431274
1631021196556,0.6349019408226013,-0.0592386797070503,-0.2664550244808197,-0.0839266628026962
1631021196643,0.6261177659034729,-0.0472460612654686,-0.2700200378894806,-0.0832371637225151
1631021196727,0.620461106300354,-0.0428403653204441,-0.2724551260471344,-0.081155315041542
1631021196832,0.6166839003562927,-0.0408761426806449,-0.2743061184883117,-0.076982744038105
1631021196990,0.611414909362793,-0.0395308434963226,-0.2800840139389038,-0.0755656957626342
1631021197053,0.6024093627929688,-0.0387660712003707,-0.2950174510478973,-0.0843205973505973
1631021197116,0.5907644033432007,-0.0365143008530139,-0.321150541305542,-0.1056727617979049
1631021197225,0.5821006894111633,-0.0299094077199697,-0.3534490168094635,-0.1330480724573135
1631021197303,0.5808926224708557,-0.0185586158186197,-0.3805288970470428,-0.1560043394565582
1631021197502,0.5841765403747559,-0.0035540577955543,-0.393412709236145,-0.1701031178236007
1631021197578,0.5823562145233154,0.0121929226443171,-0.3921923637390136,-0.1786314249038696
1631021197650,0.5688326954841614,0.0235595945268869,-0.3845922946929931,-0.1858162134885788
1631021197740,0.5471763610839844,0.024167938157916,-0.3768069446086883,-0.1894319504499435
1631021197832,0.5284186601638794,0.0116348285228014,-0.3707779943943023,-0.1880228221416473
1631021197979,0.523116409778595,-0.0083831502124667,-0.3673547506332397,-0.1840291619300842
1631021198091,0.5340965986251831,-0.0241381637752056,-0.3659552335739136,-0.1804147660732269
1631021198181,0.5567938685417175,-0.0268671717494726,-0.3648167252540588,-0.1783883273601532
1631021198304,0.5845798254013062,-0.0170976240187883,-0.3624476492404938,-0.1770090758800506
1631021198389,0.6113182306289673,-0.0034885294735431,-0.3597011566162109,-0.1763627678155899
1631021198445,0.6325149536132812,0.0048076291568577,-0.3571562170982361,-0.1763910055160522
1631021198583,0.6458446383476257,0.0038408124819397,-0.3535068035125732,-0.1756985932588577
1631021198653,0.6496901512145996,-0.0050378772430121,-0.3476234078407287,-0.1727342754602432
1631021198778,0.6420325040817261,-0.0186033807694911,-0.3424960672855377,-0.1696652919054031
1631021198871,0.6224917769432068,-0.0354848280549049,-0.3454382419586181,-0.1715437769889831
1631021198950,0.5941712856292725,-0.0577757880091667,-0.3609839379787445,-0.1820986568927765
1631021199121,0.5640690922737122,-0.0854523032903671,-0.3884072303771972,-0.2019240111112594
1631021199168,0.5390313863754272,-0.112711064517498,-0.4227239191532135,-0.2297358512878418
1631021199309,0.5209727883338928,-0.1318737268447876,-0.457706481218338,-0.2650054097175598
1631021199369,0.5082850456237793,-0.1412755101919174,-0.4886468350887298,-0.2906047403812408
1631021199467,0.4985280632972717,-0.1439850628376007,-0.5119923949241638,-0.3177923560142517
1631021199561,0.4819269776344299,-0.1412494331598281,-0.525567352771759,-0.3386127352714538
1631021199670,0.4510892033576965,-0.1342923194169998,-0.5293940305709839,-0.3503167033195495
1631021199749,0.4039578139781952,-0.1277190893888473,-0.5260202884674072,-0.3329654932022095
1631021199873,0.3423094153404236,-0.1254405528306961,-0.5181556344032288,-0.3325926959514618
1631021199983,0.3198823928833008,-0.1257545053958892,-0.5091519951820374,-0.3276828825473785
1631021200139,0.326695829629898,-0.1251988857984542,-0.5032877922058105,-0.3199663758277893
1631021200217,0.3125877380371094,-0.1241317242383956,-0.5046869516372681,-0.3332180678844452
1631021200298,0.3327327668666839,-0.1256473511457443,-0.5147541165351868,-0.3455047011375427
1631021200361,0.3474514186382293,-0.1311622411012649,-0.5313451290130615,-0.3751155436038971
1631021200455,0.3643410801887512,-0.1380191594362259,-0.5478890538215637,-0.379851371049881
1631021200595,0.3858031928539276,-0.1438207030296325,-0.5582227110862732,-0.3523357808589935
1631021200704,0.4097377061843872,-0.1474717706441879,-0.5612751841545105,-0.3052420020103454
1631021200829,0.4325003921985626,-0.1498361080884933,-0.561157763004303,-0.2603148519992828
1631021200923,0.4481146931648254,-0.1516438573598861,-0.5626688003540039,-0.2621023654937744
1631021200986,0.4497238397598266,-0.1530804485082626,-0.5675441026687622,-0.2744568884372711
1631021201064,0.4525081813335418,-0.1550693362951278,-0.5758988857269287,-0.2962400615215301
1631021201236,0.4632742404937744,-0.1560681760311126,-0.5891635417938232,-0.3213837742805481
1631021201345,0.4845975339412689,-0.1521052867174148,-0.607593834400177,-0.3646638989448547
1631021201392,0.5101389288902283,-0.1420509666204452,-0.6251038312911987,-0.3749131858348846
1631021201501,0.5249472856521606,-0.1303115934133529,-0.631253719329834,-0.371208131313324
1631021201595,0.5336219072341919,-0.1211893185973167,-0.622833788394928,-0.3555216193199157
1631021201658,0.5478782057762146,-0.1124127134680748,-0.6056272387504578,-0.3257376253604889
1631021201892,0.5659835338592529,-0.0985156968235969,-0.5884504318237305,-0.3040418326854706
1631021201970,0.5881698131561279,-0.0793595686554908,-0.5742027163505554,-0.281283289194107
1631021202030,0.6063277721405029,-0.0610491447150707,-0.56443852186203,-0.2721009850502014
1631021202101,0.61590176820755,-0.0464722365140914,-0.5603832006454468,-0.2749603688716888
1631021202194,0.6167147755622864,-0.0337170362472534,-0.5615611672401428,-0.2804151475429535
1631021202319,0.6120643615722656,-0.0196323115378618,-0.5645873546600342,-0.2710712850093841
1631021202444,0.605745792388916,-0.0056029935367405,-0.56413334608078,-0.2343458384275436
1631021202522,0.5997119545936584,0.0024641244672238,-0.5571597218513489,-0.1773172169923782
1631021202632,0.593894362449646,0.0003615162568166,-0.5433753728866577,-0.1201295852661132
1631021202741,0.5851468443870544,-0.0116443410515785,-0.523297905921936,-0.0784835889935493
1631021202819,0.5694794058799744,-0.0302343852818012,-0.4994872808456421,-0.0562082082033157
1631021202913,0.5460211634635925,-0.0507161617279052,-0.4808069169521332,-0.0491593293845653
1631021203022,0.5179958343505859,-0.0680058076977729,-0.4775370359420776,-0.0512774251401424
1631021203132,0.4899813830852508,-0.0781509205698967,-0.4924984574317932,-0.0592489689588546
1631021203241,0.4653410911560058,-0.082782357931137,-0.518402099609375,-0.0701759457588195
1631021203352,0.4459540843963623,-0.0858879759907722,-0.5414239168167114,-0.0792101249098777
1631021203450,0.4346798956394195,-0.0869233384728431,-0.5522489547729492,-0.0821851193904876
1631021203559,0.434901475906372,-0.0823248103260994,-0.5503396987915039,-0.0790888965129852
1631021203653,0.4464161098003387,-0.0753767266869545,-0.5391781330108643,-0.0751797184348106
1631021203778,0.4643113911151886,-0.0754980966448783,-0.5221483707427979,-0.0770001709461212
1631021203872,0.4802539050579071,-0.0876427143812179,-0.5022298693656921,-0.0907257795333862
1631021203934,0.4892250299453735,-0.1059753820300102,-0.4844950139522552,-0.1215322911739349
1631021204044,0.4912207722663879,-0.1206495016813278,-0.4746272265911102,-0.1694003492593765
1631021204137,0.4885663390159607,-0.1278321295976638,-0.4766865372657776,-0.2239729017019271
1631021204262,0.4829898178577423,-0.1303006559610366,-0.4912813007831573,-0.2668942511081695
1631021204406,0.476146787405014,-0.1293466836214065,-0.514866828918457,-0.2866577208042145
1631021204453,0.4698873460292816,-0.1234431192278862,-0.539806604385376,-0.2877154350280761
1631021204562,0.4643898606300354,-0.1141289919614791,-0.5581008791923523,-0.2832124829292297
1631021204687,0.457070529460907,-0.1087582558393478,-0.5645790696144104,-0.2780220210552215
1631021204734,0.4448679387569427,-0.1119407564401626,-0.5604099035263062,-0.2720692455768585
1631021204859,0.4271790981292724,-0.1223030909895896,-0.5527977347373962,-0.2666207551956177
1631021204984,0.4054113924503326,-0.1362930983304977,-0.5485872626304626,-0.2640754878520965
1631021205047,0.3808631300926208,-0.1505085974931717,-0.5506089925765991,-0.265186607837677
1631021205156,0.355736643075943,-0.1595963239669799,-0.5564483404159546,-0.263622373342514
1631021205250,0.3340859115123749,-0.1574224531650543,-0.5632977485656738,-0.2560920119285583
1631021205376,0.3223776221275329,-0.1440406441688537,-0.5714725255966187,-0.2461048811674118
1631021205455,0.3250949382781982,-0.1257319450378418,-0.579982578754425,-0.2386035621166229
1631021205580,0.3395134806632995,-0.1075265184044838,-0.5842677354812622,-0.2361939549446106
1631021205658,0.355259895324707,-0.0915031507611274,-0.5818247199058533,-0.2378054857254028
1631021205767,0.3634065091609955,-0.0798694640398025,-0.5765377879142761,-0.2395568937063217
1631021205845,0.3627445697784424,-0.0772051215171814,-0.5733911395072937,-0.2342810183763504
1631021206001,0.3631165325641632,-0.0860032215714454,-0.5689130425453186,-0.2107067555189132
1631021206109,0.3785052895545959,-0.1027395650744438,-0.5550066828727722,-0.1665578335523605
1631021206212,0.4117769598960876,-0.1182262077927589,-0.5336605310440063,-0.1167843118309974
1631021206294,0.4513387680053711,-0.1250369250774383,-0.516438364982605,-0.0792610347270965
1631021206388,0.4829549491405487,-0.1215506494045257,-0.5117363333702087,-0.0622634030878543
1631021206466,0.5023193955421448,-0.1109093651175499,-0.515843391418457,-0.0622838735580444
1631021206544,0.5142494440078735,-0.0962898358702659,-0.5175926089286804,-0.0693581774830818
1631021206669,0.5257981419563293,-0.0780413448810577,-0.5100789070129395,-0.0770629942417144
1631021206779,0.53885418176651,-0.0533319078385829,-0.4945330023765564,-0.0839956179261207
1631021206935,0.5501127243041992,-0.0225281845778226,-0.4757249653339386,-0.0898829475045204
1631021206966,0.5545351505279541,0.0065732332877814,-0.4601369798183441,-0.0931195393204689
1631021207060,0.5516480803489685,0.0257813166826963,-0.4520927965641022,-0.0914564356207847
1631021207169,0.5469937324523926,0.0356145054101944,-0.4498645365238189,-0.0856097042560577
1631021207294,0.5474587082862854,0.0461271107196807,-0.4462941288948059,-0.0806241035461425
1631021207403,0.5547107458114624,0.0668406635522842,-0.4361628592014313,-0.0842698663473129
1631021207497,0.5617568492889404,0.0952759087085723,-0.4239462018013,-0.1056947335600853
1631021207591,0.5589459538459778,0.1230325996875763,-0.4174278378486633,-0.1475619077682495
1631021207685,0.5426114797592163,0.1435198634862899,-0.4172490239143371,-0.197852537035942
1631021207778,0.5181364417076111,0.1555129438638687,-0.4173184335231781,-0.2332716286182403
1631021207951,0.4965390861034393,0.1600711941719055,-0.4108552932739258,-0.2403817176818847
1631021207997,0.4847743809223175,0.1583011448383331,-0.3993167877197265,-0.2308242172002792
1631021208184,0.4827837646007538,0.1512104868888855,-0.3906205892562866,-0.2211926430463791
1631021208216,0.4848755896091461,0.1388361603021621,-0.3911640644073486,-0.2148841619491577
1631021208312,0.4863085150718689,0.1203989461064338,-0.4012850224971771,-0.207462653517723
1631021208390,0.4853261411190033,0.0979194566607475,-0.4145945608615875,-0.1975708305835724
1631021208547,0.482937216758728,0.0787031799554824,-0.4225374758243561,-0.1878494322299957
1631021208594,0.4803778827190399,0.0685169920325279,-0.4199271202087402,-0.1812468022108078
1631021208719,0.4784215688705444,0.0641233399510383,-0.4082432091236114,-0.1790984869003296
1631021208828,0.4778909385204315,0.0544963143765926,-0.3938613533973694,-0.18073271214962
1631021208906,0.4798523187637329,0.031633049249649,-0.3833247721195221,-0.1822053045034408
1631021209000,0.4851268529891968,-0.000542480032891,-0.3788800537586212,-0.1808529645204544
1631021209156,0.4935509860515594,-0.031471848487854,-0.378901869058609,-0.1803358942270279
1631021209250,0.5037704706192017,-0.0512289814651012,-0.3818048536777496,-0.1909241676330566
1631021209346,0.5123239159584045,-0.0585987940430641,-0.3872551620006561,-0.2192349731922149
1631021209409,0.5159628391265869,-0.0576130226254463,-0.3953761756420135,-0.26069176197052
1631021209518,0.5133022665977478,-0.0494491383433342,-0.4037423729896545,-0.3000915348529815
1631021209596,0.5036647319793701,-0.0355933383107185,-0.4090575277805328,-0.327052503824234
1631021209737,0.4888546168804168,-0.0202430244535207,-0.4108892679214477,-0.3455654978752136
1631021209878,0.4743238091468811,-0.0085529536008834,-0.4124757647514343,-0.3638179898262024
1631021209940,0.4697923362255096,-0.0025357599370181,-0.418774664402008,-0.3835017383098602
1631021210018,0.4827170670032501,0.0009276175987906,-0.4303528964519501,-0.4006969630718231
1631021210112,0.5093464255332947,0.0067135244607925,-0.443546712398529,-0.4121899902820587
1631021210206,0.5374035239219666,0.0154426218941807,-0.4552457630634308,-0.4190445244312286
1631021210317,0.5571874976158142,0.023317102342844,-0.4652563333511352,-0.4225938022136688
1631021210427,0.5675512552261353,0.0263385195285081,-0.4730462431907654,-0.425548791885376
1631021210536,0.5732235908508301,0.0229976177215576,-0.4772312939167022,-0.4290918111801147
1631021210614,0.5776016116142273,0.014982652850449,-0.4789498448371887,-0.4306688010692596
1631021210739,0.5804733633995056,0.0050101047381758,-0.4820864796638489,-0.4236985445022583
1631021210833,0.5819922685623169,-0.0042876210063695,-0.4878005683422088,-0.4032889902591705
1631021210942,0.5835208892822266,-0.0126503650099039,-0.49280446767807,-0.3711675107479095
1631021211068,0.5861763954162598,-0.0244354363530874,-0.4941876530647278,-0.3352127373218536
1631021211130,0.5893114805221558,-0.0437971502542495,-0.4928507506847381,-0.3029046654701233
1631021211239,0.592251718044281,-0.0699471160769462,-0.4908463358879089,-0.2775301039218902
1631021211317,0.5955133438110352,-0.0981055572628974,-0.4879542887210846,-0.2598710656166076
1631021211473,0.5980142951011658,-0.1244536489248275,-0.4827863872051239,-0.2491708993911743
1631021211629,0.5960148572921753,-0.1475339978933334,-0.4739704132080078,-0.2433614879846573
1631021211708,0.5867153406143188,-0.1621333360671997,-0.4627432823181152,-0.2395682781934738
1631021211739,0.5710963010787964,-0.1611556708812713,-0.4531311690807342,-0.2347410023212433
1631021211848,0.5515922904014587,-0.1451526880264282,-0.4503823518753052,-0.228784829378128
1631021211942,0.5290089249610901,-0.124381810426712,-0.4568478167057037,-0.2231334447860717
1631021212067,0.50166916847229,-0.1068364605307579,-0.4694451093673706,-0.218995526432991
1631021212161,0.4715481400489807,-0.0934017300605773,-0.4800002872943878,-0.2180202603340149
1631021212270,0.4444217681884765,-0.08305274695158,-0.4803981781005859,-0.2220460474491119
1631021212414,0.4232748746871948,-0.0765665024518966,-0.4703084826469421,-0.2340283393859863
1631021212476,0.4073459506034851,-0.0741366744041442,-0.456374853849411,-0.2543358206748962
1631021212680,0.3966074287891388,-0.0713471099734306,-0.4461970031261444,-0.2786004841327667
1631021212711,0.3935143947601318,-0.0620229206979274,-0.4424213171005249,-0.2982124090194702
1631021212805,0.3951514065265655,-0.042376335710287,-0.442906767129898,-0.303218275308609
1631021212945,0.3916306793689728,-0.0141184506937861,-0.4439250230789184,-0.2879176139831543
1631021213008,0.3747795820236206,0.0152472583577036,-0.4440522491931915,-0.2589185535907745
1631021213054,0.3463227152824402,0.0344396084547042,-0.4459268152713775,-0.2320042550563812
1631021213179,0.3189012706279754,0.0350586920976638,-0.451237142086029,-0.2195673584938049
1631021213292,0.3079461455345154,0.0192975625395774,-0.455918401479721,-0.2219884544610977
1631021213386,0.3239620327949524,0.0014848269056528,-0.4517060816287994,-0.2309001833200454
1631021213495,0.3648241460323334,-0.0020256622228771,-0.4356326162815094,-0.2359121292829513
1631021213620,0.4170378446578979,0.0111544337123632,-0.413474291563034,-0.233157530426979
1631021213698,0.4634386003017425,0.0286557897925376,-0.3941147625446319,-0.2225140184164047
1631021213776,0.4947444200515747,0.0391188822686672,-0.3822156190872192,-0.2049031406641006
1631021213901,0.5118209719657898,0.0405830554664135,-0.3766921460628509,-0.1824748963117599
1631021213980,0.5210049748420715,0.036555215716362,-0.3745373785495758,-0.1607595235109329
1631021214073,0.5290847420692444,0.0294053256511688,-0.3746038675308227,-0.1469364911317825
1631021214167,0.5385444760322571,0.0191126186400651,-0.3775011003017425,-0.143740177154541
1631021214339,0.5494805574417114,0.0052701025269925,-0.3833804130554199,-0.1513651460409164
1631021214386,0.5605201721191406,-0.0114362267777323,-0.3918512165546417,-0.169406846165657
1631021214480,0.5706857442855835,-0.0281229894608259,-0.4022372663021087,-0.1930251717567443
1631021214620,0.5799381732940674,-0.0399251468479633,-0.4139775335788727,-0.2093253284692764
1631021214729,0.5884687304496765,-0.0412475690245628,-0.4272010028362274,-0.2020996958017349
1631021214854,0.5956927537918091,-0.0319328866899013,-0.4404452741146087,-0.1696279495954513
1631021214901,0.598602831363678,-0.0208010468631982,-0.4522948563098907,-0.1275531500577926
1631021214995,0.5927534103393555,-0.0174640603363513,-0.4631462693214416,-0.0933363065123558
1631021215104,0.577483057975769,-0.023915521800518,-0.4754014611244201,-0.0735767781734466
1631021215245,0.5593358874320984,-0.0323614217340946,-0.4891501367092132,-0.0649569034576416
1631021215342,0.547860324382782,-0.0313831083476543,-0.4993864893913269,-0.0600678250193595
1631021215451,0.5483224987983704,-0.0171465314924716,-0.5012339353561401,-0.0531658083200454
1631021215513,0.556787371635437,0.0034696816001087,-0.4949447512626648,-0.0427723452448844
1631021215591,0.5634930729866028,0.0203924011439085,-0.4826085865497589,-0.0304284300655126
1631021215701,0.5630971193313599,0.0278295967727899,-0.465608537197113,-0.0188420973718166
1631021215826,0.559451699256897,0.0257094893604517,-0.4458284974098205,-0.0091614555567502
1631021215920,0.5626817941665649,0.0180317349731922,-0.4266946017742157,6.768640014342964e-05
1631021216045,0.5774296522140503,0.0095731811597943,-0.4110343158245086,0.0091327596455812
1631021216107,0.5972656607627869,0.0038223124574869,-0.4001940190792084,0.0139819681644439
1631021216201,0.612241268157959,0.0002229634992545,-0.394191175699234,0.0078292721882462
1631021216312,0.618339478969574,-0.0046510598622262,-0.3939843773841858,-0.0121259968727827
1631021216499,0.6176601052284241,-0.0131493816152215,-0.3975402116775512,-0.0410918146371841
1631021216562,0.613669753074646,-0.0247769225388765,-0.4011825919151306,-0.0689504668116569
1631021216624,0.6080594062805176,-0.0367102622985839,-0.4034463763236999,-0.0889544114470481
1631021216749,0.6000373959541321,-0.0473531894385814,-0.4078135788440704,-0.1034042462706565
1631021216874,0.5888359546661377,-0.0585308372974395,-0.4199208915233612,-0.1192342564463615
1631021216952,0.5746419429779053,-0.0732957571744918,-0.440083384513855,-0.1415593028068542
1631021217077,0.5600615739822388,-0.0917475447058677,-0.4639538824558258,-0.1694998294115066
1631021217140,0.5491814017295837,-0.1073996052145958,-0.4882278442382812,-0.1967090517282486
1631021217265,0.5440438985824585,-0.112309418618679,-0.5138029456138611,-0.2172765582799911
1631021217327,0.5417569875717163,-0.1040584072470665,-0.5426490306854248,-0.2291690856218338
1631021217436,0.5355750918388367,-0.0868346989154815,-0.5717336535453796,-0.2373456060886383
1631021217593,0.5203653573989868,-0.0671747624874115,-0.5939516425132751,-0.2477807253599167
1631021217686,0.498543381690979,-0.0513688251376152,-0.6042554974555969,-0.2591834366321563
1631021217765,0.478488564491272,-0.044110681861639,-0.6033479571342468,-0.2654951512813568
1631021217843,0.4657705128192901,-0.0455638356506824,-0.5940303802490234,-0.265066921710968
1631021217936,0.4593879282474518,-0.0497496053576469,-0.5806014537811279,-0.2610329389572143
1631021218046,0.4585940241813659,-0.0485303178429603,-0.5660353899002075,-0.2555895149707794
1631021218124,0.4667166769504547,-0.0401427261531353,-0.5510068535804749,-0.2471370548009872
1631021218264,0.4858847260475158,-0.0297726187855005,-0.53570556640625,-0.2366331219673156
1631021218346,0.511253833770752,-0.0238696094602346,-0.5218369960784912,-0.2313859611749649
1631021218471,0.5351517200469971,-0.0241849087178707,-0.5131894946098328,-0.2349960803985595
1631021218596,0.5535582304000854,-0.0260112956166267,-0.5109574198722839,-0.2448194921016693
1631021218689,0.5665708780288696,-0.0237731151282787,-0.5110130906105042,-0.2548613846302032
1631021218799,0.5754886269569397,-0.0152067970484495,-0.5061790347099304,-0.2600706815719604
1631021218877,0.5807147026062012,-4.038233964820392e-05,-0.4913668930530548,-0.2599200010299682
1631021219002,0.5830312967300415,0.0213399119675159,-0.4687795042991638,-0.2572021782398224
1631021219127,0.5855257511138916,0.0458349920809268,-0.4472396969795227,-0.2567516267299652
1631021219189,0.589397668838501,0.0686245709657669,-0.434421956539154,-0.2613457143306732
1631021219252,0.5921444892883301,0.0853534713387489,-0.4324038624763489,-0.266311377286911
1631021219345,0.5909210443496704,0.0940321013331413,-0.4396632015705108,-0.2628525495529175
1631021219486,0.5858954191207886,0.0969385206699371,-0.4556536078453064,-0.2482620179653167
1631021219549,0.5795341730117798,0.0994796752929687,-0.4802095293998718,-0.2306212186813354
1631021219783,0.5716850161552429,0.1072543486952781,-0.5097306966781616,-0.220511183142662
1631021219814,0.5693796873092651,0.1209282502532005,-0.534980833530426,-0.2246994078159332
1631021219923,0.5643133521080017,0.135478526353836,-0.5438579320907593,-0.2214556336402893
1631021219970,0.5591082572937012,0.1450589746236801,-0.5435768961906433,-0.2056289762258529
1631021220064,0.5548276901245117,0.1468636244535446,-0.5385318398475647,-0.1806873381137848
1631021220189,0.5499244332313538,0.1410045027732849,-0.5355610847473145,-0.1547164022922516
1631021220348,0.5422958731651306,0.1290687918663025,-0.5405723452568054,-0.1344941407442093
1631021220427,0.531272828578949,0.1113677024841308,-0.5584411025047302,-0.1225443705916404
1631021220473,0.5169197916984558,0.0898294001817703,-0.592586100101471,-0.1164557188749313
1631021220567,0.4963478446006775,0.0713753625750541,-0.6386643052101135,-0.1073910742998123
1631021220739,0.4678705036640167,0.0644937828183174,-0.6826474070549011,-0.0868496000766754
1631021220895,0.4365107417106628,0.071786843240261,-0.7092814445495605,-0.0582843124866485
1631021220942,0.4365107417106628,0.0882343724370002,-0.7171754837036133,-0.0582843124866485
1631021220989,0.4365107417106628,0.1080504208803176,-0.7171754837036133,-0.0582843124866485
1631021221083,0.4365107417106628,0.1292738765478134,-0.7171754837036133,-0.0582843124866485
1631021221176,0.4365107417106628,0.1505906283855438,-0.7171754837036133,-0.0582843124866485
1631021221385,0.4365107417106628,0.1695417463779449,-0.7171754837036133,-0.0582843124866485
1631021221479,0.4365107417106628,0.1852024346590042,-0.3179473280906677,0.1055045500397682
1631021221510,0.4365107417106628,0.2009220719337463,-0.35161954164505,0.1024928763508796
1631021221572,0.753346860408783,0.2201588302850723,-0.388138473033905,0.0857424363493919
1631021221697,0.7170173525810242,0.2429440319538116,-0.4218822121620178,0.0599654354155063
1631021221807,0.6858826875686646,0.2665920257568359,-0.4447239339351654,0.0346923656761646
1631021222041,0.6652852892875671,0.2886342108249664,-0.4526736140251159,0.0158665403723716
1631021222088,0.6529476046562195,0.3059976994991302,-0.4519819915294647,0.0026811386924237
1631021222119,0.6428834199905396,0.3154752254486084,-0.4527904689311981,-0.0091237053275108
1631021222213,0.6315672397613525,0.3161952495574951,-0.458467036485672,-0.0231794882565736
1631021222293,0.6197677254676819,0.3117635846138,-0.4641493558883667,-0.0405951291322708
1631021222465,0.6091564297676086,0.3080506920814514,-0.4635914266109466,-0.0600016936659812
1631021222575,0.6008574962615967,0.3068160712718963,-0.4573678970336914,-0.0793338790535926
1631021222653,0.5952572822570801,0.3029476404190063,-0.4637802243232727,-0.1097454875707626
1631021222715,0.5916600823402405,0.2902072370052337,-0.4764532148838043,-0.1442605406045913
1631021222840,0.5679292678833008,0.2681383490562439,-0.4876255989074707,-0.1828050464391708
1631021222918,0.5414299964904785,0.2418088912963867,-0.4890270531177521,-0.2246670871973037
1631021223043,0.5154908299446106,0.2154014557600021,-0.4775363802909851,-0.2660519778728485
1631021223137,0.4963655769824981,0.1890279948711395,-0.4554037749767303,-0.300191581249237
1631021223231,0.4876213073730469,0.1603574603796005,-0.430073618888855,-0.3233399391174316
1631021223326,0.4857252836227417,0.1293428838253021,-0.4110937118530273,-0.3370067179203033
1631021223420,0.4855960309505462,0.0975382551550865,-0.40437051653862,-0.3430252969264984
1631021223592,0.4875348806381225,0.066055491566658,-0.4060321450233459,-0.3374488651752472
1631021223701,0.4944741129875183,0.0351780951023101,-0.4047603905200958,-0.3145148456096649
1631021223764,0.5050994157791138,0.0056766364723443,-0.3945121467113495,-0.2772652506828308
1631021223842,0.513019859790802,-0.0215262956917285,-0.3820317387580871,-0.2360670715570449
1631021223967,0.5139468908309937,-0.0479787550866603,-0.3770830929279327,-0.1993978172540664
1631021224154,0.5083625912666321,-0.0784285590052604,-0.3819383978843689,-0.1681589186191558
1631021224232,0.4992159903049469,-0.1141172796487808,-0.3904163539409637,-0.1400065571069717
1631021224314,0.4907786846160888,-0.1475045680999755,-0.3972396552562713,-0.1127737388014793
1631021224376,0.4876672923564911,-0.1678587347269058,-0.4026061296463012,-0.0870917811989784
1631021224439,0.4921565353870392,-0.1709399819374084,-0.4094002842903137,-0.0638140812516212
1631021224564,0.5023522973060608,-0.1627516001462936,-0.4191626906394958,-0.0432444736361503
1631021224782,0.5144762992858887,-0.1514942795038223,-0.4323451817035675,-0.0257421843707561
1631021224829,0.5265175104141235,-0.1408620923757553,-0.4477836787700653,-0.0123222805559635
1631021224876,0.5391385555267334,-0.1328038722276687,-0.4629006385803222,-0.004659364465624
1631021225001,0.553790807723999,-0.1276382356882095,-0.4735904932022095,-0.0045033376663923
1631021225095,0.5697281360626221,-0.1244259476661682,-0.4786162376403808,-0.0131837232038378
1631021225300,0.5841232538223267,-0.1215720251202583,-0.4821637868881225,-0.0317446552217006
1631021225381,0.5937910079956055,-0.1190522462129592,-0.4894928932189941,-0.0585623532533645
1631021225428,0.5972533226013184,-0.1190877109766006,-0.4997470676898956,-0.0891323983669281
1631021225474,0.5967111587524414,-0.1213453635573387,-0.5078802704811096,-0.1182737126946449
1631021225568,0.5973851084709167,-0.1192996278405189,-0.5098732709884644,-0.1440564692020416
1631021225677,0.6024575233459473,-0.104527361690998,-0.5065330266952515,-0.1670129597187042
1631021225849,0.6106131672859192,-0.0782612040638923,-0.499844878911972,-0.190098762512207
1631021225927,0.6170731782913208,-0.0519629009068012,-0.4921853840351105,-0.2156309634447097
1631021225974,0.6181846261024475,-0.0360203459858894,-0.4865141212940216,-0.2421051412820816
1631021226052,0.6140348315238953,-0.0316433571279048,-0.4861074686050415,-0.2645842432975769
1631021226193,0.6056177616119385,-0.0338198505342006,-0.4908384382724762,-0.276937335729599
1631021226293,0.593147337436676,-0.0364287383854389,-0.4960219264030456,-0.2766426503658294
1631021226418,0.5756520628929138,-0.0372496433556079,-0.4975055754184723,-0.2677946388721466
1631021226481,0.5519778728485107,-0.0390953682363033,-0.4967245757579803,-0.2532626986503601
1631021226559,0.5230923295021057,-0.0457924306392669,-0.4981969594955444,-0.2294458150863647
1631021226684,0.4944736957550049,-0.0582517907023429,-0.5005022287368774,-0.1794564127922058
1631021226793,0.4758551716804504,-0.0718631148338317,-0.4948292374610901,-0.0973014906048774
1631021226887,0.4747322201728821,-0.0804112181067466,-0.475286453962326,-0.0032079184893518
1631021227074,0.4881372451782226,-0.0835525840520858,-0.4485704600811004,0.0758318677544593
1631021227105,0.5039486289024353,-0.0870258882641792,-0.4248749017715454,0.1285605877637863
1631021227168,0.5133686065673828,-0.0971327126026153,-0.4085633456707001,0.1597291380167007
1631021227292,0.5151874423027039,-0.1147055774927139,-0.3983349800109863,0.1803647726774215
1631021227421,0.5140919089317322,-0.1331216245889663,-0.3926711678504944,0.196914404630661
1631021227499,0.5160627365112305,-0.1439905315637588,-0.392541229724884,0.2081531733274459
1631021227593,0.523951530456543,-0.1440544426441192,-0.397964209318161,0.211767703294754
1631021227718,0.5362794399261475,-0.1373967379331588,-0.4061864614486694,0.2077183127403259
1631021227765,0.5508152842521667,-0.131986528635025,-0.4119617640972137,0.1985343992710113
1631021227905,0.5662029981613159,-0.1333039402961731,-0.4081222712993622,0.1875263154506683
1631021228030,0.5815593004226685,-0.1401733011007309,-0.3893851935863495,0.1766382455825805
1631021228124,0.5962938666343689,-0.1456575393676757,-0.3595117628574371,0.1645901650190353
1631021228202,0.6090698838233948,-0.1412267982959747,-0.3327482342720032,0.1423702239990234
1631021228298,0.6179149746894836,-0.1258942931890487,-0.3222263157367706,0.0984681695699691
1631021228392,0.6208845973014832,-0.1042564883828163,-0.3308767974376678,0.0280482769012451
1631021228486,0.6169674396514893,-0.0809011161327362,-0.3512027561664581,-0.0595446452498436
1631021228642,0.6074452996253967,-0.0604804307222366,-0.3744782507419586,-0.1453328281641006
1631021228705,0.594375491142273,-0.0490477122366428,-0.3981086611747741,-0.2191134542226791
1631021228814,0.5787250995635986,-0.0499369464814662,-0.4228384494781494,-0.2868918776512146
1631021228923,0.5601869225502014,-0.0592580959200859,-0.4447953402996063,-0.351648598909378
1631021229001,0.5397593379020691,-0.0660867169499397,-0.4549987912178039,-0.3979017436504364
1631021229095,0.518710732460022,-0.0621238388121128,-0.4502203166484833,-0.411965936422348
1631021229220,0.4997234344482422,-0.0474205613136291,-0.4384607374668121,-0.4002918601036072
1631021229347,0.484838455915451,-0.0282187275588512,-0.4315660297870636,-0.3794228136539459
1631021229426,0.4745320975780487,-0.0101288566365838,-0.4365510940551758,-0.3613547086715698
1631021229550,0.4659792184829712,0.0048263403587043,-0.4531324803829193,-0.3509950637817383
1631021229629,0.4527742266654968,0.0188216734677553,-0.4750346541404724,-0.3492680191993713
1631021229754,0.4300033748149872,0.0334281772375106,-0.4934573173522949,-0.3537158370018005
1631021229847,0.3996971845626831,0.0473510175943374,-0.503616213798523,-0.3568813800811767
1631021229957,0.3724125921726227,0.0587105192244052,-0.5098086595535278,-0.3549407422542572
1631021230066,0.3603986501693725,0.0668319016695022,-0.5187599062919617,-0.348976194858551
1631021230128,0.367046445608139,0.0736407712101936,-0.5295663475990295,-0.339446097612381
1631021230238,0.3863430023193359,0.0825706496834755,-0.5349190831184387,-0.3244863450527191
1631021230319,0.4100569486618042,0.0968511253595352,-0.5321588516235352,-0.3050093054771423
1631021230460,0.4228443801403045,0.1151806488633155,-0.5273035764694214,-0.2859612107276916
1631021230569,0.4386924505233764,0.1302600353956222,-0.5242853164672852,-0.2647177278995514
1631021230632,0.4557890295982361,0.1346332728862762,-0.516613781452179,-0.2693443596363067
1631021230741,0.471064418554306,0.1268173456192016,-0.4962208569049835,-0.2748187184333801
1631021230804,0.4809132516384125,0.1125362589955329,-0.4682775735855102,-0.2776975333690643
1631021230975,0.4835157990455627,0.0990108698606491,-0.448013424873352,-0.2759309411048889
1631021231053,0.4813323616981506,0.0896666944026947,-0.4463793635368347,-0.2687206566333771
1631021231163,0.4814502894878387,0.0815116837620735,-0.4630254209041595,-0.2567771673202514
1631021231283,0.491752952337265,0.069093570113182,-0.4869396090507507,-0.2412276715040207
1631021231355,0.5139855742454529,0.0501917600631713,-0.5038473606109619,-0.2267500758171081
1631021231480,0.5421090722084045,0.0275334361940622,-0.5037862658500671,-0.21246337890625
1631021231527,0.5421090722084045,0.0088392039760947,-0.4896242022514343,-0.1357538551092147
1631021231667,0.5421090722084045,0.0007569718873128,-0.4726544618606567,-0.0863488465547561
1631021231761,0.5421090722084045,0.0017503779381513,-0.4609763026237488,-0.071758933365345
1631021231886,0.5421090722084045,0.0020071554463356,-0.4530035555362701,-0.0478953793644905
1631021231948,0.5421090722084045,-0.0062823388725519,-0.4424473941326141,-0.026734784245491
1631021232042,0.5421090722084045,-0.02034742385149,-0.4293805956840515,-0.026734784245491
1631021232136,0.5421090722084045,-0.0291278287768363,-0.4291579127311706,-0.026734784245491
1631021232309,0.5421090722084045,-0.0268589649349451,-0.4426162540912628,-0.026734784245491
1631021232371,0.5421090722084045,-0.0147830666974186,-0.4659400880336761,-0.026734784245491
1631021232466,0.5421090722084045,0.0024342662654817,-0.4851635098457336,-0.026734784245491
1631021232543,0.5421090722084045,0.0220169797539711,-0.4878260791301727,-0.026734784245491
1631021232684,0.5421090722084045,0.0437686033546924,-0.4747237861156463,-0.026734784245491
1631021232793,0.5421090722084045,0.0686254203319549,-0.4578237533569336,-0.026734784245491
1631021232903,0.5421090722084045,0.0979417562484741,-0.4477473199367523,-0.026734784245491
1631021232965,0.5421090722084045,0.1295136958360672,-0.4496911764144897,-0.026734784245491
1631021233074,0.5421090722084045,0.153521254658699,-0.4589652419090271,-0.026734784245491
1631021233184,0.5421090722084045,0.153521254658699,-0.4627799689769745,-0.026734784245491
1631021233289,0.5421090722084045,0.153521254658699,-0.452908992767334,-0.026734784245491
1631021233375,0.5421090722084045,0.153521254658699,-0.4371397495269775,-0.026734784245491
1631021233516,0.5421090722084045,0.153521254658699,-0.4237212836742401,-0.026734784245491
1631021233625,0.3733492791652679,-0.2984298169612884,-0.4009031951427459,0.2743113338947296
1631021233703,0.3733492791652679,-0.3159761428833008,-0.4009031951427459,0.2743113338947296
1631021233812,0.3733492791652679,-0.3159761428833008,-0.4009031951427459,0.2743113338947296
1631021233906,0.3733492791652679,-0.3159761428833008,-0.4009031951427459,0.2743113338947296
1631021233968,0.3733492791652679,-0.3159761428833008,-0.4009031951427459,0.2743113338947296
1631021234124,0.3733492791652679,-0.3159761428833008,-0.4009031951427459,0.2743113338947296
1631021234234,0.3733492791652679,-0.3159761428833008,-0.4009031951427459,0.2743113338947296
1631021234301,0.3733492791652679,-0.3159761428833008,-0.4009031951427459,0.2743113338947296
1631021234441,0.3733492791652679,-0.3159761428833008,-0.4009031951427459,0.2743113338947296
1631021234504,0.3733492791652679,-0.3159761428833008,-0.4009031951427459,0.2743113338947296
1631021234675,0.3733492791652679,-0.3159761428833008,-0.4009031951427459,0.2743113338947296
1631021234738,0.3733492791652679,-0.3159761428833008,-0.4009031951427459,0.2743113338947296
1631021234832,0.3733492791652679,-0.3290978968143463,-0.4009031951427459,0.2743113338947296
1631021234910,0.3733492791652679,-0.3290978968143463,-0.4009031951427459,0.2743113338947296
1631021235004,0.3733492791652679,-0.3290978968143463,-0.4009031951427459,0.2743113338947296
1631021235160,0.3733492791652679,-0.3290978968143463,-0.4009031951427459,0.2743113338947296
1631021235222,0.3733492791652679,-0.3290978968143463,-0.4009031951427459,0.2743113338947296
1631021235335,0.3733492791652679,-0.3290978968143463,-0.4009031951427459,0.2743113338947296
1631021235429,0.3733492791652679,-0.3290978968143463,-0.4009031951427459,0.2743113338947296
1631021235507,0.3733492791652679,-0.3290978968143463,-0.4009031951427459,0.2743113338947296
1631021235647,0.3733492791652679,-0.3290978968143463,-0.4009031951427459,0.2743113338947296
1631021235726,0.3733492791652679,-0.3290978968143463,-0.4009031951427459,0.2743113338947296
1631021235835,0.3733492791652679,-0.3290978968143463,-0.4009031951427459,0.2743113338947296
1631021235913,0.3733492791652679,-0.3290978968143463,-0.4009031951427459,0.2743113338947296
1631021236069,0.3733492791652679,-0.3290978968143463,-0.4009031951427459,0.2743113338947296
1631021236132,0.3733492791652679,-0.3290978968143463,-0.4009031951427459,0.2743113338947296
1631021236241,0.3733492791652679,-0.3290978968143463,-0.4009031951427459,0.2743113338947296
1631021236325,0.3733492791652679,-0.3290978968143463,-0.3585761487483978,0.2743113338947296
1631021236450,0.3733492791652679,-0.3290978968143463,-0.3120460212230682,0.2743113338947296
1631021236590,0.3733492791652679,-0.3290978968143463,-0.3120460212230682,0.2743113338947296
1631021236621,0.3733492791652679,-0.3290978968143463,-0.3120460212230682,0.2743113338947296
1631021236731,0.3733492791652679,-0.3290978968143463,-0.3120460212230682,0.2743113338947296
1631021236856,0.3733492791652679,-0.3290978968143463,-0.3120460212230682,0.2743113338947296
1631021236918,0.3733492791652679,-0.3290978968143463,-0.3120460212230682,0.2743113338947296
1631021237028,0.3733492791652679,-0.3290978968143463,-0.3120460212230682,0.2743113338947296
1631021237137,0.3733492791652679,-0.3290978968143463,-0.3120460212230682,0.2743113338947296
1631021237297,0.3733492791652679,-0.3290978968143463,-0.3120460212230682,0.2743113338947296
1631021237344,0.3733492791652679,-0.3290978968143463,-0.3120460212230682,0.2743113338947296
1631021237484,0.3733492791652679,-0.3290978968143463,-0.3120460212230682,0.2743113338947296
1631021237547,0.3733492791652679,-0.3290978968143463,-0.270006775856018,0.2743113338947296
1631021237641,0.3733492791652679,-0.3290978968143463,-0.270006775856018,0.2743113338947296
1631021237766,0.3733492791652679,-0.3290978968143463,-0.270006775856018,0.2743113338947296
1631021237859,0.3733492791652679,-0.3290978968143463,-0.270006775856018,0.2743113338947296
1631021237969,0.3733492791652679,-0.3290978968143463,-0.270006775856018,0.2743113338947296
1631021238047,0.3733492791652679,-0.3290978968143463,-0.270006775856018,0.2743113338947296
1631021238187,0.3733492791652679,-0.3290978968143463,-0.270006775856018,0.2743113338947296
1631021238234,0.3733492791652679,-0.3290978968143463,-0.270006775856018,0.2743113338947296
1631021238363,0.3733492791652679,-0.3290978968143463,-0.270006775856018,0.2743113338947296
1631021238504,0.3733492791652679,-0.3290978968143463,-0.270006775856018,0.2743113338947296
1631021238582,0.3733492791652679,-0.3290978968143463,-0.270006775856018,0.2743113338947296
1631021238675,0.3733492791652679,-0.3290978968143463,-0.270006775856018,0.2743113338947296
1631021238769,0.3733492791652679,-0.3290978968143463,-0.270006775856018,0.2743113338947296
1631021238847,0.3733492791652679,-0.3290978968143463,-0.270006775856018,0.2743113338947296
1631021239003,0.3733492791652679,-0.3290978968143463,-0.270006775856018,0.2743113338947296
1631021239082,0.3733492791652679,-0.3290978968143463,-0.270006775856018,0.2743113338947296
1631021239175,0.3733492791652679,-0.3290978968143463,-0.270006775856018,0.2743113338947296
1631021239238,0.3733492791652679,-0.3290978968143463,-0.4604341387748718,0.2743113338947296
1631021239365,0.6629976630210876,-0.3290978968143463,-0.4486247599124908,0.2848347723484039
1631021239459,0.7033682465553284,0.4175101518630981,-0.4369411766529083,0.2927463948726654
1631021239600,0.7033682465553284,0.3953158259391784,-0.4101535677909851,0.3257674872875213
1631021239678,0.7033682465553284,0.3728695213794708,-0.3640650510787964,0.3716433048248291
1631021239803,0.7033682465553284,0.3525339961051941,-0.3136377334594726,0.4108480215072632
1631021239865,0.7033682465553284,0.334987074136734,-0.2769591212272644,0.4321669638156891
1631021239975,0.7033682465553284,0.3214315772056579,-0.2594095766544342,0.4372570216655731
1631021240084,0.7033682465553284,0.3119314312934875,-0.2554196715354919,0.4349606931209564
1631021240209,0.7033682465553284,0.3070193827152252,-0.2557668387889862,0.4327314496040344
1631021240303,0.7033682465553284,0.3055501878261566,-0.2533336281776428,0.4321850836277008
1631021240412,0.7101706862449646,0.3035617172718048,-0.2426621466875076,0.4316057562828064
1631021240474,0.7049973011016846,0.2972032427787781,-0.2098082900047302,0.4298831224441528
1631021240615,0.7046616673469543,0.2858409583568573,-0.1733177602291107,0.4345696568489074
1631021240678,0.7153080105781555,0.2728667259216308,-0.1441198140382766,0.4426343739032745
1631021240818,0.72055584192276,0.2553820013999939,-0.130392238497734,0.4539378881454468
1631021240928,0.7147068381309509,0.2384666800498962,-0.1150373220443725,0.4672518372535705
1631021241006,0.7147068381309509,0.2259665131568908,-0.0986929163336753,0.4782675504684448
1631021241099,0.7147068381309509,0.2186461985111236,-0.0855999737977981,0.4799339175224304
1631021241177,0.7147068381309509,0.2163213193416595,-0.0811865776777267,0.4677967429161072
1631021241318,0.7147068381309509,0.217686653137207,-0.0859923139214515,0.4451161026954651
1631021241428,0.7147068381309509,0.2218865156173706,-0.0922135040163993,0.42332324385643
1631021241490,0.7147068381309509,0.2263061255216598,-0.089119367301464,0.4130036532878876
1631021241615,0.7147068381309509,0.2284276038408279,-0.071422554552555,0.4133428335189819
1631021241693,0.7147068381309509,0.2216364741325378,-0.0418634936213493,0.4148100912570953
1631021241880,0.7147068381309509,0.2216364741325378,-0.0063481084071099,0.4148100912570953
1631021241959,0.7147068381309509,0.2216364741325378,-0.0063481084071099,0.4148100912570953
1631021242037,0.7147068381309509,0.2216364741325378,-0.0063481084071099,0.4148100912570953
1631021242099,0.7147068381309509,0.2216364741325378,-0.0063481084071099,0.4148100912570953
1631021242208,0.7147068381309509,0.2216364741325378,-0.0063481084071099,0.4148100912570953
1631021242287,0.7147068381309509,0.1127959191799163,-0.5252172350883484,0.1702284812927246
1631021242412,0.7147068381309509,0.080688327550888,-0.4548062086105346,0.1798167824745178
1631021242537,0.7147068381309509,0.059002436697483,-0.4139294624328613,0.1941573470830917
1631021242615,0.5148772597312927,0.0466975457966327,-0.401475042104721,0.1963320672512054
1631021242724,0.5148772597312927,0.0405041575431823,-0.4069703221321106,0.1963320672512054
1631021242818,0.5148772597312927,0.0369170755147933,-0.4179970920085907,0.1963320672512054
1631021242911,0.5148772597312927,0.032976996153593,-0.4265262484550476,0.1963320672512054
1631021243052,0.5148772597312927,0.0300712343305349,-0.4301115274429321,0.1963320672512054
1631021243115,0.517719566822052,0.0327408909797668,-0.4292081892490387,0.1963320672512054
1631021243255,0.5249333381652832,0.042833462357521,-0.4258508086204529,0.1963320672512054
1631021243338,0.5410305261611938,0.0556483455002307,-0.4226817488670349,0.1963320672512054
1631021243416,0.5410305261611938,0.0652874112129211,-0.4206914603710174,0.1963320672512054
1631021243557,0.5410305261611938,0.0590264685451984,-0.4052233695983886,0.1880281120538711
1631021243635,0.5045405626296997,0.0504519119858741,-0.3919593095779419,0.1899859309196472
1631021243760,0.5045405626296997,0.0498637892305851,-0.3846447765827179,0.2068053483963012
1631021243869,0.5045405626296997,0.0565325133502483,-0.3885179460048675,0.2068053483963012
1631021243978,0.5257710814476013,0.0669591501355171,-0.4034740924835205,0.2068053483963012
1631021244072,0.549427330493927,0.078509010374546,-0.4218670725822449,0.2068053483963012
1631021244134,0.549427330493927,0.0895096510648727,-0.4329044818878174,0.2068053483963012
1631021244275,0.549427330493927,0.100049078464508,-0.4311120510101318,0.2068053483963012
1631021244338,0.549427330493927,0.1118410676717758,-0.420002818107605,0.2068053483963012
1631021244478,0.549427330493927,0.1284886747598648,-0.4064110517501831,0.2068053483963012
1631021244572,0.549427330493927,0.1501981019973755,-0.3951279819011688,0.2068053483963012
1631021244650,0.549427330493927,0.1698887050151825,-0.38926762342453,0.2068053483963012
1631021244775,0.549427330493927,0.1698887050151825,-0.38926762342453,0.2068053483963012
1631021244837,0.549427330493927,0.1698887050151825,-0.38926762342453,0.2068053483963012
1631021244947,0.549427330493927,0.1698887050151825,-0.38926762342453,0.2068053483963012
1631021245087,0.549427330493927,0.1698887050151825,-0.38926762342453,0.2068053483963012
1631021245181,0.6646789312362671,0.2139246463775634,-0.4968011975288391,-0.0950629785656929
1631021245294,0.6460329294204712,0.1763441115617752,-0.4835168421268463,-0.0627175346016883
1631021245388,0.6273723244667053,0.1462892740964889,-0.4707495272159576,-0.048290479928255
1631021245529,0.6092071533203125,0.1175630763173103,-0.4604881107807159,-0.0512785017490386
1631021245591,0.5923805236816406,0.0860781744122505,-0.4574069082736969,-0.0654895156621933
1631021245701,0.5774915814399719,0.0532653518021106,-0.4615601003170013,-0.0834437981247901
1631021245841,0.5652689337730408,0.0223134588450193,-0.4695057570934295,-0.1007211655378341
1631021245904,0.5549155473709106,-0.0048139696009457,-0.4760168492794037,-0.1146971955895423
1631021245982,0.54375159740448,-0.0267437845468521,-0.4777774214744568,-0.1213845014572143
1631021246107,0.5301921963691711,-0.042506743222475,-0.475473940372467,-0.1169562637805938
1631021246185,0.5162003040313721,-0.0506011396646499,-0.4717938601970672,-0.1024771630764007
1631021246313,0.5057157874107361,-0.0478015802800655,-0.4691421091556549,-0.08444344997406
1631021246391,0.4857079982757568,-0.076389193534851,-0.459733247756958,-0.0685686022043228
1631021246485,0.4753501415252685,-0.0780476853251457,-0.4572905600070953,-0.0565983988344669
1631021246578,0.4796030819416046,-0.0631664767861366,-0.4575403332710266,-0.0573842488229274
1631021246657,0.4970952272415161,-0.0494649484753608,-0.4578429460525512,-0.0713527426123619
1631021246813,0.5221074223518372,-0.042398314923048,-0.4597534537315368,-0.085125133395195
1631021246922,0.5472491383552551,-0.0334511920809745,-0.4654671251773834,-0.0788170844316482
1631021246985,0.5668192505836487,-0.0113154994323849,-0.4725544154644012,-0.0456655696034431
1631021247094,0.5783208012580872,0.0256903003901243,-0.474495530128479,-0.0374586917459964
1631021247219,0.5836707949638367,0.0700267925858497,-0.4686225950717926,0.0193075537681579
1631021247300,0.5872613787651062,0.1133342757821083,-0.4568501710891723,0.0693081766366958
1631021247394,0.5941746234893799,0.1533682197332382,-0.4419246315956116,0.1107655614614486
1631021247518,0.6069244146347046,0.1908434629440307,-0.4259531199932098,0.1391330808401107
1631021247612,0.6232481002807617,0.2259454280138015,-0.4109691381454468,0.1494740098714828
1631021247706,0.6397251486778259,0.2591831982135772,-0.3984625041484833,0.1433170586824417
1631021247831,0.6556456089019775,0.2969507873058319,-0.386598140001297,0.1293722987174987
1631021247893,0.667319655418396,0.3470475971698761,-0.3700542449951172,0.1184713095426559
1631021247987,0.6731607913970947,0.4076054990291595,-0.3449370861053467,0.1177328899502754
1631021248128,0.6710847616195679,0.4650088250637054,-0.3142745196819305,0.1255332976579666
1631021248221,0.6574686169624329,0.5065935850143433,-0.2855443358421325,0.1350369751453399
1631021248303,0.6309683322906494,0.5295599102973938,-0.2643096148967743,0.136597141623497
1631021248413,0.5997032523155212,0.5395033359527588,-0.2514582276344299,0.1224228739738464
1631021248522,0.5760233402252197,0.5431435108184814,-0.2447357177734375,0.0909513235092163
1631021248678,0.5710480213165283,0.543601393699646,-0.2427405565977096,0.0752751752734184
1631021248741,0.5832095742225647,0.5417970418930054,-0.244588628411293,0.0311175156384706
1631021248850,0.5985119938850403,0.5380160212516785,-0.2494548708200454,-0.0152454692870378
1631021248913,0.6056188344955444,0.5321961045265198,-0.2565065622329712,-0.0585953034460544
1631021249022,0.6034778952598572,0.5418939590454102,-0.2644305527210235,-0.0859574675559997
1631021249194,0.5990098118782043,0.5515552759170532,-0.2697044014930725,-0.0873961895704269
1631021249256,0.5947439074516296,0.5604206323623657,-0.2699648737907409,-0.0885631740093231
1631021249353,0.5861273407936096,0.5624001026153564,-0.2668646275997162,-0.0829159468412399
1631021249447,0.5861273407936096,0.545373797416687,-0.2653954625129699,-0.0808171853423118
1631021249572,0.5861273407936096,0.4980482757091522,-0.2689522206783294,-0.0880575850605964
1631021249681,0.5861273407936096,0.4214349687099457,-0.2872807383537292,-0.1025118380784988
1631021249775,0.580725908279419,0.3374555110931396,-0.3100049495697021,-0.115302950143814
1631021249837,0.5918607711791992,0.2799606323242187,-0.3284809291362762,-0.1166266426444053
1631021249947,0.6174729466438293,0.2588214874267578,-0.332032561302185,-0.103922352194786
1631021250025,0.6482139229774475,0.2514750957489013,-0.3244630992412567,-0.0823699235916137
1631021250134,0.6482139229774475,0.2514750957489013,-0.3048778176307678,-0.0568891465663909
1631021250308,0.6482139229774475,0.2514750957489013,-0.2795985639095306,-0.0256221462041139
1631021250340,0.6482139229774475,0.2514750957489013,-0.2583335936069488,0.0872597470879554
1631021250433,0.6482139229774475,0.2514750957489013,-0.2468009442090988,0.1304545700550079
1631021250543,0.5169781446456909,0.1749427765607834,-0.2451365739107132,0.1195902004837989
1631021250683,0.5091738104820251,0.1409697532653808,-0.2521763145923614,0.0722631737589836
1631021250777,0.5127080082893372,0.119618996977806,-0.2649411857128143,0.042694266885519
1631021250902,0.5279722809791565,0.1043052077293396,-0.2807382643222809,0.0333434268832206
1631021250949,0.5533365607261658,0.0902920141816139,-0.2988083064556122,0.0369431413710117
1631021251011,0.5867259502410889,0.0772739499807357,-0.3215945661067962,0.0482184290885925
1631021251183,0.6205071210861206,0.0677717551589012,-0.3328742384910583,0.0638258010149002
1631021251280,0.6443657875061035,0.0628775805234909,-0.3449010252952575,0.0793545842170715
1631021251373,0.6530640721321106,0.0605828650295734,-0.3561674654483795,0.0886630713939666
1631021251451,0.6496416330337524,0.0573081113398075,-0.3713337779045105,0.0885660201311111
1631021251545,0.6408306956291199,0.0522603429853916,-0.3877921402454376,0.0806555226445198
1631021251639,0.631438672542572,0.0481390096247196,-0.4137360751628876,0.0689219832420349
1631021251811,0.6289851069450378,0.0172576289623975,-0.4482913613319397,0.0558110550045967
1631021251873,0.6247803568840027,0.0077401315793395,-0.4778448045253753,0.0258120372891426
1631021252060,0.6235672831535339,0.0100045949220657,-0.4866727292537689,0.0113499872386455
1631021252092,0.6291089057922363,0.0133854355663061,-0.4731297492980957,0.01238857768476
1631021252170,0.6406368613243103,0.0137360226362943,-0.4493037462234497,0.0195384938269853
1631021252287,0.654793381690979,0.01144381146878,-0.4273892343044281,0.0221791453659534
1631021252393,0.6685779094696045,0.0092908190563321,-0.4092357158660888,0.0171900652348995
1631021252518,0.6799344420433044,0.0125344712287187,-0.3917846083641052,0.0066128792241215
1631021252611,0.6864616870880127,0.0258939862251281,-0.375219464302063,-0.0081254001706838
1631021252689,0.6871190071105957,0.0481428653001785,-0.3620716631412506,-0.0266839787364006
1631021252752,0.6838719844818115,0.071496695280075,-0.3548012673854828,-0.0460923016071319
1631021252846,0.681675374507904,0.0895675420761108,-0.3538373410701751,-0.0587573610246181
1631021253049,0.6845746040344238,0.1021532416343689,-0.3585743308067322,-0.060305967926979
1631021253142,0.6941655278205872,0.1132063493132591,-0.3671588003635406,-0.0531155988574028
1631021253205,0.7091579437255859,0.1238044947385788,-0.3760482668876648,-0.0417910777032375
1631021253302,0.7268403172492981,0.1324766278266906,-0.3814184367656708,-0.0263393409550189
1631021253396,0.7441695928573608,0.1404778063297271,-0.3830184042453766,-0.0062870462425053
1631021253521,0.7579835653305054,0.1520857661962509,-0.3851157426834106,0.0139051266014575
1631021253661,0.7658672332763672,0.1674875766038894,-0.3912409842014313,0.0288197491317987
1631021253724,0.7666798233985901,0.1813556849956512,-0.4020618498325348,0.0375396311283111
1631021253802,0.7604841589927673,0.1881260275840759,-0.4178891777992248,0.0443269647657871
1631021253895,0.7486365437507629,0.1867891997098922,-0.4410732090473175,0.0538530685007572
1631021253974,0.7320914268493652,0.1781620681285858,-0.4702799916267395,0.0660488232970237
1631021254083,0.711932897567749,0.1617159098386764,-0.4957962930202484,0.0759686976671218
1631021254208,0.690342128276825,0.1369810849428177,-0.5055957436561584,0.0789790824055671
1631021254317,0.6706787347793579,0.1070720329880714,-0.4975458979606628,0.0743685513734817
1631021254395,0.654217004776001,0.0774262025952339,-0.4757614135742187,0.0647733956575393
1631021254489,0.6389012336730957,0.0520847700536251,-0.4431455135345459,0.0554545708000659
1631021254645,0.6215094923973083,0.0306741092354059,-0.4040272831916809,0.0510957315564155
1631021254723,0.6016455292701721,0.0103505570441484,-0.3676572740077972,0.0529113598167896
1631021254848,0.5818042755126953,-0.0133759547024965,-0.3427312970161438,0.0566266626119613
1631021254911,0.5643202662467957,-0.0456112436950206,-0.3312464356422424,0.0554182603955268
1631021255005,0.5504273772239685,-0.0884944424033165,-0.3304829597473144,0.045897863805294
1631021255083,0.5402281284332275,-0.1364394575357437,-0.3359949886798858,0.0309178587049245
1631021255208,0.5332040786743164,-0.178656980395317,-0.3419452607631683,0.0157501809298992
1631021255335,0.5277749300003052,-0.206779658794403,-0.3400080800056457,0.0024913030210882
1631021255445,0.5225939154624939,-0.2183806151151657,-0.3249881565570831,-0.0019927921239286
1631021255538,0.5188285112380981,-0.2186562716960907,-0.3027436733245849,-0.0106500005349516
1631021255648,0.5159646272659302,-0.2151781469583511,-0.2845028638839721,-0.0195463374257087
1631021255726,0.5151622891426086,-0.2125103771686554,-0.2770306766033172,-0.0211121458560228
1631021255804,0.5192112922668457,-0.2103321105241775,-0.279302567243576,-0.0130232283845543
1631021255913,0.5308045744895935,-0.2065452337265014,-0.2886915802955627,-0.0002554128004703
1631021256069,0.5498416423797607,-0.2014940977096557,-0.30487060546875,0.0100769679993391
1631021256147,0.5717115998268127,-0.2018257528543472,-0.3270958364009857,0.0123284580186009
1631021256226,0.5899525880813599,-0.2116951793432235,-0.349191665649414,0.0018397715175524
1631021256352,0.6004254221916199,-0.2248680293560028,-0.3642225861549377,-0.0234433989971876
1631021256446,0.6030701994895935,-0.2255891412496566,-0.3723053932189941,-0.0605906955897808
1631021256508,0.6030701994895935,-0.2255891412496566,-0.3787613809108734,-0.0605906955897808
1631021256649,0.6030701994895935,-0.2255891412496566,-0.3862268626689911,-0.0605906955897808
1631021256774,0.6030701994895935,-0.2255891412496566,-0.3905603587627411,-0.0605906955897808
1631021256836,0.6030701994895935,-0.2255891412496566,-0.3881141245365143,-0.0605906955897808
1631021256977,0.6030701994895935,-0.2255891412496566,-0.3808938264846802,0.1995605081319809
1631021257039,0.5545268654823303,-0.0610205791890621,-0.3734776079654693,0.2116260230541229
1631021257133,0.5755056738853455,-0.0995662957429885,-0.3677745759487152,0.2069886773824691
1631021257292,0.5881743431091309,-0.1260156780481338,-0.3622832298278808,0.1830130815505981
1631021257355,0.590985894203186,-0.1389422565698623,-0.3553099632263183,0.1472598761320114
1631021257464,0.5850359797477722,-0.1437979340553283,-0.347035676240921,0.1107029467821121
1631021257573,0.5748415589332581,-0.1443689167499542,-0.3371770977973938,0.0804675370454788
1631021257636,0.5674399137496948,-0.1410528868436813,-0.3239664733409881,0.0584256947040557
1631021257776,0.5655497908592224,-0.1347210109233856,-0.3082708418369293,0.0461780652403831
1631021257854,0.5672693252563477,-0.1291531175374984,-0.2943076193332672,0.0441835932433605
1631021258026,0.5686212778091431,-0.1286171376705169,-0.2857270538806915,0.0478125028312206
1631021258089,0.5677850246429443,-0.1335728764533996,-0.282143622636795,0.0486151427030563
1631021258167,0.5668956637382507,-0.1422934085130691,-0.2796940505504608,0.0247098617255687
1631021258261,0.5737823247909546,-0.1686742901802063,-0.275833398103714,0.0010070278076454
1631021258358,0.5855483412742615,-0.1913527995347976,-0.2696008682250976,-0.0205347500741481
1631021258498,0.5988478064537048,-0.2052352130413055,-0.2571196854114532,-0.0335368774831295
1631021258607,0.6123822331428528,-0.2048996984958648,-0.2338471710681915,-0.029858686029911
1631021258670,0.6263343095779419,-0.1921117603778839,-0.1995632499456405,-0.0035734910052269
1631021258764,0.6402868628501892,-0.1727518439292907,-0.1579228341579437,0.0460465066134929
1631021258871,0.6532018780708313,-0.1485936641693115,-0.1129710674285888,0.1180637925863266
1631021258950,0.6633352637290955,-0.1195552200078964,-0.0699399039149284,0.2000832110643386
1631021259121,0.6702120900154114,-0.0888634994626045,-0.0355737321078777,0.272308737039566
1631021259201,0.6726438403129578,-0.0636769533157348,-0.0160434730350971,0.3217450082302093
1631021259311,0.6710713505744934,-0.0487503632903099,-0.0112297516316175,0.347505509853363
1631021259390,0.6684446930885315,-0.042113360017538,-0.0149673288688063,0.3565925359725952
1631021259463,0.6686794757843018,-0.0376596264541149,-0.0199016015976667,0.3571772873401642
1631021259610,0.674200177192688,-0.0315733253955841,-0.0219709780067205,0.3550860285758972
1631021259723,0.6826516389846802,-0.02396129257977,-0.022787919268012,0.3548180162906647
1631021259801,0.690040647983551,-0.0170346051454544,-0.0264217276126146,0.357545256614685
1631021259890,0.694071352481842,-0.0105568412691354,-0.0362119376659393,0.3595454692840576
1631021260020,0.6948493123054504,-0.0028935018926858,-0.054610289633274,0.3549454808235168
1631021260100,0.6938866972923279,0.0059634768404066,-0.0822113677859306,0.3420529365539551
1631021260176,0.6959166526794434,0.0145959993824362,-0.1171224042773246,0.325441837310791
1631021260334,0.7076537609100342,0.0249799024313688,-0.1569037586450576,0.3115105926990509
1631021260439,0.7313253283500671,0.0395744554698467,-0.2018675655126571,0.2970851063728332
1631021260499,0.7596360445022583,0.0551776625216007,-0.2524855732917785,0.2735700905323028
1631021260585,0.7812715172767639,0.0634684935212135,-0.3040981590747833,0.2389955818653106
1631021260724,0.7924022078514099,0.0613719709217548,-0.3445003032684326,0.2028072923421859
1631021260859,0.7995725274085999,0.056733027100563,-0.3634222447872162,0.1782434433698654
1631021260964,0.8105295300483704,0.0617415867745876,-0.3579349219799042,0.1716901063919067
1631021261026,0.8252188563346863,0.0784173086285591,-0.3320618271827698,0.1805882900953292
1631021261135,0.8390635848045349,0.0981015190482139,-0.2952703833580017,0.198661208152771
1631021261240,0.8484008312225342,0.113542191684246,-0.2593477666378021,0.2164550721645355
1631021261300,0.8526930809020996,0.1247555315494537,-0.2329605668783188,0.2278472185134887
1631021261445,0.85394287109375,0.1344711184501648,-0.2183461636304855,0.2338818460702896
1631021261518,0.8540791869163513,0.143043577671051,-0.2131504118442535,0.2399215847253799
1631021261628,0.8540350794792175,0.1497272849082946,-0.2138728946447372,0.2481991499662399
1631021261737,0.8504089713096619,0.1541859060525894,-0.2183386236429214,0.2538642883300781
1631021261840,0.8368639945983887,0.1539249867200851,-0.2254654169082641,0.250607281923294
1631021261938,0.8106658458709717,0.1453346014022827,-0.234009638428688,0.240110695362091
1631021262028,0.7787458896636963,0.1296928375959396,-0.2422045320272445,0.2324594110250473
1631021262137,0.7549265623092651,0.116658441722393,-0.2487754374742508,0.2362409681081771
1631021262230,0.7479735016822815,0.1159429252147674,-0.2537592053413391,0.2487809062004089
1631021262336,0.7505028247833252,0.1254930645227432,-0.2594226598739624,0.2595357596874237
1631021262461,0.7483557462692261,0.134029746055603,-0.2701773643493652,0.2623072564601898
1631021262570,0.73609459400177,0.1356314718723297,-0.2877063751220703,0.2624521255493164
1631021262632,0.7167335748672485,0.1326687633991241,-0.307299941778183,0.2732454836368561
1631021262742,0.6979594230651855,0.1287909746170044,-0.3190590441226959,0.3032376766204834
1631021262854,0.6850302815437317,0.123281329870224,-0.3165778517723083,0.345915287733078
1631021262994,0.6779940724372864,0.113519974052906,-0.3039151430130005,0.3862924873828888
1631021263057,0.6740813255310059,0.1001820117235183,-0.2890777885913849,0.4132700562477112
1631021263151,0.6692833304405212,0.0858075022697448,-0.2734858989715576,0.4255129694938659
1631021263213,0.6610918045043945,0.0712437331676483,-0.2534147799015045,0.4286490082740783
1631021263369,0.6519671082496643,0.0555195100605487,-0.2284222245216369,0.4278848469257355
1631021263447,0.6471729874610901,0.0384270697832107,-0.202379360795021,0.4237079620361328
1631021263541,0.6500332951545715,0.0238852370530366,-0.1791441291570663,0.4129119515419006
1631021263635,0.6588644981384277,0.0151863489300012,-0.15970478951931,0.3949515223503113
1631021263729,0.6682572364807129,0.0099296234548091,-0.1441575437784195,0.3748408854007721
1631021263819,0.674842119216919,0.0006868807831779,-0.1334840059280395,0.3585732877254486
1631021263991,0.6799674034118652,-0.0185020267963409,-0.1284950524568557,0.3467592298984527
1631021264038,0.6793826222419739,-0.0475141406059265,-0.1304903775453567,0.3324548602104187
1631021264225,0.6835131645202637,-0.0773012638092041,-0.1406745910644531,0.3050366342067718
1631021264272,0.690250039100647,-0.0927962139248848,-0.1587683707475662,0.2568534314632416
1631021264335,0.6964956521987915,-0.0838639512658119,-0.1810349076986313,0.1886438429355621
1631021264444,0.6998295187950134,-0.0574636459350585,-0.1998484879732132,0.1144104227423667
1631021264553,0.6992431879043579,-0.0320719368755817,-0.2091263532638549,0.0622462593019008
1631021264709,0.6786494255065918,-0.0202297940850257,-0.2112878412008285,0.0558809079229831
1631021264803,0.656566858291626,-0.0219549778848886,-0.2160855680704116,0.0857673212885856
1631021264850,0.6439050436019897,-0.0301153026521205,-0.2310800105333328,0.1202554479241371
1631021264928,0.6439699530601501,-0.0388557501137256,-0.2551808655261993,0.1377248764038086
1631021265053,0.6466227173805237,-0.049609001725912,-0.2811614871025085,0.1376097500324249
1631021265225,0.6394510865211487,-0.0663393139839172,-0.3038716614246368,0.13308185338974
1631021265319,0.6177259683609009,-0.0892568305134773,-0.3204732835292816,0.1351183652877807
1631021265397,0.5855455994606018,-0.1115250363945961,-0.3256008625030517,0.1447836607694625
1631021265459,0.5492757558822632,-0.1238495260477066,-0.3136398792266845,0.1582687497138977
1631021265584,0.5454888939857483,-0.1217271536588668,-0.2861788272857666,0.1737414002418518
1631021265678,0.5370139479637146,-0.110049270093441,-0.2527486681938171,0.1918776184320449
1631021265834,0.5240869522094727,-0.1010468229651451,-0.2209206521511078,0.2127897441387176
1631021265912,0.5110741257667542,-0.1067180931568145,-0.1943948864936828,0.2340821921825409
1631021265990,0.5039448738098145,-0.1294566541910171,-0.1749819368124008,0.2522381246089935
1631021266069,0.5064424276351929,-0.1579466015100479,-0.1625589877367019,0.2657079398632049
1631021266193,0.5174428224563599,-0.1747005134820938,-0.1526531130075454,0.2749989032745361
1631021266352,0.5336750745773315,-0.1725836843252182,-0.1384080648422241,0.2833429872989654
1631021266414,0.5418938398361206,-0.160276249051094,-0.1177516505122184,0.2943271398544311
1631021266477,0.5351428389549255,-0.1497935503721237,-0.0951556339859962,0.3081081211566925
1631021266602,0.5179492831230164,-0.1473011225461959,-0.0753056332468986,0.3211022317409515
1631021266696,0.5014145374298096,-0.1530142575502395,-0.0585004910826683,0.3291410803794861
1631021266774,0.4945795834064483,-0.1622052788734436,-0.0441180355846881,0.3327836096286773
1631021266899,0.4977958798408508,-0.1663352996110916,-0.034554898738861,0.3365853428840637
1631021267008,0.5060344934463501,-0.1582686007022857,-0.0338770858943462,0.341976523399353
1631021267117,0.517641544342041,-0.1413563787937164,-0.0431637912988662,0.3458122611045837
1631021267195,0.5353448987007141,-0.1252779811620712,-0.0595883168280124,0.344135969877243
1631021267307,0.5590887665748596,-0.1125091984868049,-0.0790360122919082,0.3359297811985016
1631021267401,0.5820391774177551,-0.0940498784184455,-0.0965599715709686,0.3230980932712555
1631021267526,0.5976731181144714,-0.0627862513065338,-0.1071724444627761,0.3073651194572449
1631021267620,0.6077979207038879,-0.0247219242155551,-0.1094091460108757,0.2869682312011719
1631021267698,0.6242071390151978,0.0079501252621412,-0.1089544519782066,0.2583682835102081
1631021267807,0.6554014682769775,0.0307446513324975,-0.1161820665001869,0.2193802148103714
1631021267917,0.6953428983688354,0.0482439808547496,-0.1368982046842575,0.174296423792839
1631021268027,0.7089791297912598,0.0620557591319084,-0.1676160097122192,0.1349167972803115
1631021268089,0.7268402576446533,0.0821367278695106,-0.1871346533298492,0.1088552847504615
1631021268245,0.7448811531066895,0.1081129014492034,-0.2065076828002929,0.1000389009714126
1631021268339,0.7602728009223938,0.1368743777275085,-0.2257760912179947,0.0990119129419326
1631021268417,0.7729616165161133,0.1632291078567505,-0.2420745640993118,0.0914260894060134
1631021268527,0.7852526307106018,0.1823332607746124,-0.2504833042621612,0.0713717639446258
1631021268620,0.7989330291748047,0.1940977424383163,-0.2483795136213302,0.0442695990204811
1631021268745,0.8132222294807434,0.2028924971818924,-0.2355449348688125,0.0220931358635425
1631021268823,0.8283278942108154,0.2116104662418365,-0.2132919281721115,0.0144616076722741
1631021268933,0.8500325083732605,0.2163498401641845,-0.1875689476728439,0.0237942058593034
1631021269026,0.8864237666130066,0.2094984501600265,-0.170255109667778,0.047260332852602
1631021269120,0.8864237666130066,0.2094984501600265,-0.1751909404993057,0.047260332852602
1631021269276,0.8864237666130066,0.2094984501600265,-0.1751909404993057,0.047260332852602
1631021269308,0.8864237666130066,0.2094984501600265,-0.1751909404993057,0.047260332852602
1631021269448,0.8864237666130066,0.2094984501600265,-0.1751909404993057,0.047260332852602
1631021269558,0.8864237666130066,0.2094984501600265,-0.1751909404993057,0.047260332852602
1631021269698,0.8864237666130066,0.2094984501600265,-0.1751909404993057,0.047260332852602
1631021269761,0.8864237666130066,0.2094984501600265,-0.1751909404993057,0.047260332852602
1631021269854,0.8864237666130066,0.2094984501600265,-0.1751909404993057,0.047260332852602
1631021269917,0.8864237666130066,0.2094984501600265,-0.1751909404993057,0.047260332852602
1631021270057,0.8864237666130066,0.2094984501600265,-0.1751909404993057,0.047260332852602
1631021270136,0.8864237666130066,0.2094984501600265,-0.1751909404993057,0.047260332852602
1631021270245,0.8864237666130066,0.1648000925779342,0.0033262947108596,0.047260332852602
1631021270341,0.4777696430683136,0.1567209959030151,-0.0148837408050894,0.047260332852602
1631021270450,0.4551911652088165,0.1549864411354065,-0.0185068733990192,0.047260332852602
1631021270513,0.4584402441978454,0.1689034700393676,-0.0096166897565126,0.047260332852602
1631021270701,0.4901234209537506,0.1971641629934311,0.0016082164365798,0.6181298494338989
1631021270763,0.4901234209537506,0.2274177372455597,0.0035873942542821,0.6726647615432739
1631021270919,0.5677266120910645,0.2479991763830185,-0.0075234808027744,0.6953427791595459
1631021270966,0.639666736125946,0.2560385763645172,-0.0274700317531824,0.6953427791595459
1631021271044,0.6984213590621948,0.254691481590271,-0.0486529432237148,0.6953427791595459
1631021271185,0.7369102239608765,0.247725561261177,-0.0663442239165306,0.6953427791595459
1631021271263,0.7528847455978394,0.2374253571033477,-0.0795945227146148,0.6953427791595459
1631021271406,0.7506743669509888,0.2255739271640777,-0.0890436917543411,0.6953427791595459
1631021271500,0.7408449649810791,0.216753140091896,-0.110206626355648,0.6953427791595459
1631021271563,0.7437991499900818,0.2100782394409179,-0.1290429979562759,0.730998158454895
1631021271672,0.7565051317214966,0.2064575552940368,-0.1456982493400573,0.7834411859512329
1631021271797,0.7783677577972412,0.2054862529039383,-0.1627904325723648,0.7834411859512329
1631021271891,0.8058755993843079,0.206008568406105,-0.1832695007324218,0.7729977965354919
1631021272000,0.836280345916748,0.2045213282108307,-0.2109872251749038,0.7564883232116699
1631021272094,0.854770839214325,0.1962559521198272,-0.2359887212514877,0.7710165977478027
1631021272156,0.8685144782066345,0.1787879019975662,-0.2720876336097717,0.7615817189216614
1631021272266,0.8685144782066345,0.1558386385440826,-0.308111160993576,0.7615817189216614
1631021272362,0.8656103014945984,0.1299800127744674,-0.329639732837677,0.7615817189216614
1631021272518,0.8514748215675354,0.1083904802799224,-0.3323753476142883,0.7615817189216614
1631021272596,0.8264694213867188,0.0942374467849731,-0.32591712474823,0.7615817189216614
1631021272690,0.7982252240180969,0.0877773985266685,-0.3211078345775604,0.7615817189216614
1631021272784,0.7818682193756104,0.0891731977462768,-0.3236926794052124,0.7615817189216614
1631021272868,0.7909148335456848,0.0978386402130127,-0.3375130593776703,0.7615817189216614
1631021272992,0.8222482800483704,0.1104956418275833,-0.3666949570178985,0.7615817189216614
1631021273086,0.8602549433708191,0.1213353723287582,-0.4114770591259002,0.7615817189216614
1631021273211,0.8602549433708191,0.1252200752496719,-0.4114770591259002,0.7615817189216614
1631021273295,0.8602549433708191,0.1234537214040756,-0.4114770591259002,0.7615817189216614
1631021273370,0.8602549433708191,0.1234537214040756,-0.4114770591259002,0.7615817189216614
1631021273463,0.8602549433708191,0.1234537214040756,-0.4114770591259002,0.7615817189216614
1631021273588,0.8602549433708191,0.1234537214040756,-0.4114770591259002,0.7615817189216614
1631021273729,0.8602549433708191,0.1234537214040756,-0.4114770591259002,0.7615817189216614
1631021273807,0.8602549433708191,0.1234537214040756,-0.4114770591259002,0.7615817189216614
1631021273901,0.8602549433708191,0.1234537214040756,-0.4114770591259002,0.7615817189216614
1631021274026,0.8602549433708191,0.1234537214040756,-0.4114770591259002,0.7615817189216614
1631021274104,0.8602549433708191,0.1234537214040756,-0.4114770591259002,0.7615817189216614
1631021274198,0.8602549433708191,0.1234537214040756,-0.4114770591259002,0.7615817189216614
1631021274325,0.8602549433708191,0.1234537214040756,-0.4114770591259002,0.7615817189216614
1631021274419,0.8602549433708191,0.1234537214040756,-0.4114770591259002,0.7615817189216614
1631021274512,0.8602549433708191,0.1234537214040756,-0.4114770591259002,0.7615817189216614
1631021274606,0.8602549433708191,0.1234537214040756,-0.4114770591259002,0.7615817189216614
1631021274700,0.8602549433708191,0.1234537214040756,-0.4114770591259002,0.7615817189216614
1631021274794,0.8602549433708191,0.1234537214040756,-0.4114770591259002,0.7615817189216614
1631021274903,0.8602549433708191,0.1234537214040756,-0.4114770591259002,0.7615817189216614
1631021275028,1.2780611515045166,0.1234537214040756,0.6170673370361328,0.7615817189216614
1631021275122,1.2626798152923584,0.1234537214040756,0.5865328311920166,0.7615817189216614
1631021275247,1.2516998052597046,1.0466355085372925,0.5727682113647461,0.7615817189216614
1631021275328,1.25260329246521,1.0634859800338743,0.5748568773269653,0.8110175728797913
1631021275406,1.268812656402588,1.0940191745758057,0.589384138584137,0.8484935760498047
1631021275562,1.2934393882751465,1.1264216899871826,0.6116150617599487,0.8853921294212341
1631021275640,1.3135533332824707,1.1495275497436523,0.6331918239593506,0.9105047583580016
1631021275734,1.3204485177993774,1.1580381393432615,0.6454774141311646,0.9176335334777832
1631021275812,1.3131155967712402,1.152722716331482,0.644371509552002,0.9068323373794556
1631021275922,1.2966960668563845,1.1382805109024048,0.632045328617096,0.8846153020858765
1631021276015,1.2781866788864136,1.1212784051895142,0.6146777272224426,0.8597607612609863
1631021276140,1.2631468772888184,1.1072039604187012,0.5990514159202576,0.8398256897926331
1631021276265,1.2498509883880615,1.0976791381835938,0.5792176127433777,0.8275978565216064
1631021276362,1.241169810295105,1.0914053916931152,0.5632597208023071,0.8207772970199585
1631021276487,1.2364803552627563,1.083661437034607,0.5537086129188538,0.8155024647712708
1631021276534,1.234786868095398,1.0801841020584106,0.5493780970573425,0.813103973865509
1631021276643,1.2354741096496582,1.0775957107543943,0.5468271970748901,0.8123302459716797
1631021276768,1.2366631031036377,1.070559024810791,0.5420112609863281,0.8104498982429504
1631021276862,1.2350993156433103,1.066394329071045,0.5385976433753967,0.8027437925338745
1631021276955,1.2229763269424438,1.051875352859497,0.5256139039993286,0.787639856338501
1631021277065,1.1970710754394531,1.0257954597473145,0.4992950558662414,0.761389434337616
1631021277159,1.1625616550445557,0.992496907711029,0.459858238697052,0.728122889995575
1631021277237,1.1326762437820437,0.9613868594169616,0.415981650352478,0.6985803842544556
1631021277381,1.1213687658309937,0.9425808787345886,0.3837113380432129,0.685805082321167
1631021277506,1.131826400756836,0.9404776692390442,0.3749656677246094,0.6937462687492371
1631021277584,1.1554971933364868,0.9496610164642334,0.3862634003162384,0.7148127555847168
1631021277646,1.1801738739013672,0.9590280652046204,0.4008493721485138,0.7363256812095642
1631021277724,1.1975619792938232,0.9608116745948792,0.4049751758575439,0.7497902512550354
1631021277880,1.2056652307510376,0.9525208473205566,0.3982241749763489,0.7553778886795044
1631021278005,1.2056652307510376,0.9525208473205566,0.3982241749763489,0.7605579495429993
1631021278099,1.2056652307510376,0.9525208473205566,0.3982241749763489,0.7605579495429993
1631021278177,1.2056652307510376,0.9525208473205566,0.3982241749763489,0.7605579495429993
1631021278255,1.2056652307510376,0.9525208473205566,0.3982241749763489,0.7605579495429993
1631021278352,1.2056652307510376,0.9525208473205566,0.3982241749763489,0.7605579495429993
1631021278493,0.6859726905822754,0.9525208473205566,-0.3855156004428863,-0.0470975302159786
1631021278680,0.6525657773017883,0.9525208473205566,-0.3296729028224945,-0.0718680396676063
1631021278711,0.6196421980857849,0.9525208473205566,-0.3064272999763489,-0.0742421969771385
1631021278758,0.5909159779548645,0.9525208473205566,-0.3068240284919739,-0.0575196407735347
1631021278868,0.5698146820068359,0.9525208473205566,-0.3127388060092926,-0.0331656113266944
1631021278961,0.557593584060669,0.9525208473205566,-0.3109921216964721,-0.0096484646201133
1631021279039,0.5529212355613708,0.9525208473205566,-0.3014007806777954,0.0101092848926782
1631021279196,0.553101658821106,0.9525208473205566,-0.2906264662742615,0.0270394645631313
1631021279306,0.5553562641143799,0.9525208473205566,-0.2843951880931854,0.0429598242044448
1631021279417,0.5574386715888977,0.9525208473205566,-0.2833549976348877,0.060329832136631
1631021279464,0.5572953224182129,0.9525208473205566,-0.2839252054691314,0.0801196470856666
1631021279573,0.5531148314476013,0.9525208473205566,-0.282985508441925,0.1012944877147674
1631021279667,0.5172338485717773,0.9525208473205566,-0.2704741060733795,0.1186287254095077
1631021279803,0.4891491532325744,0.9525208473205566,-0.254299908876419,0.1386702209711074
1631021279884,0.4617446362972259,0.9525208473205566,-0.2434885054826736,0.1540358513593673
1631021280015,0.4364635646343231,0.9525208473205566,-0.2411506325006485,0.1643106341361999
1631021280115,0.419321060180664,0.9525208473205566,-0.2445411682128906,0.1706090122461319
1631021280199,0.4132801294326782,0.9525208473205566,-0.2488860785961151,0.171130821108818
1631021280293,0.4136433005332947,0.9525208473205566,-0.2520172297954559,0.1661369949579239
1631021280436,0.4115029275417328,0.9525208473205566,-0.2564329206943512,0.1593394428491592
1631021280514,0.4034624695777893,0.9525208473205566,-0.2662121951580047,0.1556136906147003
1631021280614,0.3960597217082977,0.9525208473205566,-0.2823300063610077,0.1564466953277588
1631021280718,0.3962987959384918,0.9525208473205566,-0.3016509413719177,0.158291682600975
1631021280823,0.4004826843738556,0.9525208473205566,-0.3192041516304016,0.1555115878582
1631021280902,0.3983968794345855,0.9525208473205566,-0.3322643935680389,0.1430110484361648
1631021281029,0.3864206373691559,0.9525208473205566,-0.3420154154300689,0.120171420276165
1631021281107,0.3741126358509063,0.9525208473205566,-0.3505936563014984,0.0909252688288688
1631021281232,0.3750969171524048,-0.30522421002388,-0.3562877178192138,0.0644618272781372
1631021281326,0.3911059200763702,-0.2982168793678283,-0.3584395051002502,0.0472875423729419
1631021281404,0.4132574498653412,-0.3018396496772766,-0.3615513741970062,0.0398731306195259
1631021281544,0.4312651753425598,-0.3075117170810699,-0.3718050122261047,0.0377901419997215
1631021281669,0.4399746656417846,-0.3066606521606445,-0.3897421956062317,0.036543633788824
1631021281732,0.4395597577095032,-0.3066606521606445,-0.4105612337589264,0.0350549258291721
1631021281825,0.4442676305770874,-0.3066606521606445,-0.4138770997524261,0.0425417758524417
1631021281950,0.4508605003356933,-0.3066606521606445,-0.4112392365932464,0.0474894121289253
1631021282029,0.4603342413902282,-0.3066606521606445,-0.404882550239563,0.0445607900619506
1631021282122,0.4644703269004822,-0.3066606521606445,-0.3957594335079193,0.0313051417469978
1631021282247,0.4539847373962402,-0.3066606521606445,-0.384550392627716,0.0111263301223516
1631021282341,0.4310992360115051,-0.3066606521606445,-0.3720683157444,-0.0069937091320753
1631021282450,0.4118155837059021,-0.294788658618927,-0.3592286109924316,-0.0123638100922107
1631021282560,0.4120430946350097,-0.2894855737686157,-0.3478787243366241,-0.0034495019353926
1631021282606,0.4261934161186218,-0.2942927479743957,-0.3406245410442352,0.0092367250472307
1631021282747,0.4321814179420471,-0.3081018328666687,-0.344902366399765,0.0119732962921261
1631021282841,0.4149684309959411,-0.3081018328666687,-0.3711232244968414,-0.0018243725644424
1631021282950,0.4149684309959411,-0.3081018328666687,-0.3711232244968414,-0.0018243725644424
1631021283075,0.4149684309959411,-0.3081018328666687,-0.3711232244968414,-0.0018243725644424
1631021283153,0.4149684309959411,-0.3081018328666687,-0.3711232244968414,-0.0018243725644424
1631021283216,0.4149684309959411,-0.3081018328666687,-0.3711232244968414,-0.0018243725644424
1631021283332,0.4149684309959411,-0.3081018328666687,-0.3711232244968414,-0.0018243725644424
1631021283469,0.4149684309959411,-0.3081018328666687,-0.3711232244968414,-0.0018243725644424
1631021283547,0.4149684309959411,-0.3081018328666687,-0.3711232244968414,-0.0018243725644424
1631021283703,0.4149684309959411,-0.3081018328666687,-0.3711232244968414,-0.0018243725644424
1631021283766,0.4149684309959411,-0.3081018328666687,-0.3711232244968414,-0.0018243725644424
1631021283828,0.4149684309959411,-0.3081018328666687,-0.3711232244968414,-0.0018243725644424
1631021283922,0.4149684309959411,-0.3081018328666687,-0.3711232244968414,-0.0018243725644424
1631021284078,0.4149684309959411,-0.3081018328666687,-0.3711232244968414,-0.0018243725644424
1631021284172,0.4149684309959411,-0.3081018328666687,-0.3711232244968414,-0.0018243725644424
1631021284271,0.4149684309959411,-0.3081018328666687,-0.3711232244968414,-0.0018243725644424
1631021284352,0.4149684309959411,-0.3081018328666687,-0.3711232244968414,-0.0018243725644424
1631021284446,0.4149684309959411,-0.3081018328666687,-0.3711232244968414,-0.0018243725644424
1631021284571,0.4149684309959411,-0.3081018328666687,-0.3711232244968414,-0.0018243725644424
1631021284711,0.4149684309959411,-0.3081018328666687,-0.3711232244968414,-0.0018243725644424
1631021284790,0.4149684309959411,-0.3081018328666687,-0.3711232244968414,-0.0018243725644424
1631021284883,0.4149684309959411,-0.3081018328666687,0.0420587360858917,0.5896456837654114
1631021284961,0.4149684309959411,-0.3081018328666687,-0.0254532229155302,0.5346750617027283
1631021285071,0.4149684309959411,-0.3081018328666687,-0.0726781338453292,0.4952917397022247
1631021285133,0.4149684309959411,-0.3081018328666687,-0.1003731712698936,0.4643970429897308
1631021285334,0.7569650411605835,-0.3081018328666687,-0.1161835938692092,0.4352461695671081
1631021285388,0.7892271876335144,-0.3081018328666687,-0.1289490461349487,0.4059388041496277
1631021285467,0.8023636341094971,-0.3081018328666687,-0.1426401138305664,0.379391461610794
1631021285560,0.8073582649230957,0.3447967171669006,-0.1564672738313675,0.360217809677124
1631021285686,0.8100287318229675,0.3000014424324035,-0.1688650548458099,0.3498810827732086
1631021285796,0.8097212314605713,0.2621152102947235,-0.1791834831237793,0.3456171154975891
1631021285889,0.8051877021789551,0.2324160188436508,-0.1880560368299484,0.342875063419342
1631021285999,0.7971621155738831,0.2083197385072708,-0.1964132636785507,0.3383901417255401
1631021286092,0.7971621155738831,0.1874965876340866,-0.2640606760978699,0.2746849954128265
1631021286155,0.7971621155738831,0.1874965876340866,-0.3143299520015716,0.2248303145170211
1631021286295,0.7971621155738831,0.1874965876340866,-0.3347838819026947,0.1994113475084304
1631021286392,0.7971621155738831,0.1874965876340866,-0.3307596743106842,0.192767322063446
1631021286501,0.8152681589126587,0.1874965876340866,-0.3162806928157806,0.192272812128067
1631021286654,0.8282307386398315,0.1874965876340866,-0.3041862547397613,0.1895815283060073
1631021286725,0.8292713165283203,0.1874965876340866,-0.3024082481861114,0.1868627518415451
1631021286836,0.818564772605896,0.1429887562990188,-0.310987651348114,0.1923700273036956
1631021286885,0.8036655783653259,0.0856554433703422,-0.3225617110729217,0.212043821811676
1631021287043,0.7908369302749634,0.0338150598108768,-0.3293100893497467,0.2425546050071716
1631021287159,0.7787216305732727,0.0009538406739011,-0.3300904929637909,0.2720052003860473
1631021287247,0.7787216305732727,-0.0129054328426718,-0.3300904929637909,0.2720052003860473
1631021287337,0.7787216305732727,-0.0129054328426718,-0.3300904929637909,0.2720052003860473
1631021287396,0.7787216305732727,-0.0129054328426718,-0.3300904929637909,0.2720052003860473
1631021287515,0.7787216305732727,-0.0129054328426718,-0.3300904929637909,0.2720052003860473
1631021287619,0.7787216305732727,-0.0129054328426718,-0.3300904929637909,0.1540728509426117
1631021287730,0.7787216305732727,-0.0129054328426718,-0.4451209604740143,0.1540728509426117
1631021287839,0.7787216305732727,-0.0129054328426718,-0.4495403468608856,0.1540728509426117
1631021287949,0.7787216305732727,-0.0129054328426718,-0.4644810259342193,0.1540728509426117
1631021288027,0.7787216305732727,-0.0129054328426718,-0.4786289632320404,0.1540728509426117
1631021288152,0.7787216305732727,-0.0129054328426718,-0.4860469996929168,0.1540728509426117
1631021288214,0.7787216305732727,-0.0129054328426718,-0.4864973127841949,0.1540728509426117
1631021288332,0.7787216305732727,-0.0129054328426718,-0.4824504554271698,0.1540728509426117
1631021288437,0.7787216305732727,-0.0129054328426718,-0.4766581952571869,0.1540728509426117
1631021288530,0.7787216305732727,-0.0129054328426718,-0.4700871407985687,0.1540728509426117
1631021288655,0.7787216305732727,-0.0129054328426718,-0.4619769155979156,0.1540728509426117
1631021288749,0.7787216305732727,-0.0129054328426718,-0.4520613849163055,0.1540728509426117
1631021288796,0.7787216305732727,-0.0129054328426718,-0.4440717995166778,0.1540728509426117
1631021288936,0.7787216305732727,-0.0129054328426718,-0.4358902871608734,0.1540728509426117
1631021289046,0.7787216305732727,-0.0129054328426718,-0.4397575259208679,0.1540728509426117
1631021289186,0.7787216305732727,-0.0129054328426718,-0.4520503282546997,0.1540728509426117
1631021289296,0.7787216305732727,-0.0129054328426718,-0.4650449156761169,0.1540728509426117
1631021289346,0.4599404633045196,-0.2711798846721649,-0.4711236655712127,-0.0513739772140979
1631021289455,0.4736925363540649,-0.2729480862617492,-0.4657437205314636,-0.0077333743683993
1631021289580,0.4787375032901764,-0.2414383739233017,-0.4487054347991943,0.0124127361923456
1631021289643,0.4779762625694275,-0.1862858980894088,-0.4255988001823425,0.0135761424899101
1631021289768,0.4787845015525818,-0.1267532855272293,-0.4060347378253937,0.0017723839264363
1631021289846,0.4841968715190887,-0.0806079804897308,-0.3971269726753235,-0.0185055062174797
1631021289940,0.4899361729621887,-0.0546244457364082,-0.3990031480789184,-0.0405681170523166
1631021290002,0.4903921782970428,-0.0473136752843856,-0.4070624411106109,-0.0524685829877853
1631021290158,0.4838162958621979,-0.0528879836201667,-0.4168435931205749,-0.048720795661211
1631021290252,0.4718145132064819,-0.0655625090003013,-0.4259773194789886,-0.0367631539702415
1631021290411,0.4574717283248901,-0.0812277793884277,-0.4305360019207001,-0.0295186899602413
1631021290458,0.4429495632648468,-0.0969343334436416,-0.4260399341583252,-0.0321314744651317
1631021290536,0.4290635883808136,-0.1090647503733635,-0.4101735949516296,-0.0330912284553051
1631021290630,0.4160044491291046,-0.1153206229209899,-0.386664479970932,-0.0318954288959503
1631021290817,0.4034427404403686,-0.1165610998868942,-0.3626277446746826,-0.032425470650196
1631021290895,0.3960907161235809,-0.1149323582649231,-0.3448598384857178,-0.0407241322100162
1631021291003,0.4028309881687164,-0.1120280250906944,-0.3395987153053283,-0.0566024556756019
1631021291051,0.4271887838840484,-0.1132510229945182,-0.3498251140117645,-0.0732233822345733
1631021291160,0.4623629450798034,-0.1248988136649131,-0.372160941362381,-0.0812814459204673
1631021291239,0.4951405823230743,-0.1465562880039215,-0.3970426023006439,-0.0730638727545738
1631021291399,0.517035722732544,-0.1648757606744766,-0.4130933284759521,-0.0465385653078556
1631021291462,0.5275737047195435,-0.1650546491146087,-0.4163586497306824,-0.0102125732228159
1631021291571,0.5321334600448608,-0.1466653198003769,-0.4123987853527069,0.0190258417278528
1631021291680,0.5368842482566833,-0.123427890241146,-0.4096673130989074,0.0298697408288717
1631021291790,0.5449429154396057,-0.1066740304231643,-0.4126618504524231,0.0250699128955602
1631021291883,0.5549784302711487,-0.0966860949993133,-0.4216986298561096,0.0189325418323278
1631021292040,0.565648078918457,-0.0870809033513069,-0.4357763826847076,0.0233827382326126
1631021292102,0.5777808427810669,-0.0732297971844673,-0.4533293843269348,0.0383635573089122
1631021292180,0.5910189747810364,-0.0550465621054172,-0.4717994332313537,0.0561642833054065
1631021292290,0.601954996585846,-0.0359638333320617,-0.48523810505867,0.0734220445156097
