timestamp,TP9,AF7,AF8,TP10
1631021159159,-0.0448898449540138,0.4945223927497864,-0.4869801700115204,0.3598261177539825
1631021159302,-0.0448898449540138,0.4945223927497864,-0.4869801700115204,0.3598261177539825
1631021159365,-0.0448898449540138,0.4945223927497864,-0.4869801700115204,0.3598261177539825
1631021159427,-0.0448898449540138,0.4566462635993957,-0.5010645985603333,0.2848655581474304
1631021159536,-0.0157279856503009,0.4631184935569763,-0.5168319940567017,0.2861004471778869
1631021159646,0.0238733198493719,0.5012353658676147,-0.5195993185043335,0.3245837688446045
1631021159786,0.0747053772211074,0.5561326742172241,-0.5111109614372253,0.3866020739078522
1631021159880,0.1296243071556091,0.6012974381446838,-0.4953726232051849,0.4597763419151306
1631021159989,0.1811974197626114,0.6142091751098633,-0.4686469435691833,0.5387465357780457
1631021160052,0.1811974197626114,0.613858699798584,-0.4204127192497253,0.5387465357780457
1631021160177,0.1811974197626114,0.5817367434501648,-0.4204127192497253,0.5387465357780457
1631021160255,0.1811974197626114,0.50682133436203,-0.4204127192497253,0.5387465357780457
1631021160380,0.1811974197626114,0.3914732336997986,-0.4204127192497253,0.5387465357780457
1631021160489,0.1811974197626114,0.2584447860717773,-0.4204127192497253,0.5387465357780457
1631021160567,0.7752500772476196,0.2717691659927368,-0.2265472412109375,0.7588806748390198
1631021160661,0.7823026180267334,0.2698612213134765,-0.2277266383171081,0.7547970414161682
1631021160755,0.7661634683609009,0.260850042104721,-0.2444203048944473,0.7354099750518799
1631021160880,0.7565450072288513,0.2545792758464813,-0.254843145608902,0.7222098112106323
1631021161052,0.7622050046920776,0.2503783106803894,-0.253400981426239,0.7204170227050781
1631021161114,0.7690441608428955,0.2398859709501266,-0.2510755956172943,0.7144111394882202
1631021161192,0.7714424133300781,0.2222030758857727,-0.2519521117210388,0.7003697752952576
1631021161317,0.7647362351417542,0.1989964097738266,-0.2603202760219574,0.6809926629066467
1631021161364,0.7460493445396423,0.1482411175966262,-0.2603202760219574,0.6570647954940796
1631021161473,0.7460493445396423,0.1411458849906921,-0.2603202760219574,0.6602090001106262
1631021161598,0.7460493445396423,0.2129288762807846,-0.2603202760219574,0.6602090001106262
1631021161708,0.7460493445396423,0.4145576357841491,-0.2603202760219574,0.6602090001106262
1631021161817,0.7585816383361816,0.6589831709861755,-0.2484442591667175,0.6681704521179199
1631021161942,0.761706531047821,0.8581598997116089,-0.2485843896865844,0.6602060794830322
1631021162005,0.7515977025032043,0.9893912076950072,-0.2621988356113434,0.6384693384170532
1631021162083,0.7306780815124512,1.012581467628479,-0.2808678746223449,0.6079517602920532
1631021162211,0.7181663513183594,1.0393201112747192,-0.2894845306873321,0.5885617136955261
1631021162320,0.7249582409858704,1.0695446729660034,-0.2802020311355591,0.583429753780365
1631021162414,0.7309157848358154,1.1025714874267578,-0.2700746953487396,0.5745355486869812
1631021162523,0.7118149399757385,1.1009775400161743,-0.2700746953487396,0.5422061681747437
1631021162586,0.613287627696991,1.1002070903778076,-0.2700746953487396,0.4193685054779053
1631021162664,0.484636515378952,1.1012135744094849,-0.2700746953487396,0.2918203473091125
1631021162836,0.338853508234024,1.1029725074768066,-0.2700746953487396,0.1646046191453933
1631021162945,0.2352474927902221,1.1032600402832031,-0.373147964477539,0.0561138950288295
1631021163086,0.1903185248374939,1.1009577512741089,-0.381923645734787,-0.7923374772071838
1631021163132,0.1592702716588974,1.085976481437683,-0.3548058569431305,-0.8145749568939209
1631021163190,0.1355867236852646,1.033655285835266,-0.3159760534763336,-0.7973490953445435
1631021163291,0.1174347028136253,0.9054004549980164,-0.2918948233127594,-0.7509080171585083
1631021163447,0.1130962148308754,0.632623016834259,-0.2870016992092132,-0.6854417324066162
1631021163525,0.1222821399569511,-0.1741245537996292,-0.2932982742786407,-0.5839503407478333
1631021163634,0.1222821399569511,-0.0907632410526275,-0.2932982742786407,-0.5839503407478333
1631021163712,0.1222821399569511,-0.0907632410526275,-0.2932982742786407,-0.5839503407478333
1631021163811,0.1222821399569511,-0.0907632410526275,-0.2932982742786407,-0.5839503407478333
1631021163904,0.1222821399569511,-0.0907632410526275,-0.2932982742786407,-0.5839503407478333
1631021164092,0.1222821399569511,-0.1039927676320076,-0.2932982742786407,-0.5839503407478333
1631021164181,0.0801233947277069,-0.1148565337061882,-0.3100907206535339,-0.5933557152748108
1631021164245,0.0429781377315521,-0.1355047076940536,-0.3085875511169433,-0.5798519253730774
1631021164332,0.0242188852280378,-0.1504232585430145,-0.2836077213287353,-0.5478848814964294
1631021164416,0.0264291614294052,-0.1437879353761673,-0.2472069412469864,-0.5026628971099854
1631021164735,0.060125645250082,-0.060147613286972,-0.2148117572069168,-0.3749707639217376
1631021164766,0.060125645250082,-0.0020748351234942,-0.2148117572069168,-0.3749707639217376
1631021164870,0.060125645250082,0.0023609430063515,-0.2148117572069168,-0.3749707639217376
1631021164941,0.060125645250082,-0.0034913648851215,-0.2148117572069168,-0.3749707639217376
1631021165027,0.060125645250082,0.0030283278319984,-0.2148117572069168,-0.3749707639217376
1631021165174,0.309777021408081,-0.2003074139356613,-0.5635940432548523,0.3279214799404144
1631021165273,0.410860151052475,-0.1593371331691742,-0.584936261177063,0.3353338241577148
1631021165407,0.4941555857658386,-0.1529299914836883,-0.5703213214874268,0.3394374549388885
1631021165464,0.5352606177330017,-0.1780193001031875,-0.5544148087501526,0.3402308523654938
1631021165571,0.5403800010681152,-0.2160670608282089,-0.5522802472114563,0.3233179450035095
1631021165633,0.5216231346130371,-0.2404539138078689,-0.5593134760856628,0.2939522862434387
1631021165743,0.4932422637939453,-0.2375666499137878,-0.5681861042976379,0.2621301114559173
1631021165897,0.4658419191837311,-0.1855701506137848,-0.5723755359649658,0.2366223484277725
1631021165987,0.4411072432994842,-0.0937078669667244,-0.5751495957374573,0.2166432440280914
1631021166066,0.4175013303756714,0.0055318218655884,-0.5788745880126953,0.2004707008600235
1631021166188,0.394212543964386,0.079383410513401,-0.5879959464073181,0.1850300282239914
1631021166262,0.3706139028072357,0.1158101260662078,-0.5841175317764282,0.1701133102178573
1631021166347,0.3543260097503662,0.1436781287193298,-0.5654042959213257,0.1521788537502288
1631021166524,0.3354281187057495,0.1566043645143509,-0.4940641820430755,0.1188022941350936
1631021166584,0.3114559352397918,0.1623150408267974,-0.3946552574634552,0.072021797299385
1631021166646,0.2707595527172088,0.1654593348503112,-0.3038259744644165,0.0153267718851566
1631021166748,0.1985105127096176,0.1679832488298416,-0.2379309237003326,-0.0509665459394454
1631021166849,0.0884251818060875,0.1687804758548736,-0.1991664767265319,-0.1271933764219284
1631021166943,-0.0436055995523929,0.1694400757551193,-0.1772799640893936,-0.209584042429924
1631021167083,-0.1685349643230438,0.1701042503118515,-0.1620499044656753,-0.2612899839878082
1631021167161,-0.2510841488838196,0.1680458486080169,-0.1494008898735046,-0.2726157009601593
1631021167289,-0.2778991460800171,0.1601810306310653,-0.1365446150302887,-0.2669989168643951
1631021167351,-0.2657686769962311,0.1369722932577133,-0.1131580621004104,-0.2737580239772796
1631021167489,-0.2335800677537918,0.0877846553921699,-0.076386921107769,-0.2885504066944122
1631021167549,-0.2022331058979034,0.0030221433844417,-0.0384722799062728,-0.3031069338321686
1631021167734,-0.1829585880041122,-0.1106428802013397,-0.0073904083110392,-0.295382022857666
1631021167810,-0.1709418892860412,-0.2254303246736526,0.0066097076050937,-0.2517399489879608
1631021167886,-0.1581428796052932,-0.3201916813850403,0.0037190716248005,-0.1749313324689865
1631021168011,-0.135947972536087,-0.3823847472667694,-0.009522471576929,-0.088155098259449
1631021168089,-0.1098360046744346,-0.424815833568573,-0.0278380960226058,-0.0140512082725763
1631021168198,-0.0861097797751426,-0.4567312598228454,-0.0520781874656677,0.047257088124752
1631021168285,-0.074511170387268,-0.4704843163490295,-0.0808906182646751,0.0961527749896049
1631021168423,-0.0693399831652641,-0.4491371214389801,-0.1087795794010162,0.1283046603202819
1631021168509,-0.0614356622099876,-0.4061800539493561,-0.1315534710884094,0.1406306326389312
1631021168591,-0.0465666837990284,-0.3650307357311249,-0.149360179901123,0.1402788758277893
1631021168684,-0.0281271822750568,-0.3362303674221039,-0.1626202315092086,0.1344215273857116
1631021168825,-0.0181184839457273,-0.3215971291065216,-0.173079252243042,0.1294726431369781
1631021168942,-0.0296969786286354,-0.3197700083255768,-0.1957095861434936,0.1275612562894821
1631021169009,-0.0620849505066871,-0.2273611277341842,-0.2424916625022888,0.1407484412193298
1631021169142,-0.0859870314598083,-0.2092988789081573,-0.2997708022594452,0.2026928663253784
1631021169217,-0.0530213788151741,-0.1853752881288528,-0.3340376019477844,0.2151568979024887
1631021169318,0.0583447180688381,-0.1545099169015884,-0.3053222000598907,0.2168280333280563
1631021169401,0.2065632939338684,-0.1208006367087364,-0.2257567942142486,0.2021160423755645
1631021169510,0.3398005366325378,-0.0878393128514289,-0.1422230750322342,0.1723800152540207
1631021169703,0.4403053820133209,-0.0608986988663673,-0.0836960971355438,0.136109322309494
1631021169777,0.511972963809967,-0.0457930043339729,-0.0487591959536075,0.0964188352227211
1631021169867,0.5556240677833557,-0.0462819375097751,-0.0264100842177867,0.0575305297970771
1631021169956,0.5822020769119263,-0.0587075017392635,-0.0106566613540053,0.0331078842282295
1631021170038,0.6068075299263,-0.0729992389678955,0.0123436748981475,0.0476202778518199
1631021170134,0.6326788663864136,-0.071980781853199,0.0384310185909271,0.0955984592437744
1631021170212,0.6597996354103088,-0.071980781853199,0.0662493929266929,0.1653778403997421
1631021170339,0.6892295479774475,-0.071980781853199,0.0948018431663513,0.1653778403997421
1631021170433,0.7235802412033081,-0.071980781853199,0.1253819763660431,0.1653778403997421
1631021170519,0.7643831372261047,-0.071980781853199,0.1615169644355774,0.1653778403997421
1631021170644,0.8086606860160828,-0.071980781853199,0.2017651945352554,0.1653778403997421
1631021170738,0.8485584855079651,-0.071980781853199,0.237541913986206,0.1653778403997421
1631021170847,0.8723781108856201,-0.071980781853199,0.2570663392543793,0.1653778403997421
1631021170972,0.8704707026481628,-0.071980781853199,0.2475219815969467,0.1653778403997421
1631021171033,0.8405930995941162,-0.071980781853199,0.2008416503667831,0.1653778403997421
1631021171139,0.8405930995941162,-0.071980781853199,0.2008416503667831,0.1653778403997421
1631021171229,0.8405930995941162,-0.071980781853199,0.2008416503667831,0.1653778403997421
1631021171432,0.8405930995941162,-0.071980781853199,0.2008416503667831,0.1653778403997421
1631021171518,0.8405930995941162,-0.071980781853199,0.2008416503667831,0.1653778403997421
1631021171565,0.8405930995941162,-0.071980781853199,-0.062445942312479,0.1653778403997421
1631021171634,0.8637199997901917,0.9524261355400084,-0.0021985257044434,1.0498472452163696
1631021171729,0.8779124617576599,0.9671691656112672,0.0162445269525051,1.0842630863189695
1631021171823,0.8632668852806091,0.9435107707977296,0.0048569506034255,1.0842630863189695
1631021171996,0.8329037427902222,0.9003421068191528,-0.0273482277989387,1.048855900764465
1631021172100,0.7976707816123962,0.8533776998519897,-0.069148913025856,1.0067046880722046
1631021172148,0.7595488429069519,0.8079766035079956,-0.112686701118946,0.9620662927627563
1631021172281,0.7186206579208374,0.7674857974052429,-0.1532544195652008,0.9159237742424012
1631021172345,0.6809547543525696,0.7314186096191406,-0.1885993033647537,0.873844563961029
1631021172469,0.6508201360702515,0.6990816593170166,-0.2156182825565338,0.837192952632904
1631021172613,0.6281988024711609,0.6701386570930481,-0.2329898178577423,0.8047953248023987
1631021172676,0.6119711399078369,0.6444281339645386,-0.2446032464504242,0.7757785320281982
1631021172770,0.5980014801025391,0.6208325028419495,-0.2530330717563629,0.7486048936843872
1631021172863,0.5893431305885315,0.5985476970672607,-0.2751106321811676,0.7271028757095337
1631021172988,0.5531694293022156,0.5426369309425354,-0.3182951807975769,0.6744446754455566
1631021173042,0.4882389008998871,0.4384402334690094,-0.3824970126152038,0.573306679725647
1631021173200,0.4030176401138305,0.277510792016983,-0.4648990035057068,0.4059098064899444
1631021173281,0.3147012293338775,0.0812661275267601,-0.5392913222312927,0.1621633917093277
1631021173359,0.2502813041210174,-0.0793500244617462,-0.5573152899742126,0.1621633917093277
1631021173470,0.2095790058374405,-0.1670205891132354,-0.5751271843910217,0.0290536750108003
1631021173581,0.1879859119653701,-0.2054983526468277,-0.5624425411224365,-0.081167459487915
1631021173675,0.1883038431406021,-0.213583767414093,-0.5325044393539429,-0.1529553681612014
1631021173809,0.2146336734294891,-0.2197053134441375,-0.4965288639068603,-0.16215880215168
1631021173874,0.2482790052890777,-0.2283875346183776,-0.4605718851089477,-0.158137172460556
1631021174012,0.2730894386768341,-0.2414506524801254,-0.432714968919754,-0.1681053638458252
1631021174114,0.2846104800701141,-0.2643883228302002,-0.4190134406089782,-0.1930562257766723
1631021174192,0.2792755961418152,-0.3087157905101776,-0.4145243167877197,-0.2380215972661972
1631021174280,0.2678514719009399,-0.3755935728549957,-0.4008539319038391,-0.2893533408641815
1631021174388,0.2562378644943237,-0.4455149471759796,-0.3705288767814636,-0.3295759260654449
1631021174543,0.2562378644943237,-0.4696410596370697,-0.3264550566673279,-0.3295759260654449
1631021174607,0.2562378644943237,-0.4696410596370697,-0.3264550566673279,-0.3295759260654449
1631021174748,0.2562378644943237,-0.4696410596370697,-0.3264550566673279,-0.3295759260654449
1631021174783,0.2562378644943237,-0.4696410596370697,-0.3264550566673279,-0.3295759260654449
1631021174886,0.2562378644943237,-0.4696410596370697,-0.3264550566673279,-0.3295759260654449
1631021175011,0.2562378644943237,-0.4696410596370697,-0.3264550566673279,-0.3295759260654449
1631021175121,0.2562378644943237,-0.4696410596370697,-0.3264550566673279,-0.3295759260654449
1631021175201,0.2562378644943237,-0.4696410596370697,-0.3264550566673279,-0.3295759260654449
1631021175319,0.2562378644943237,-0.4696410596370697,-0.3264550566673279,-0.3295759260654449
1631021175397,0.2562378644943237,-0.4696410596370697,-0.3264550566673279,-0.3295759260654449
1631021175491,0.2562378644943237,-0.4696410596370697,-0.3264550566673279,-0.3295759260654449
1631021175616,0.2562378644943237,-0.4696410596370697,-0.3264550566673279,-0.3295759260654449
1631021175710,0.2562378644943237,-0.4696410596370697,-0.3264550566673279,-0.3295759260654449
1631021175835,0.2562378644943237,-0.4696410596370697,-0.3264550566673279,-0.3295759260654449
1631021175897,0.2562378644943237,-0.4696410596370697,-0.3264550566673279,-0.3295759260654449
1631021175975,0.2562378644943237,-0.4696410596370697,-0.3264550566673279,-0.3295759260654449
1631021176085,0.2562378644943237,-0.4696410596370697,-0.3264550566673279,-0.3295759260654449
1631021176241,0.2562378644943237,-0.4696410596370697,-0.3264550566673279,-0.3295759260654449
1631021176308,0.2562378644943237,-0.4696410596370697,-0.3264550566673279,-0.3295759260654449
1631021176436,0.2562378644943237,-0.4696410596370697,-0.3264550566673279,-0.3295759260654449
1631021176499,0.2562378644943237,-0.4696410596370697,-0.3264550566673279,-0.3295759260654449
1631021176593,0.2562378644943237,-0.4696410596370697,-0.3264550566673279,-0.3295759260654449
1631021176686,0.2562378644943237,-0.4696410596370697,-0.3264550566673279,-0.3295759260654449
1631021176843,0.2562378644943237,-0.4696410596370697,-0.3264550566673279,-0.3295759260654449
1631021176936,0.2562378644943237,-0.4696410596370697,-0.3264550566673279,-0.3295759260654449
1631021177014,0.2562378644943237,-0.4696410596370697,-0.3264550566673279,-0.3295759260654449
1631021177124,0.2562378644943237,-0.4696410596370697,-0.3264550566673279,-0.3295759260654449
1631021177217,0.2562378644943237,-0.4696410596370697,-0.3264550566673279,-0.3295759260654449
1631021177283,0.2562378644943237,-0.4696410596370697,-0.3264550566673279,-0.3295759260654449
1631021177455,0.2562378644943237,-0.4696410596370697,-0.3264550566673279,-0.3295759260654449
1631021177533,0.2562378644943237,-0.4696410596370697,-0.3264550566673279,-0.3295759260654449
1631021177627,0.1088941097259521,-0.4696410596370697,-0.1126875951886177,-0.3295759260654449
1631021177721,0.0797287598252296,-0.2403249889612198,-0.1581546515226364,-0.3295759260654449
1631021177830,0.0679007992148399,-0.307922899723053,-0.1692861169576645,0.2499184608459472
1631021177924,0.0783215537667274,-0.3596395850181579,-0.1535163819789886,0.2552619874477386
1631021178076,0.1043181866407394,-0.3943999707698822,-0.1389780342578888,0.2419711351394653
1631021178179,0.1331871300935745,-0.411054253578186,-0.1376397907733917,0.2156401574611663
1631021178257,0.1450808942317962,-0.414467304944992,-0.1499854922294616,0.1797279417514801
1631021178320,0.1368972212076187,-0.4100652039051056,-0.1653739511966705,0.1428772509098053
1631021178460,0.1205740943551063,-0.4041143655776977,-0.1752096116542816,0.1101751700043678
1631021178554,0.1111085191369056,-0.4032476842403412,-0.1775902211666107,0.0855988636612892
1631021178695,0.1162186041474342,-0.4089632928371429,-0.1723513901233673,0.0704690068960189
1631021178757,0.1306170225143432,-0.4208280742168426,-0.167740911245346,0.0572559870779514
1631021178882,0.1125006377696991,-0.4377678036689758,-0.1958378106355667,0.038919623941183
1631021178960,0.1187384203076362,-0.5105308890342712,-0.2174813896417617,0.0190353244543075
1631021179038,0.1298249512910843,-0.5659235715866089,-0.227918654680252,-0.0220760833472013
1631021179179,0.1329204738140106,-0.5803857445716858,-0.231066808104515,-0.0480169430375099
1631021179291,0.1275648474693298,-0.564974308013916,-0.2393812835216522,-0.0659058913588523
1631021179401,0.1171898692846298,-0.5384247303009033,-0.2620229125022888,-0.0717824772000312
1631021179448,0.0984553918242454,-0.5157772302627563,-0.3039239943027496,-0.0704604685306549
1631021179573,0.0754387751221656,-0.5063862800598145,-0.3543286025524139,-0.0549064427614212
1631021179713,0.0635016039013862,-0.5128301978111267,-0.4003515839576721,-0.0230483561754226
1631021179798,0.0800076350569725,-0.5315578579902649,-0.4307681620121002,0.0224162712693214
1631021179883,0.1151706576347351,-0.5598917007446289,-0.447801798582077,0.0621785968542099
1631021179992,0.1441148072481155,-0.5936031341552734,-0.45640429854393,0.0849096104502677
1631021180086,0.1527146100997924,-0.6228234171867371,-0.4614180326461792,0.0941048711538314
1631021180211,0.1407245099544525,-0.6464941501617432,-0.4803235232830047,0.0898333415389061
1631021180277,0.1156140118837356,-0.663712739944458,-0.516211748123169,0.0803675800561904
1631021180386,0.0893340408802032,-0.6700798869132996,-0.5474863648414612,0.0767866149544715
1631021180511,0.0683000311255455,-0.6707296371459961,-0.5621230006217957,0.0763763189315795
1631021180573,0.0515724793076515,-0.67002934217453,-0.565606415271759,0.0725395455956459
1631021180683,0.0383447222411632,-0.6806928515434265,-0.5502942204475403,0.0617957822978496
1631021180761,0.0274051651358604,-0.7148450613021851,-0.5209792256355286,0.0405169650912284
1631021180886,0.0202083978801965,-0.767216145992279,-0.4911624193191528,0.0083529753610491
1631021180980,0.0152969127520918,-0.8167651891708374,-0.4672783315181732,-0.0237089898437261
1631021181089,0.003435467602685,-0.8379598259925842,-0.4487285017967224,-0.0481083989143371
1631021181274,-0.0318093225359916,-0.8237192630767822,-0.4232741594314575,-0.0708146691322326
1631021181326,-0.1018809527158737,-0.7928490042686462,-0.3857623636722564,-0.1066908463835716
1631021181404,-0.2002881616353988,-0.7724217176437378,-0.3510425388813019,-0.1532517522573471
1631021181560,-0.2949417531490326,-0.7544565200805664,-0.3362734913825989,-0.194230630993843
1631021181591,-0.3502794802188873,-0.7273269295692444,-0.3472932279109955,-0.2251831293106079
1631021181716,-0.3649758994579315,-0.6869277358055115,-0.3637825846672058,-0.2369391173124313
1631021181810,-0.352932870388031,-0.635300874710083,-0.3585714399814605,-0.2362200021743774
1631021181966,-0.3288734555244446,-0.582405149936676,-0.3249963223934173,-0.2363191395998001
1631021182013,-0.2965637743473053,-0.5366259217262268,-0.274673581123352,-0.2384898513555526
1631021182091,-0.2690551280975342,-0.5048828125,-0.2239657789468765,-0.2401268482208252
1631021182216,-0.2505410611629486,-0.480470210313797,-0.1933755427598953,-0.2462775558233261
1631021182345,-0.2402202486991882,-0.4552620947360992,-0.1801502108573913,-0.2551065981388092
1631021182407,-0.2365019768476486,-0.4293965995311737,-0.1726036220788955,-0.2722572386264801
1631021182485,-0.2323343306779861,-0.4013723731040954,-0.1610675007104873,-0.3003968894481659
1631021182610,-0.2291375696659088,-0.3777356445789337,-0.1503676027059555,-0.3424877822399139
1631021182673,-0.2231853753328323,-0.3652207553386688,-0.1455765813589096,-0.3740514516830444
1631021182766,-0.2076102346181869,-0.3649837672710418,-0.1543248295783996,-0.35482919216156
1631021182907,-0.1672756224870681,-0.3669986128807068,-0.1672500967979431,-0.286638081073761
1631021183047,-0.1043750420212745,-0.3721106350421905,-0.1779679358005523,-0.2123532444238662
1631021183110,-0.0340863019227981,-0.3816790878772735,-0.1780635714530944,-0.155284970998764
1631021183235,0.0243327375501394,-0.3956599831581116,-0.1713044643402099,-0.1203628405928611
1631021183299,0.0568156503140926,-0.4140112102031708,-0.1708558499813079,-0.1025975421071052
1631021183424,0.0677128434181213,-0.4365578293800354,-0.1892528086900711,-0.0941512659192085
1631021183533,0.0748762786388397,-0.455412894487381,-0.2330510467290878,-0.0823733210563659
1631021183643,0.0853529721498489,-0.4613032341003418,-0.2921352386474609,-0.062098529189825
1631021183736,0.1028729230165481,-0.4573446810245514,-0.3428654670715332,-0.0365760326385498
1631021183830,0.1154650375247001,-0.4571942090988159,-0.3725450932979584,-0.0184237360954284
1631021183940,0.1228679567575454,-0.464311420917511,-0.3874236941337585,-0.0094178738072514
1631021184017,0.1256005465984344,-0.486336886882782,-0.4027518928050995,-0.0101768039166927
1631021184158,0.1258788704872131,-0.5122486352920532,-0.4183150231838226,-0.0139003610238432
1631021184285,0.1221425756812095,-0.5232080817222595,-0.4431040287017822,-0.0271689314395189
1631021184332,0.11481624096632,-0.5124427080154419,-0.4657265543937683,-0.0588689297437667
1631021184441,0.0948313251137733,-0.4878913760185241,-0.4916068911552429,-0.1099715456366539
1631021184566,0.0542232245206832,-0.4575302302837372,-0.5138161182403564,-0.1601967066526413
1631021184644,-0.0068888501264154,-0.4359030425548553,-0.5371303558349609,-0.1844080090522766
1631021184785,-0.0740572214126586,-0.4224096536636352,-0.570162832736969,-0.1688844114542007
1631021184832,-0.1143177226185798,-0.4101526737213135,-0.5942395329475403,-0.1198161765933036
1631021184988,-0.1253798753023147,-0.3976881206035614,-0.5850310921669006,-0.0671621114015579
1631021185129,-0.1353060901165008,-0.3971724808216095,-0.5217567086219788,-0.0291550736874341
1631021185191,-0.1502809375524521,-0.4061914086341858,-0.4374566972255707,-0.0059330975636839
1631021185283,-0.1721147149801254,-0.4218226969242096,-0.373256653547287,0.0096750715747475
1631021185382,-0.1785596311092376,-0.4342616200447082,-0.3434076011180877,0.0227814074605703
1631021185460,-0.1687234193086624,-0.4411065876483917,-0.3411790430545807,0.0332341343164444
1631021185569,-0.1472191363573074,-0.4418514668941498,-0.350139319896698,0.0389790721237659
1631021185663,-0.1183838844299316,-0.4443200826644897,-0.3593108057975769,0.0458888597786426
1631021185819,-0.0904178544878959,-0.4573481380939483,-0.361672580242157,0.0582038462162017
1631021185881,-0.0641714036464691,-0.4789106547832489,-0.364089697599411,0.0906995087862014
1631021186006,-0.0396266430616378,-0.4963407218456268,-0.3697507679462433,0.1458315998315811
1631021186069,-0.0145520754158496,-0.4909041225910187,-0.3764346837997436,0.2040360867977142
1631021186163,0.0031369107309728,-0.44615238904953,-0.3834563791751861,0.2434640675783157
1631021186274,0.0146361635997891,-0.3820348083972931,-0.3904362618923187,0.2571969330310821
1631021186337,0.0242189429700374,-0.3258194625377655,-0.4058385789394378,0.2507447302341461
1631021186446,0.036172691732645,-0.2847548723220825,-0.4359588325023651,0.24098901450634
1631021186586,0.0616914555430412,-0.2535673975944519,-0.4957148134708404,0.2380829751491546
1631021186696,0.1064250767230987,-0.2326850593090057,-0.5938734412193298,0.243435800075531
1631021186790,0.1592574119567871,-0.2132546156644821,-0.7129917144775391,0.2491386383771896
1631021186852,0.2063259929418563,-0.1917303651571273,-0.8133009076118469,0.2545528709888458
1631021186977,0.2371289879083633,-0.1743405163288116,-0.8652057647705078,0.2553617060184479
1631021187071,0.2494513839483261,-0.1593664288520813,-0.8795222640037537,0.2569397389888763
1631021187196,0.246074765920639,-0.1445606499910354,-0.8729041218757629,0.2590557336807251
1631021187276,0.2364732325077057,-0.1292145103216171,-0.8599668145179749,0.2587098777294159
1631021187370,0.2247419208288192,-0.1159176602959632,-0.8332201838493347,0.2440436780452728
1631021187511,0.2129841744899749,-0.1076066195964813,-0.7900505661964417,0.2089860290288925
1631021187589,0.2006959915161132,-0.1113687008619308,-0.7448145151138306,0.1554792523384094
1631021187667,0.1913697868585586,-0.1322706043720245,-0.7057740688323975,0.0987981632351875
1631021187839,0.189181238412857,-0.1673461943864822,-0.6771427989006042,0.0539943091571331
1631021187917,0.1964583396911621,-0.2069717496633529,-0.6609456539154053,0.0255547873675823
1631021188010,0.2119340151548385,-0.2482280880212783,-0.6584269404411316,-0.0017378303455188
1631021188120,0.2238915264606475,-0.2846452891826629,-0.6627828478813171,-0.0401298925280571
1631021188198,0.2161897420883178,-0.3110045194625854,-0.6592017412185669,-0.0964915752410888
1631021188278,0.1838803887367248,-0.3353745639324188,-0.6358565092086792,-0.1612585932016372
1631021188435,0.1345582604408264,-0.3666688501834869,-0.603766143321991,-0.2286347001791
1631021188513,0.0862664058804512,-0.3977827727794647,-0.5757027268409729,-0.2740156352519989
1631021188606,0.051806267350912,-0.4314933121204376,-0.5583215951919556,-0.3046070635318756
1631021188731,0.0349092110991478,-0.4713076055049896,-0.5519226789474487,-0.3438527584075928
1631021188810,0.0294299069792032,-0.5165435075759888,-0.5505926609039307,-0.3947373926639557
1631021188872,0.0260560344904661,-0.561580240726471,-0.5552107691764832,-0.4458003342151642
1631021189013,0.0250216163694858,-0.6061742901802063,-0.5703900456428528,-0.4971028864383697
1631021189106,0.0275930482894182,-0.6391637325286865,-0.5957304835319519,-0.5381912589073181
1631021189216,0.0292279049754142,-0.6502401828765869,-0.6244972944259644,-0.5643987655639648
1631021189297,0.0230752136558294,-0.6251699924468994,-0.64818274974823,-0.5568667054176331
1631021189375,0.0001216896707774,-0.5752296447753906,-0.6625211238861084,-0.5160996913909912
1631021189469,-0.0385699868202209,-0.5101510286331177,-0.6675772666931152,-0.4454073905944824
1631021189672,-0.0875479355454444,-0.4559181034564972,-0.665439248085022,-0.380532443523407
1631021189719,-0.1315641105175018,-0.4164775907993316,-0.6570873856544495,-0.3301778733730316
1631021189829,-0.1611687242984771,-0.3826524019241333,-0.6396773457527161,-0.286780834197998
1631021189891,-0.1695567518472671,-0.344671368598938,-0.602958083152771,-0.2392549514770507
1631021189985,-0.146681547164917,-0.3074433803558349,-0.5538894534111023,-0.1969200670719146
1631021190078,-0.0862782076001167,-0.2732644379138946,-0.5136125087738037,-0.1662868857383728
1631021190234,0.0046157771721482,-0.2426147609949112,-0.4825937747955322,-0.1337713301181793
1631021190332,0.0959881469607353,-0.2137292474508285,-0.4543444216251373,-0.0896600261330604
1631021190426,0.1668753176927566,-0.1898519396781921,-0.4276210367679596,-0.0402925685048103
1631021190535,0.2084575146436691,-0.1734590530395507,-0.4055511653423309,0.0047219078987836
1631021190644,0.2255365997552871,-0.1686064600944519,-0.3840923607349396,0.0369979180395603
1631021190707,0.2312542051076889,-0.1774877309799194,-0.3556722402572632,0.0538953877985477
1631021190863,0.2285502851009369,-0.2009843736886978,-0.3192994594573974,0.0542100220918655
1631021190941,0.2174974679946899,-0.2362495809793472,-0.2850245237350464,0.0416033081710338
1631021191066,0.1988250464200973,-0.2745848298072815,-0.26133593916893,0.0161941293627023
1631021191097,0.1762549728155136,-0.3001749813556671,-0.2508942484855652,-0.0131234787404537
1631021191238,0.1592293977737426,-0.3100793063640594,-0.254075139760971,-0.0402561239898204
1631021191316,0.153119757771492,-0.3184864521026611,-0.2726556956768036,-0.0635442733764648
1631021191488,0.1525619924068451,-0.3393067717552185,-0.3062665462493896,-0.085383616387844
1631021191550,0.1439525187015533,-0.3683687746524811,-0.3497314453125,-0.1023310720920562
1631021191628,0.1141447499394416,-0.391238808631897,-0.3903955817222595,-0.1129738613963127
1631021191769,0.0529201254248619,-0.400788277387619,-0.4226098656654358,-0.1318869292736053
1631021191816,-0.038905382156372,-0.4028549194335937,-0.4433774352073669,-0.1728010475635528
1631021191956,-0.1462995857000351,-0.3990222215652466,-0.4542398154735565,-0.2405431270599365
1631021192050,-0.2373060584068298,-0.3917232751846313,-0.4559403657913208,-0.3264114558696747
1631021192144,-0.2905012369155884,-0.3819738030433655,-0.4524448215961456,-0.4145315289497375
1631021192287,-0.3171826004981994,-0.371654212474823,-0.4531271755695343,-0.4840942025184631
1631021192349,-0.3299354612827301,-0.3641712963581085,-0.4617555439472198,-0.5222392678260803
1631021192443,-0.3352113366127014,-0.3600491285324096,-0.4718228876590729,-0.5420979857444763
1631021192537,-0.3349093198776245,-0.3620238900184631,-0.475529283285141,-0.5452900528907776
1631021192662,-0.3245394825935364,-0.3769153356552124,-0.4786238372325897,-0.5380224585533142
1631021192756,-0.3169611096382141,-0.4066361486911773,-0.4824150204658508,-0.5199580192565918
1631021192896,-0.3226985037326813,-0.4402406811714172,-0.4877881109714508,-0.4864403307437897
1631021193005,-0.3438916802406311,-0.4633403718471527,-0.4944247603416443,-0.4387767910957336
1631021193083,-0.3743877410888672,-0.4715330302715301,-0.4957011938095093,-0.3882878124713897
1631021193177,-0.4084252417087555,-0.4766460657119751,-0.4830494523048401,-0.3466902375221252
1631021193289,-0.4473471939563751,-0.4909383058547973,-0.457315981388092,-0.3180235028266907
1631021193383,-0.487440288066864,-0.5179996490478516,-0.4368723928928375,-0.2953937351703644
1631021193461,-0.5233632326126099,-0.5555531978607178,-0.4303476810455322,-0.271597146987915
1631021193601,-0.5492877960205078,-0.5959053039550781,-0.438810259103775,-0.2533372342586517
1631021193679,-0.5665546655654907,-0.6317847371101379,-0.4519490599632263,-0.2448677569627761
1631021193758,-0.5807551741600037,-0.6514978408813477,-0.4605321288108825,-0.2436015456914901
1631021193914,-0.5890398025512695,-0.6504886746406555,-0.4614665508270263,-0.2446772158145904
1631021194023,-0.6026133298873901,-0.6402754783630371,-0.4514239430427551,-0.2429120689630508
1631021194132,-0.6251900792121887,-0.6229122877120972,-0.4350661635398865,-0.2317022085189819
1631021194179,-0.6543641686439514,-0.5977752208709717,-0.4167282283306122,-0.2067461907863617
1631021194277,-0.6715236902236938,-0.56710284948349,-0.4049590229988098,-0.1761500388383865
1631021194371,-0.6506980657577515,-0.5387260913848877,-0.4009928405284881,-0.1565459668636322
1631021194574,-0.5970601439476013,-0.5231459736824036,-0.4007479846477508,-0.1534920632839203
1631021194668,-0.544879674911499,-0.5218961238861084,-0.4048547744750976,-0.1563790589570999
1631021194730,-0.5182141661643982,-0.537122368812561,-0.4105074405670166,-0.1455480903387069
1631021194777,-0.5015996098518372,-0.5571339130401611,-0.4124972522258758,-0.1129857972264289
1631021194871,-0.4765156209468841,-0.5671375393867493,-0.3971024453639984,-0.0763752683997154
1631021194980,-0.4309097826480865,-0.5545772910118103,-0.3632372319698334,-0.0529124215245246
1631021195105,-0.3710442185401916,-0.5245286822319031,-0.3196519017219543,-0.0437423884868621
1631021195230,-0.3100752532482147,-0.4782791137695312,-0.2863455414772033,-0.0365778245031833
1631021195327,-0.2603079974651336,-0.4239068925380707,-0.2744744122028351,-0.0268137864768505
1631021195373,-0.2271439582109451,-0.3743046224117279,-0.2746133506298065,-0.0193282812833786
1631021195503,-0.2095041126012802,-0.3372354507446289,-0.2699771523475647,-0.0192343164235353
1631021195597,-0.2023703157901764,-0.3208076655864715,-0.2473994642496109,-0.0281455274671316
1631021195706,-0.2034315019845962,-0.3161382675170898,-0.2021869271993637,-0.0416084676980972
1631021195815,-0.211005687713623,-0.3105547726154327,-0.151459738612175,-0.0560077019035816
1631021195972,-0.2223752737045288,-0.296064019203186,-0.110291801393032,-0.0660001337528228
1631021196003,-0.2222271263599395,-0.2760687172412872,-0.08862966299057,-0.0709402039647102
1631021196128,-0.1898797005414962,-0.2543921768665313,-0.0811137780547142,-0.0793109908699989
1631021196206,-0.1247806921601295,-0.2302491813898086,-0.0831251963973045,-0.0988452583551406
1631021196400,-0.0586593821644783,-0.2093386203050613,-0.0944914892315864,-0.1321770101785659
1631021196434,-0.0112995216622948,-0.1996548920869827,-0.11670683324337,-0.1712310910224914
1631021196543,0.0118684191256761,-0.2054395675659179,-0.1474269926548004,-0.2028229087591171
1631021196641,0.0178835242986679,-0.2232132256031036,-0.1798112988471985,-0.2212368994951248
1631021196725,0.0182630997151136,-0.2502910196781158,-0.2051024883985519,-0.2355132400989532
1631021196825,0.0263881906867027,-0.284620851278305,-0.2166952043771743,-0.2499752640724182
1631021196987,0.0542825385928154,-0.3201050758361816,-0.2207402735948562,-0.2533006370067596
1631021197053,0.0954010188579559,-0.3494043052196502,-0.2368211150169372,-0.2466297298669815
1631021197116,0.133806511759758,-0.3661650121212005,-0.2764120995998382,-0.2375047206878662
1631021197225,0.1608452945947647,-0.3809268176555633,-0.3459898233413696,-0.2396413832902908
1631021197303,0.1785166412591934,-0.4038514196872711,-0.424078494310379,-0.2549725174903869
1631021197498,0.1910171210765838,-0.438302606344223,-0.4810691773891449,-0.280245840549469
1631021197576,0.1957974731922149,-0.4704918563365936,-0.4802328050136566,-0.3102777600288391
1631021197650,0.1860113143920898,-0.4933108687400818,-0.4221434891223907,-0.3252014517784118
1631021197736,0.1618927866220474,-0.5118491649627686,-0.342231273651123,-0.3206222653388977
1631021197828,0.1285957843065261,-0.5297326445579529,-0.274600476026535,-0.2970110774040222
1631021197968,0.0986747071146965,-0.5440576076507568,-0.2274411916732788,-0.2636982798576355
1631021198087,0.079336479306221,-0.5505312085151672,-0.1981955170631408,-0.2275612652301788
1631021198175,0.0678563714027404,-0.5504400730133057,-0.1816362738609314,-0.1968593150377273
1631021198293,0.0527901053428649,-0.5504944920539856,-0.1739969402551651,-0.1743971109390258
1631021198383,0.0265643764287233,-0.5560710430145264,-0.1727256923913955,-0.1612194031476974
1631021198443,-0.0221265945583581,-0.5727960467338562,-0.1806262582540512,-0.1602350026369094
1631021198582,-0.089870236814022,-0.5976352691650391,-0.1917712986469268,-0.1672275215387344
1631021198648,-0.1606969088315963,-0.6208947896957397,-0.1993041485548019,-0.1776614189147949
1631021198778,-0.2167620509862899,-0.6276824474334717,-0.2004893720149994,-0.185829758644104
1631021198871,-0.2499771863222122,-0.6217928528785706,-0.1985651552677154,-0.1874739229679107
1631021198950,-0.2652057111263275,-0.6148732900619507,-0.193321406841278,-0.1827548146247863
1631021199121,-0.2626903653144836,-0.6199511885643005,-0.1898875385522842,-0.1753782033920288
1631021199168,-0.238450139760971,-0.6391047239303589,-0.2002858072519302,-0.1772556453943252
1631021199309,-0.2070521712303161,-0.6604800820350647,-0.2287497073411941,-0.1860927492380142
1631021199364,-0.136052057147026,-0.5534828901290894,-0.2343174219131469,-0.2137310355901718
1631021199467,-0.0281892251223325,-0.3013351559638977,-0.1674294918775558,-0.2578115463256836
1631021199561,-0.0214730203151702,0.0584918893873691,0.0116355838254094,-0.3136860132217407
1631021199670,-0.0158084146678447,0.3844111561775207,0.2349101603031158,-0.3664393126964569
1631021199749,-0.0020801040809601,0.6216737031936646,0.4248245358467102,0.4170254170894623
1631021199873,0.021025002002716,0.7714900970458984,0.5498884916305542,0.4504147171974182
1631021199983,0.4064253866672516,0.8523213863372803,0.6177598237991333,0.4902269840240478
1631021200139,0.5173044800758362,0.8869877457618713,0.6465608477592468,0.5371037125587463
1631021200217,0.5564519166946411,0.8975832462310791,0.6555526256561279,0.5878340005874634
1631021200298,0.5650079250335693,0.8999630808830261,0.6569496989250183,0.6436668038368225
1631021200361,0.5663552284240723,0.9025477170944214,0.6577797532081604,0.6698039174079895
1631021200455,0.5635696649551392,0.9057869911193848,0.6580004692077637,0.6888460516929626
1631021200595,0.5561888217926025,0.9108149409294128,0.6590129733085632,0.7002412676811218
1631021200704,0.5447309613227844,0.9173892140388488,0.6614195108413696,0.7081380486488342
1631021200814,0.5314130783081055,0.9238433241844176,0.664474606513977,0.7160653471946716
1631021200908,0.5061303377151489,0.925864279270172,0.6627610921859741,0.670499861240387
1631021200986,0.4568577706813812,0.9199219346046448,0.650538444519043,0.6301383376121521
1631021201064,0.4193525314331054,0.8916407823562622,0.6126513481140137,0.592251718044281
1631021201236,0.3856086134910583,0.8214243054389954,0.5295273065567017,0.5555485486984253
1631021201345,0.3563299179077148,0.6963677406311035,0.3852571845054626,0.1335073858499527
1631021201392,0.3338230848312378,0.5214850902557373,0.186577633023262,0.1020669266581535
1631021201501,0.021235067397356,0.3338064849376678,-0.0229375306516885,0.0779383033514022
1631021201595,-0.2399830967187881,0.1982654482126236,-0.1652223914861679,0.0569636784493923
1631021201658,-0.1766688525676727,0.1442266106605529,-0.2084912061691284,-0.0382167026400566
1631021201892,-0.138742133975029,0.1338347047567367,-0.1910783797502517,-0.0512071996927261
1631021201954,-0.1006060987710952,0.1265799105167389,-0.1635434478521347,-0.1070884466171264
1631021202027,-0.0780087485909462,0.1223233118653297,-0.1317438632249832,-0.1602585762739181
1631021202085,-0.0667215436697006,0.1113800853490829,-0.1180102452635765,-0.2052699476480484
1631021202194,-0.0647081434726715,0.0868688076734542,-0.1298300921916961,-0.2518616616725921
1631021202319,-0.0638718008995056,0.0506222546100616,-0.1573763191699981,-0.3207701742649078
1631021202444,-0.0598710738122463,0.0112927230075001,-0.1824289709329605,-0.383611261844635
1631021202522,-0.0468367598950862,-0.033504944294691,-0.1966101229190826,-0.439271330833435
1631021202632,-0.0253373738378286,-0.0882845744490623,-0.1967250555753708,-0.4464960992336273
1631021202741,0.0005228592199273,-0.1456774473190307,-0.1905018240213394,-0.3934423327445984
1631021202804,0.0206330474466085,-0.2013425081968307,-0.1868071854114532,-0.306985080242157
1631021202913,0.0222930964082479,-0.2450583428144455,-0.1874223798513412,-0.2267598062753677
1631021203022,-0.0005029590683989,-0.2645023465156555,-0.1856736689805984,-0.1714015901088714
1631021203132,-0.0434119813144207,-0.2610496878623962,-0.1662562638521194,-0.1346427947282791
1631021203241,-0.1018890589475631,-0.2531629204750061,-0.1371805220842361,-0.1091537922620773
1631021203350,-0.1657276898622512,-0.2492497116327285,-0.113209493458271,-0.0957666188478469
1631021203450,-0.2154550105333328,-0.2528374791145324,-0.1034829244017601,-0.0877425372600555
1631021203544,-0.2255716621875763,-0.2699182629585266,-0.1121273785829544,-0.0674434453248977
1631021203653,-0.1960665881633758,-0.2974919080734253,-0.1281712055206298,-0.030485562980175
1631021203778,-0.1498743146657943,-0.3272508084774017,-0.1407626271247863,0.0071222241967916
1631021203856,-0.1134545430541038,-0.3442742526531219,-0.1413980424404144,0.0372802913188934
1631021203934,-0.0958384200930595,-0.3506331443786621,-0.1331810355186462,0.0540960058569908
1631021204028,-0.095744714140892,-0.3562780916690826,-0.1238464787602424,0.0669822841882705
1631021204122,-0.1071317344903945,-0.3642218708992004,-0.1171537414193153,0.0795082002878189
1631021204262,-0.1233486905694007,-0.3657585978507995,-0.113749511539936,0.0899640545248985
1631021204375,-0.1246736422181129,-0.3521302044391632,-0.1109498292207717,0.0979670956730842
1631021204437,-0.0964596047997474,-0.3257386088371277,-0.1071972399950027,0.1002492681145668
1631021204562,-0.05886160582304,-0.3037027716636657,-0.1098823323845863,0.0945407375693321
1631021204672,-0.0250586569309234,-0.2896917462348938,-0.1318413168191909,0.0875105857849121
1631021204734,0.0040266420692205,-0.2823902368545532,-0.1752079129219055,0.0811068192124366
1631021204859,0.03428740426898,-0.2760688364505768,-0.2359717041254043,0.0842291638255119
1631021204969,0.0578147582709789,-0.2722989916801452,-0.3057946264743805,0.0950689390301704
1631021205047,0.0644389986991882,-0.2716508209705353,-0.3669358193874359,0.1020826697349548
1631021205156,0.0544276051223278,-0.2743735909461975,-0.4031489789485931,0.098843440413475
1631021205250,0.0401035547256469,-0.2752785086631775,-0.4106903374195099,0.091825745999813
1631021205376,0.0392713919281959,-0.2752887308597564,-0.4146986901760101,0.0859998911619186
1631021205455,0.070718877017498,-0.2777550816535949,-0.4178345501422882,0.0878039672970771
1631021205580,0.1285942047834396,-0.2776876091957092,-0.4113076031208038,0.0908557847142219
1631021205658,0.189746081829071,-0.2673584818840027,-0.3945634663105011,0.0841126218438148
1631021205767,0.2392891496419906,-0.2499830424785614,-0.3583951890468597,0.0697363466024398
1631021205845,0.2666780650615692,-0.2345805317163467,-0.3082137405872345,0.0475610829889774
1631021206001,0.2758600413799286,-0.2271899431943893,-0.2628404200077057,0.0251712594181299
1631021206101,0.2825933694839477,-0.2239274829626083,-0.2323818951845169,0.0104715367779135
1631021206197,0.2916301488876343,-0.2241584509611129,-0.2127166241407394,0.0007095279870554
1631021206291,0.2986185848712921,-0.2242702096700668,-0.2033004313707351,-0.0070852441713213
1631021206372,0.3023041188716888,-0.2288983762264251,-0.1918056905269622,-0.0144030759111046
1631021206466,0.3070517480373382,-0.2402443587779998,-0.1669990271329879,-0.0150097496807575
1631021206544,0.3150047063827514,-0.2564464509487152,-0.1416457891464233,-0.005793647840619
1631021206669,0.3221610486507416,-0.2706995606422424,-0.1250649690628051,0.0095289954915642
1631021206779,0.3261905014514923,-0.2798291146755218,-0.1205569356679916,0.0245186407119035
1631021206935,0.3250651061534881,-0.2810700237751007,-0.1256273537874221,0.0367517881095409
1631021206966,0.3142038881778717,-0.2726671099662781,-0.1340903341770172,0.0454662218689918
1631021207060,0.2899142205715179,-0.2588934004306793,-0.1451039463281631,0.0474833138287067
1631021207169,0.2559236288070678,-0.252834141254425,-0.1605291366577148,0.0455250404775142
1631021207294,0.217039942741394,-0.264043390750885,-0.1839009672403335,0.0383621528744697
1631021207388,0.1818620264530182,-0.2922224104404449,-0.2200912535190582,0.0290558729320764
1631021207497,0.1549492925405502,-0.3290770649909973,-0.2623025178909302,0.0196675192564725
1631021207591,0.1311487853527069,-0.3573858141899109,-0.2986935973167419,0.0161952804774045
1631021207685,0.107226476073265,-0.3652305006980896,-0.3248047232627868,0.0233705174177885
1631021207778,0.086367592215538,-0.3536860346794128,-0.3376797437667846,0.0405630655586719
1631021207951,0.0635722875595092,-0.3215105235576629,-0.3517807424068451,0.0582652650773525
1631021207997,0.0346400924026966,-0.268287181854248,-0.3867793381214142,0.0680586397647857
1631021208169,0.0040020323358476,-0.197458878159523,-0.4229383766651153,0.073448047041893
1631021208216,-0.0162295196205377,-0.1320686787366867,-0.4364148676395416,0.0836661458015441
1631021208297,-0.0279784630984067,-0.083573505282402,-0.4173615872859955,0.100452072918415
1631021208390,-0.0432127304375171,-0.050185315310955,-0.3767423629760742,0.1128082424402237
1631021208547,-0.0729941129684448,-0.0287926327437162,-0.3435387313365936,0.1135566458106041
1631021208594,-0.1128091812133789,-0.0195120926946401,-0.3325745761394501,0.1038886085152626
1631021208719,-0.1476581841707229,-0.0221379175782203,-0.3420847952365875,0.0917600318789482
1631021208828,-0.1627575606107711,-0.0283937957137823,-0.3576496541500091,0.0834823697805404
1631021208906,-0.1603556126356125,-0.0352708995342254,-0.36785888671875,0.0785783901810646
1631021208984,-0.156711921095848,-0.0406393110752105,-0.3736908137798309,0.0761607363820076
1631021209156,-0.1668980419635772,-0.0484114810824394,-0.3777726888656616,0.0712422654032707
1631021209250,-0.187495619058609,-0.0592973642051219,-0.3794459998607635,0.0612217783927917
1631021209346,-0.2066166847944259,-0.0740955844521522,-0.3742547631263733,0.0461573377251625
1631021209409,-0.2192892432212829,-0.0955402478575706,-0.3641662895679474,0.0247273072600364
1631021209518,-0.2291389405727386,-0.1309645473957061,-0.3583829402923584,-0.0052292915061116
1631021209596,-0.2478471547365188,-0.1844184547662735,-0.3706423640251159,-0.0472489260137081
1631021209737,-0.2799322009086609,-0.2451077997684478,-0.404516190290451,-0.1072939559817314
1631021209862,-0.3157846927642822,-0.2969608902931213,-0.4545287191867828,-0.177737295627594
1631021209940,-0.3362016081809997,-0.3397677540779114,-0.5102331042289734,-0.2379227727651596
1631021210018,-0.335328459739685,-0.3807484805583954,-0.5617383122444153,-0.2716164588928222
1631021210112,-0.3299064636230469,-0.4156683683395386,-0.5854464173316956,-0.2774854600429535
1631021210206,-0.3371599912643432,-0.4252189695835113,-0.567152738571167,-0.2732487618923187
1631021210317,-0.366668701171875,-0.4131242632865906,-0.5314273834228516,-0.2758312523365021
1631021210427,-0.4057570695877075,-0.3869805037975311,-0.5002726316452026,-0.2850504517555237
1631021210536,-0.4464475214481354,-0.3601171970367431,-0.47687429189682,-0.3000959455966949
1631021210614,-0.4767836630344391,-0.3383565545082092,-0.4624176621437073,-0.3149851858615875
1631021210723,-0.491913229227066,-0.3228857815265655,-0.4551560282707214,-0.3346956968307495
1631021210833,-0.5000651478767395,-0.308350920677185,-0.4589056670665741,-0.365566074848175
1631021210942,-0.4907818734645843,-0.2878650724887848,-0.4722417593002319,-0.4005243182182312
1631021211068,-0.4566245675086975,-0.258819580078125,-0.4854553341865539,-0.4307998418807983
1631021211114,-0.3992103040218353,-0.2381673604249954,-0.4902902245521545,-0.4608213603496551
1631021211239,-0.3348008096218109,-0.2378574162721634,-0.4877611398696899,-0.4960527420043945
1631021211317,-0.2802327275276184,-0.2557385861873626,-0.4829002320766449,-0.5219001770019531
1631021211458,-0.242796391248703,-0.2794261872768402,-0.4841670393943786,-0.4969224035739898
1631021211629,-0.2238721251487732,-0.2997104525566101,-0.4827786982059479,-0.4098321199417114
1631021211708,-0.2147367894649505,-0.3123819231986999,-0.4866577386856079,-0.3140866458415985
1631021211739,-0.2118953019380569,-0.321646511554718,-0.4982233643531799,-0.2442295402288437
1631021211848,-0.201759859919548,-0.3324544727802276,-0.5100272297859192,-0.1971715241670608
1631021211942,-0.1901565492153167,-0.3478014469146728,-0.5119659304618835,-0.1633956730365753
1631021212067,-0.1808399111032486,-0.3691486716270447,-0.4939915537834167,-0.1399812251329422
1631021212161,-0.1747378259897232,-0.3905159533023834,-0.4560699462890625,-0.1220094040036201
1631021212270,-0.1734311878681183,-0.4075257182121277,-0.4128045439720154,-0.1117004975676536
1631021212414,-0.1762552261352539,-0.4244106113910675,-0.380931407213211,-0.1075751706957817
1631021212476,-0.1862217187881469,-0.4590314924716949,-0.3596627414226532,-0.10652557015419
1631021212664,-0.2021592855453491,-0.5214961767196655,-0.336826354265213,-0.1069806218147277
1631021212711,-0.2287929207086563,-0.5963133573532104,-0.2996760308742523,-0.1078236103057861
1631021212805,-0.2643045485019684,-0.6440699696540833,-0.2589456439018249,-0.1059359386563301
1631021212945,-0.2983757555484772,-0.6552873253822327,-0.2295008897781372,-0.1040009036660194
1631021213008,-0.320500761270523,-0.6520369052886963,-0.2166282832622528,-0.1099284291267395
1631021213054,-0.3291384577751159,-0.6503674387931824,-0.2191361188888549,-0.1312062591314315
1631021213179,-0.3271909952163696,-0.6494475603103638,-0.2252137064933776,-0.1596039980649948
1631021213288,-0.2966536283493042,-0.6427059173583984,-0.2309875190258026,-0.1825660318136215
1631021213386,-0.2634238600730896,-0.6336931586265564,-0.2381995469331741,-0.1993769407272339
1631021213495,-0.2212449461221695,-0.6242822408676147,-0.2462691962718963,-0.2112830430269241
1631021213620,-0.1679922640323639,-0.6082997918128967,-0.2585784494876861,-0.2070638090372085
1631021213698,-0.1083248332142829,-0.589205265045166,-0.2773914039134979,-0.186492308974266
1631021213761,-0.0467006005346775,-0.5720068216323853,-0.2998518645763397,-0.1518800854682922
1631021213901,0.0059351283125579,-0.5599644780158997,-0.316415011882782,-0.1184227913618087
1631021213980,0.0407048314809799,-0.5358168482780457,-0.3280667066574096,-0.0954749584197998
1631021214073,0.0531432405114173,-0.4865175187587738,-0.344356894493103,-0.0802378356456756
1631021214167,0.0520250611007213,-0.4196367263793945,-0.3781399726867676,-0.0685387775301933
1631021214339,0.0465911328792572,-0.357887715101242,-0.4223668873310089,-0.0587279051542282
1631021214386,0.0411901623010635,-0.3117495775222778,-0.4572041928768158,-0.0557988733053207
1631021214480,0.0390729717910289,-0.2848459780216217,-0.4640937447547912,-0.061988316476345
1631021214604,0.0424281768500804,-0.2703522443771362,-0.450457215309143,-0.0757641717791557
1631021214714,0.0505046844482421,-0.2605762481689453,-0.4365155398845672,-0.0886289998888969
1631021214854,0.0550717189908027,-0.2534323036670685,-0.4343194663524627,-0.0937015041708946
1631021214901,0.0610957108438015,-0.2484220266342163,-0.4460402131080627,-0.0901764333248138
1631021214995,0.0635500773787498,-0.2444963753223419,-0.4696977734565735,-0.0831815376877784
1631021215104,0.0499730259180069,-0.2456089556217193,-0.500143826007843,-0.0852459892630577
1631021215245,0.019836688414216,-0.2529146075248718,-0.5350899696350098,-0.0960201397538185
1631021215326,-0.0175755210220813,-0.26313316822052,-0.5729813575744629,-0.1032250896096229
1631021215435,-0.050707034766674,-0.273580253124237,-0.6112637519836426,-0.0998503491282463
1631021215498,-0.0702201426029205,-0.2901108860969543,-0.6416045427322388,-0.094030775129795
1631021215591,-0.0607920475304126,-0.3167661428451538,-0.6605613827705383,-0.0918001905083656
1631021215701,-0.0321290418505668,-0.3561560809612274,-0.6752410531044006,-0.0945687592029571
1631021215826,0.0034708033781498,-0.4016709625720978,-0.6913394331932068,-0.1027173772454261
1631021215920,0.0381554588675498,-0.4373676180839538,-0.7034539580345154,-0.1163270622491836
1631021216045,0.0718141347169876,-0.443760484457016,-0.7056794166564941,-0.1313270926475525
1631021216107,0.1032821610569953,-0.4319150149822235,-0.6834675669670105,-0.1478026509284973
1631021216201,0.1310950517654419,-0.4233528971672058,-0.6434532999992371,-0.1651015728712082
1631021216312,0.1523775458335876,-0.4214690327644348,-0.5963018536567688,-0.1778224110603332
1631021216484,0.1639758944511413,-0.4254482090473175,-0.5453892946243286,-0.1833986490964889
1631021216562,0.1671551913022995,-0.4221802949905395,-0.5003178715705872,-0.1805939376354217
1631021216609,0.1687443852424621,-0.3926892578601837,-0.469060868024826,-0.1796245276927948
1631021216749,0.1684969216585159,-0.3422640562057495,-0.4521356225013733,-0.1843413859605789
1631021216874,0.1629977822303772,-0.2955205738544464,-0.4383070170879364,-0.195726990699768
1631021216937,0.1512683182954788,-0.2654686272144317,-0.4163028597831726,-0.1953437626361847
1631021217062,0.1380491107702255,-0.2506286799907684,-0.3890029788017273,-0.1670290380716323
1631021217140,0.1214796155691146,-0.2499492615461349,-0.3606314659118652,-0.1246644258499145
1631021217265,0.1022813245654106,-0.2544372081756592,-0.3334205448627472,-0.0887873470783233
1631021217327,0.0799291357398033,-0.2587146759033203,-0.3055959343910217,-0.0603233650326728
1631021217436,0.0522751286625862,-0.260373592376709,-0.2780742645263672,-0.0268492978066205
1631021217593,0.0137060321867465,-0.2573652267456054,-0.250485748052597,0.0164766237139701
1631021217686,-0.0362434573471546,-0.2473452240228653,-0.2270407229661941,0.0665369927883148
1631021217765,-0.0985058024525642,-0.2367867827415466,-0.2183933109045028,0.1032723411917686
1631021217843,-0.1731495112180709,-0.2334549576044082,-0.2222656905651092,0.1163419708609581
1631021217936,-0.2474065124988556,-0.2365421056747436,-0.232517197728157,0.1146310269832611
1631021218046,-0.2974212169647217,-0.2493520230054855,-0.2425037324428558,0.1088208854198455
1631021218124,-0.2935454845428467,-0.2785596549510956,-0.2503754198551178,0.1161577403545379
1631021218264,-0.2287919819355011,-0.3237797319889068,-0.2508142590522766,0.1427822858095169
1631021218346,-0.1424116939306259,-0.3685910105705261,-0.2463655471801757,0.1761892437934875
1631021218471,-0.063731849193573,-0.3951443433761596,-0.2429709285497665,0.1979551613330841
1631021218596,-0.0111728096380829,-0.3997315168380737,-0.2440167069435119,0.2017845809459686
1631021218689,0.0189448744058609,-0.3857428729534149,-0.2560118734836578,0.1921912729740142
1631021218799,0.0338384285569191,-0.3688922524452209,-0.2777654826641083,0.1792530119419098
1631021218877,0.0423725694417953,-0.3574330508708954,-0.3025695979595184,0.1683539748191833
1631021218986,0.0470416098833084,-0.3559967279434204,-0.3266361653804779,0.1528718918561935
1631021219127,0.0471794493496418,-0.3726795017719269,-0.3515013456344604,0.126550480723381
1631021219189,0.0449233427643775,-0.408227801322937,-0.3757176697254181,0.0895085856318473
1631021219252,0.043213065713644,-0.4370308816432953,-0.3892991840839386,0.06187329813838
1631021219345,0.0449483469128608,-0.444203644990921,-0.3880127072334289,0.0597637668251991
1631021219486,0.0468444414436817,-0.4332079291343689,-0.3762257695198059,0.0722740218043327
1631021219549,0.0423337928950786,-0.4150398373603821,-0.3656068742275238,0.0813358500599861
1631021219783,0.024888901039958,-0.3976548016071319,-0.3604457974433899,0.0750602111220359
1631021219814,-0.001292860484682,-0.3859431743621826,-0.362870991230011,0.0541352666914463
1631021219908,-0.0509882569313049,-0.339756041765213,-0.3598781824111938,0.0121685545891523
1631021219955,-0.1194009929895401,-0.2371550500392913,-0.3595351874828338,-0.0377286449074745
1631021220064,-0.1853750497102737,0.0176483821123838,-0.3581191897392273,-0.0777637809514999
1631021220189,-0.236084908246994,0.3311970233917236,-0.3440978229045868,-0.0949026271700859
1631021220348,-0.2661179602146148,0.5932483077049255,-0.3168662488460541,-0.0905955210328102
1631021220411,-0.2929781079292297,0.7733745574951172,-0.2908016145229339,-0.0768593698740005
1631021220473,-0.3145474791526794,0.877956748008728,-0.2781418859958648,-0.051801860332489
1631021220567,-0.3196320235729217,0.9274498820304872,-0.2816701531410217,-0.016585599631071
1631021220739,-0.3051941096782684,0.9454253315925598,-0.3007261753082275,0.0251457896083593
1631021220895,-0.2778002321720123,0.950037717819214,-0.318354070186615,0.0568207018077373
1631021220942,-0.2778002321720123,0.9504450559616088,-0.3356488943099975,0.0568207018077373
1631021220989,-0.2778002321720123,0.9494872689247132,-0.3356488943099975,0.0568207018077373
1631021221083,-0.2778002321720123,0.948193609714508,-0.3356488943099975,0.0568207018077373
1631021221161,-0.2778002321720123,0.9470360279083252,-0.3356488943099975,0.0568207018077373
1631021221385,-0.2778002321720123,0.9461607336997986,-0.3356488943099975,0.0568207018077373
1631021221463,-0.2778002321720123,0.94338858127594,-0.7529833912849426,0.0413824766874313
1631021221510,-0.2778002321720123,0.93646502494812,-0.7631130218505859,0.0228325054049491
1631021221572,-0.2302618622779846,0.9114219546318054,-0.7677931189537048,0.0301146749407053
1631021221697,-0.1914205402135849,0.8467805981636047,-0.7814299464225769,0.0399567075073719
1631021221807,-0.1939337849617004,0.7181147336959839,-0.7751818299293518,0.0404177792370319
1631021222025,-0.2132940143346786,0.5034465193748474,-0.7318353056907654,0.0237697642296552
1631021222088,-0.2371862381696701,0.1914902627468109,-0.6780943870544434,-0.0029903135728091
1631021222119,-0.2599395215511322,-0.1960700452327728,-0.6447243690490723,-0.0327627882361412
1631021222213,-0.2839742004871368,-0.5486558079719543,-0.6365160942077637,-0.061085857450962
1631021222293,-0.297649621963501,-0.7190186977386475,-0.6481590867042542,-0.0858693718910217
1631021222450,-0.2703330516815185,-0.7250453233718872,-0.6557089686393738,-0.1012411415576934
1631021222575,-0.1895131319761276,-0.6468752026557922,-0.6437904834747314,-0.1002638638019561
1631021222653,-0.1012537404894828,-0.5498331189155579,-0.6205017566680908,-0.1115032508969307
1631021222715,-0.035731803625822,-0.4636752307415008,-0.5296180844306946,-0.0926936715841293
1631021222824,0.0169066321104764,-0.4018741548061371,-0.4348145425319671,-0.0603452175855636
1631021222918,0.0397591069340705,-0.3587215840816498,-0.3648664653301239,-0.037831425666809
1631021223043,0.0401591137051582,-0.3222297430038452,-0.3293325304985046,-0.0405115857720375
1631021223137,0.0261381976306438,-0.290630042552948,-0.3128057718276977,-0.0644536986947059
1631021223231,0.0106455907225608,-0.2704419493675232,-0.2923054099082947,-0.0970824733376503
1631021223326,0.001281667384319,-0.2611885666847229,-0.2721730172634125,-0.1268920004367828
1631021223420,-0.001440548337996,-0.2631560266017914,-0.2593247294425964,-0.1458486020565033
1631021223592,0.0025585412513464,-0.2724880576133728,-0.2539793848991394,-0.1556238830089569
1631021223701,0.0181910917162895,-0.2860568463802337,-0.2450206875801086,-0.1623833626508712
1631021223764,0.0542182214558124,-0.2982701361179352,-0.2291503697633743,-0.1675026416778564
1631021223842,0.1014072597026825,-0.3108554780483246,-0.211030051112175,-0.1692000478506088
1631021223967,0.1331736892461776,-0.3330258131027221,-0.201127678155899,-0.1713578701019287
1631021224154,0.1265989243984222,-0.3717162013053894,-0.2066906094551086,-0.1762913912534713
1631021224232,0.0842583775520324,-0.4240947365760803,-0.2293546050786972,-0.1873838901519775
1631021224314,0.0237843785434961,-0.4831055104732513,-0.2737897038459778,-0.1985873878002166
1631021224376,-0.0263108164072036,-0.5204318165779114,-0.3387252986431122,-0.1942895352840423
1631021224439,-0.0518555790185928,-0.5237239599227905,-0.4073773920536041,-0.1679038107395172
1631021224548,-0.0501564368605613,-0.508929967880249,-0.4547288417816162,-0.133060872554779
1631021224782,-0.0318084508180618,-0.4941080510616302,-0.4826386570930481,-0.1028063222765922
1631021224829,-0.012447802349925,-0.4787861406803131,-0.5180094242095947,-0.0797559171915054
1631021224876,-0.0007898405892774,-0.4661347270011902,-0.5643934607505798,-0.0653994679450988
1631021225001,0.0016462227795273,-0.4554385840892792,-0.621419370174408,-0.052481573075056
1631021225095,-0.0013123180251568,-0.4482555091381073,-0.6806982159614563,-0.0369017273187637
1631021225299,-0.0080738849937915,-0.443411111831665,-0.741671621799469,-0.0188947487622499
1631021225381,-0.0238437633961439,-0.4404468536376953,-0.7808204293251038,0.0020801331847906
1631021225428,-0.0515460595488548,-0.4300453066825866,-0.7632246613502502,0.028975211083889
1631021225474,-0.0865914970636367,-0.4143117070198059,-0.7058629393577576,0.0579845011234283
1631021225568,-0.1152500286698341,-0.3984319865703583,-0.6428878307342529,0.0775505453348159
1631021225677,-0.130727082490921,-0.3923633098602295,-0.599696695804596,0.0824899151921272
1631021225849,-0.1330376416444778,-0.3948741853237152,-0.5788992047309875,0.0856581106781959
1631021225927,-0.1223571822047233,-0.4037818014621734,-0.5657815337181091,0.1065488904714584
1631021225974,-0.0842641368508338,-0.4155618548393249,-0.554330050945282,0.1626602262258529
1631021226052,-0.032877180725336,-0.4259063601493835,-0.5424398183822632,0.242233857512474
1631021226193,0.0260965693742036,-0.4183433949947357,-0.5114818215370178,0.3212089538574219
1631021226293,0.0847199782729148,-0.3868239820003509,-0.444198727607727,0.384967029094696
1631021226418,0.148809403181076,-0.3342988193035126,-0.3310648798942566,0.4360906183719635
1631021226481,0.2125329077243805,-0.265112429857254,-0.1950912922620773,0.4810385406017303
1631021226543,0.2633591294288635,-0.1991420984268188,-0.0803513452410698,0.5179279446601868
1631021226684,0.2905458509922027,-0.1531900614500045,-0.003855176270008,0.5387081503868103
1631021226777,0.2978827059268951,-0.1329103261232376,0.0353059656918048,0.5442140102386475
1631021226887,0.3032035231590271,-0.1313337832689285,0.0531747862696647,0.5438728928565979
1631021227074,0.3167357444763183,-0.1387417912483215,0.0649682432413101,0.543514609336853
1631021227105,0.3473811745643616,-0.148222342133522,0.077011302113533,0.5519680976867676
1631021227168,0.3885821104049682,-0.1535252034664154,0.0865669175982475,0.5703157186508179
1631021227290,0.4251893162727356,-0.1554575860500335,0.0926850140094757,0.5846673250198364
1631021227421,0.4501487612724304,-0.1576020568609237,0.0945354476571083,0.5811654925346375
1631021227499,0.4582065939903259,-0.1617158353328704,0.0948463380336761,0.5549641251564026
1631021227593,0.4509156942367553,-0.1687647849321365,0.0976355448365211,0.5124980807304382
1631021227702,0.4308428168296814,-0.1864848285913467,0.1002446040511131,0.4624933004379272
1631021227765,0.4044460356235504,-0.2167774140834808,0.0944111794233322,0.4122008681297302
1631021227905,0.370439738035202,-0.2608239948749542,0.0698542073369026,0.3613013327121734
1631021228030,0.3301967084407806,-0.3266323804855346,0.0173710621893405,0.3019328713417053
1631021228124,0.2881549596786499,-0.4131653010845184,-0.0576906315982341,0.2362212389707565
1631021228202,0.2564654946327209,-0.4968039989471435,-0.1365827769041061,0.1876969188451767
1631021228298,0.2358502596616745,-0.5483721494674683,-0.1977347135543823,0.1666139960289001
1631021228392,0.2102693617343902,-0.5657976269721985,-0.2459401041269302,0.1520179808139801
1631021228486,0.1731540113687515,-0.5667663812637329,-0.2937361299991607,0.1297517567873001
1631021228642,0.1137835830450058,-0.5624006390571594,-0.3427570462226867,0.0800506323575973
1631021228705,0.0345299206674099,-0.5581443905830383,-0.381944477558136,-0.0068206922151148
1631021228814,-0.0427925176918506,-0.5513079166412354,-0.4090142846107483,-0.1093614250421524
1631021228923,-0.1024026721715927,-0.5459983944892883,-0.4213030934333801,-0.182143822312355
1631021229001,-0.1423694491386413,-0.5524866580963135,-0.4260070621967315,-0.2110510468482971
1631021229080,-0.1628364324569702,-0.573074460029602,-0.4380631148815155,-0.2289623469114303
1631021229220,-0.167728990316391,-0.599415123462677,-0.4667215943336487,-0.2578416168689728
1631021229347,-0.1667350977659225,-0.6222299337387085,-0.5064196586608887,-0.2968877851963043
1631021229426,-0.1634144634008407,-0.6342281699180603,-0.5423589944839478,-0.3365580439567566
1631021229550,-0.1622646301984787,-0.6236408948898315,-0.5435047149658203,-0.3654611706733703
1631021229629,-0.1548899412155151,-0.5853849053382874,-0.4975391626358032,-0.3792598247528076
1631021229754,-0.149728924036026,-0.537294864654541,-0.4403270184993744,-0.3873133063316345
1631021229847,-0.1485716551542282,-0.4894605576992035,-0.4049068689346313,-0.4009954035282135
1631021229941,-0.1505255252122879,-0.4558736979961395,-0.396197110414505,-0.4209791123867035
1631021230050,-0.1506158113479614,-0.4288174510002136,-0.4015648961067199,-0.4378276467323303
1631021230113,-0.1479330211877823,-0.3997462093830108,-0.4086063802242279,-0.444157987833023
1631021230238,-0.1471867114305496,-0.3645048439502716,-0.4068240821361542,-0.4431225955486297
1631021230319,-0.1535724848508834,-0.3329428732395172,-0.3917942345142364,-0.4326519966125488
1631021230460,-0.1756875962018966,-0.3119636476039886,-0.3695246577262878,-0.2416390180587768
1631021230569,-0.2064187377691269,-0.2715790271759033,-0.3455373048782348,0.1408217549324035
1631021230632,-0.237460970878601,-0.1787631213665008,-0.3236832320690155,0.1572681367397308
1631021230741,-0.2665233910083771,-0.0503958575427532,-0.3028865456581116,0.1769449263811111
1631021230804,-0.2946639060974121,0.0687432736158371,-0.2815055251121521,0.2015264481306076
1631021230975,-0.3234700858592987,0.149653360247612,-0.2624452710151672,0.2317479252815246
1631021231053,-0.3483560979366302,0.1868160665035247,-0.2596528232097626,0.2672393918037414
1631021231147,-0.3757871091365814,0.1923445463180542,-0.2769615352153778,0.3065169751644134
1631021231276,-0.3875139057636261,0.1873671412467956,-0.3031795918941498,0.3512707650661468
1631021231355,-0.3757968544960022,0.1901536732912063,-0.3144789934158325,0.4046368896961212
1631021231480,-0.3357681334018707,0.2105745673179626,-0.2925127446651459,0.468427836894989
1631021231527,-0.3357681334018707,0.2512811422348022,-0.2499378025531768,0.7037105560302734
1631021231667,-0.3357681334018707,0.3034380376338959,-0.2060960829257965,0.8576280474662781
1631021231745,-0.3357681334018707,0.3541212975978851,-0.1741806119680404,0.957424819469452
1631021231886,-0.3357681334018707,0.3913533091545105,-0.1572720110416412,1.032185435295105
1631021231948,-0.3357681334018707,0.4292023479938507,-0.1294038146734237,1.099302887916565
1631021232042,-0.3357681334018707,0.4479149878025055,-0.0080277984961867,1.099302887916565
1631021232136,-0.3357681334018707,0.4547310769557953,0.0059050824493169,1.099302887916565
1631021232309,-0.3357681334018707,0.4437589347362518,0.0213319770991802,1.099302887916565
1631021232371,-0.3357681334018707,0.4188545346260071,0.038173746317625,1.099302887916565
1631021232466,-0.3357681334018707,0.3974583148956299,0.0539468973875045,1.099302887916565
1631021232543,-0.3357681334018707,0.4011532664299011,0.0712157934904098,1.099302887916565
1631021232684,-0.3357681334018707,0.4351648688316345,0.0924253389239311,1.099302887916565
1631021232793,-0.3357681334018707,0.4849246740341186,0.1201308146119117,1.099302887916565
1631021232903,-0.3357681334018707,0.5353257656097412,0.1528287529945373,1.099302887916565
1631021232965,-0.3357681334018707,0.578432023525238,0.1828104853630066,1.099302887916565
1631021233074,-0.3357681334018707,0.6046004891395569,0.2094312310218811,1.099302887916565
1631021233184,-0.3357681334018707,0.6046004891395569,0.2410789728164672,1.099302887916565
1631021233287,-0.3357681334018707,0.6046004891395569,0.2118327915668487,1.099302887916565
1631021233375,-0.3357681334018707,0.6046004891395569,0.1976610869169235,1.099302887916565
1631021233516,-0.3357681334018707,0.6046004891395569,0.15280082821846,1.099302887916565
1631021233625,0.3097315728664398,0.6920787692070007,-0.323936402797699,0.5954878330230713
1631021233687,0.3097315728664398,0.8942689299583435,-0.323936402797699,0.5954878330230713
1631021233812,0.3097315728664398,0.8942689299583435,-0.323936402797699,0.5954878330230713
1631021233906,0.3097315728664398,0.8942689299583435,-0.323936402797699,0.5954878330230713
1631021233968,0.3097315728664398,0.8942689299583435,-0.323936402797699,0.5954878330230713
1631021234124,0.3097315728664398,0.8942689299583435,-0.323936402797699,0.5954878330230713
1631021234234,0.3097315728664398,0.8942689299583435,-0.323936402797699,0.5954878330230713
1631021234301,0.3097315728664398,0.8942689299583435,-0.323936402797699,0.5954878330230713
1631021234441,0.3097315728664398,0.8942689299583435,-0.323936402797699,0.5954878330230713
1631021234504,0.3097315728664398,0.8942689299583435,-0.323936402797699,0.5954878330230713
1631021234675,0.3097315728664398,0.8942689299583435,-0.323936402797699,0.5954878330230713
1631021234738,0.3097315728664398,0.8942689299583435,-0.323936402797699,0.5954878330230713
1631021234832,0.3097315728664398,0.9331704378128052,-0.323936402797699,0.5954878330230713
1631021234910,0.3097315728664398,0.9331704378128052,-0.323936402797699,0.5954878330230713
1631021234988,0.3097315728664398,0.9331704378128052,-0.323936402797699,0.5954878330230713
1631021235160,0.3097315728664398,0.9331704378128052,-0.323936402797699,0.5954878330230713
1631021235222,0.3097315728664398,0.9331704378128052,-0.323936402797699,0.5954878330230713
1631021235335,0.3097315728664398,0.9331704378128052,-0.323936402797699,0.5954878330230713
1631021235413,0.3097315728664398,0.9331704378128052,-0.323936402797699,0.5954878330230713
1631021235507,0.3097315728664398,0.9331704378128052,-0.323936402797699,0.5954878330230713
1631021235647,0.3097315728664398,0.9331704378128052,-0.323936402797699,0.5954878330230713
1631021235726,0.3097315728664398,0.9331704378128052,-0.323936402797699,0.5954878330230713
1631021235819,0.3097315728664398,0.9331704378128052,-0.323936402797699,0.5954878330230713
1631021235913,0.3097315728664398,0.9331704378128052,-0.323936402797699,0.5954878330230713
1631021236069,0.3097315728664398,0.9331704378128052,-0.323936402797699,0.5954878330230713
1631021236132,0.3097315728664398,0.9331704378128052,-0.323936402797699,0.5954878330230713
1631021236241,0.3097315728664398,0.9331704378128052,-0.323936402797699,0.5954878330230713
1631021236325,0.3097315728664398,0.9331704378128052,0.3863774538040161,0.5954878330230713
1631021236434,0.3097315728664398,0.9331704378128052,0.4463651180267334,0.5954878330230713
1631021236575,0.3097315728664398,0.9331704378128052,0.4463651180267334,0.5954878330230713
1631021236621,0.3097315728664398,0.9331704378128052,0.4463651180267334,0.5954878330230713
1631021236731,0.3097315728664398,0.9331704378128052,0.4463651180267334,0.5954878330230713
1631021236856,0.3097315728664398,0.9331704378128052,0.4463651180267334,0.5954878330230713
1631021236918,0.3097315728664398,0.9331704378128052,0.4463651180267334,0.5954878330230713
1631021237028,0.3097315728664398,0.9331704378128052,0.4463651180267334,0.5954878330230713
1631021237137,0.3097315728664398,0.9331704378128052,0.4463651180267334,0.5954878330230713
1631021237297,0.3097315728664398,0.9331704378128052,0.4463651180267334,0.5954878330230713
1631021237344,0.3097315728664398,0.9331704378128052,0.4463651180267334,0.5954878330230713
1631021237469,0.3097315728664398,0.9331704378128052,0.4463651180267334,0.5954878330230713
1631021237547,0.3097315728664398,0.9331704378128052,0.4058158695697784,0.5954878330230713
1631021237641,0.3097315728664398,0.9331704378128052,0.4058158695697784,0.5954878330230713
1631021237766,0.3097315728664398,0.9331704378128052,0.4058158695697784,0.5954878330230713
1631021237844,0.3097315728664398,0.9331704378128052,0.4058158695697784,0.5954878330230713
1631021237969,0.3097315728664398,0.9331704378128052,0.4058158695697784,0.5954878330230713
1631021238047,0.3097315728664398,0.9331704378128052,0.4058158695697784,0.5954878330230713
1631021238187,0.3097315728664398,0.9331704378128052,0.4058158695697784,0.5954878330230713
1631021238234,0.3097315728664398,0.9331704378128052,0.4058158695697784,0.5954878330230713
1631021238363,0.3097315728664398,0.9331704378128052,0.4058158695697784,0.5954878330230713
1631021238504,0.3097315728664398,0.9331704378128052,0.4058158695697784,0.5954878330230713
1631021238582,0.3097315728664398,0.9331704378128052,0.4058158695697784,0.5954878330230713
1631021238675,0.3097315728664398,0.9331704378128052,0.4058158695697784,0.5954878330230713
1631021238769,0.3097315728664398,0.9331704378128052,0.4058158695697784,0.5954878330230713
1631021238847,0.3097315728664398,0.9331704378128052,0.4058158695697784,0.5954878330230713
1631021238988,0.3097315728664398,0.9331704378128052,0.4058158695697784,0.5954878330230713
1631021239082,0.3097315728664398,0.9331704378128052,0.4058158695697784,0.5954878330230713
1631021239175,0.3097315728664398,0.9331704378128052,0.4058158695697784,0.5954878330230713
1631021239238,0.3097315728664398,0.9331704378128052,-0.420221209526062,0.5954878330230713
1631021239350,0.5682758688926697,0.9331704378128052,-0.3468323051929474,0.2867018580436706
1631021239459,0.8342766165733337,0.4599813222885132,-0.2030257284641266,0.4075841307640075
1631021239584,0.8342766165733337,0.6120954155921936,-0.0618462935090065,0.5304170846939087
1631021239678,0.8342766165733337,0.7030666470527649,0.0333514362573623,0.6114321351051331
1631021239787,0.8342766165733337,0.7384711503982544,0.0734031796455383,0.6613414883613586
1631021239865,0.8342766165733337,0.7330174446105957,0.070069283246994,0.69147789478302
1631021239975,0.8342766165733337,0.7048160433769226,0.0468241348862648,0.706818699836731
1631021240084,0.8342766165733337,0.6694476008415222,0.0221474487334489,0.7053753733634949
1631021240209,0.8342766165733337,0.639248251914978,0.0005247083608992,0.6897163987159729
1631021240303,0.8342766165733337,0.6267467737197876,-0.0179124474525451,0.674122154712677
1631021240412,0.7741963863372803,0.6535282731056213,-0.0349699407815933,0.670616865158081
1631021240474,0.7347293496131897,0.718572199344635,-0.0344967804849147,0.6845455169677734
1631021240600,0.7517144680023193,0.793775737285614,-0.0268756337463855,0.7325339317321777
1631021240678,0.8066811561584473,0.8191917538642883,0.0516868084669113,0.7561789751052856
1631021240803,0.8509218096733093,0.8446527123451233,0.0724059715867042,0.7782994508743286
1631021240912,0.8127764463424683,0.8643165230751038,0.0849928632378578,0.7948561906814575
1631021241006,0.8127764463424683,0.8711547255516052,0.0761689320206642,0.8023574948310852
1631021241099,0.8127764463424683,0.8623062968254089,0.0373919010162353,0.7938852906227112
1631021241177,0.8127764463424683,0.8451843857765198,-0.0258861798793077,0.7777727842330933
1631021241318,0.8127764463424683,0.83698970079422,-0.0848545208573341,0.7585674524307251
1631021241428,0.8127764463424683,0.8541738390922546,-0.1031242236495018,0.7384796142578125
1631021241490,0.8127764463424683,0.9002488851547241,-0.0810976922512054,0.7222491502761841
1631021241615,0.8127764463424683,0.9692555665969848,-0.0431837253272533,0.7282981276512146
1631021241693,0.8127764463424683,1.0546432733535769,0.0038231795188039,0.7750401496887207
1631021241880,0.8127764463424683,1.0546432733535769,0.0631089583039283,0.7750401496887207
1631021241959,0.8127764463424683,1.0546432733535769,0.0631089583039283,0.7750401496887207
1631021242021,0.8127764463424683,1.0546432733535769,0.0631089583039283,0.7750401496887207
1631021242099,0.8127764463424683,1.0546432733535769,0.0631089583039283,0.7750401496887207
1631021242193,0.8127764463424683,1.0546432733535769,0.0631089583039283,0.7750401496887207
1631021242287,0.8127764463424683,0.5725549459457397,-0.5893499851226807,0.6986698508262634
1631021242412,0.8127764463424683,0.4835398197174072,-0.4221492707729339,0.7024691104888916
1631021242537,0.8127764463424683,0.4118528962135315,-0.2551746666431427,0.6985991597175598
1631021242615,0.5300185084342957,0.351872831583023,-0.1362138092517852,0.691490650177002
1631021242724,0.5300185084342957,0.3078959286212921,-0.0705457180738449,0.691490650177002
1631021242818,0.5300185084342957,0.2985447347164154,-0.053186148405075,0.691490650177002
1631021242911,0.5300185084342957,0.3471973538398742,-0.0643335133790969,0.691490650177002
1631021243052,0.5300185084342957,0.4611039161682129,-0.0915289744734764,0.691490650177002
1631021243115,0.6306673288345337,0.5949643850326538,-0.1222556605935096,0.691490650177002
1631021243255,0.691349983215332,0.7023172974586487,-0.1519602686166763,0.691490650177002
1631021243338,0.7044080495834351,0.7658460140228271,-0.1794228702783584,0.691490650177002
1631021243416,0.7044080495834351,0.7890898585319519,-0.2012032270431518,0.691490650177002
1631021243557,0.7044080495834351,0.7726317048072815,-0.1860877126455307,0.7004112601280212
1631021243635,0.7416079640388489,0.7816208004951477,-0.1649215519428253,0.7054939270019531
1631021243744,0.7416079640388489,0.8054546117782593,-0.1441301107406616,0.7035411596298218
1631021243869,0.7416079640388489,0.8373544812202454,-0.1293096989393234,0.7035411596298218
1631021243978,0.7644522786140442,0.8736972808837891,-0.1357042044401168,0.7035411596298218
1631021244072,0.7960965633392334,0.9136884212493896,-0.1800951212644577,0.7035411596298218
1631021244134,0.7960965633392334,0.9581170082092284,-0.2708246409893036,0.7035411596298218
1631021244275,0.7960965633392334,1.006517767906189,-0.4062961339950561,0.7035411596298218
1631021244338,0.7960965633392334,1.0556368827819824,-0.5491033792495728,0.7035411596298218
1631021244478,0.7960965633392334,1.0981903076171875,-0.6587596535682678,0.7035411596298218
1631021244556,0.7960965633392334,1.1183278560638428,-0.6861921548843384,0.7035411596298218
1631021244650,0.7960965633392334,1.0990111827850342,-0.655707061290741,0.7035411596298218
1631021244775,0.7960965633392334,1.0990111827850342,-0.655707061290741,0.7035411596298218
1631021244837,0.7960965633392334,1.0990111827850342,-0.655707061290741,0.7035411596298218
1631021244947,0.7960965633392334,1.0990111827850342,-0.655707061290741,0.7035411596298218
1631021245072,0.7960965633392334,1.0990111827850342,-0.655707061290741,0.7035411596298218
1631021245166,0.7916355133056641,0.220683678984642,-0.1748230457305908,0.8877601623535156
1631021245293,0.7394088506698608,0.1639540046453476,-0.1957882195711136,0.821489691734314
1631021245373,0.710619330406189,0.1285185664892196,-0.2003992646932602,0.766751229763031
1631021245529,0.6909042000770569,0.1106947362422943,-0.2054211199283599,0.7186216115951538
1631021245591,0.6660610437393188,0.1013344749808311,-0.2176454961299896,0.6724745035171509
1631021245701,0.6363754272460938,0.0890097096562385,-0.2397775501012802,0.6324813365936279
1631021245841,0.6075683236122131,0.0688619837164878,-0.2629812657833099,0.6015031933784485
1631021245904,0.5810760259628296,0.0427881330251693,-0.2843455672264099,0.5728164911270142
1631021245982,0.5678001642227173,0.0118380207568407,-0.3023052513599396,0.5550593733787537
1631021246107,0.5754735469818115,-0.0171143133193254,-0.3183046579360962,0.5621757507324219
1631021246185,0.5989151000976562,-0.0368230193853378,-0.3274067938327789,0.58978670835495
1631021246313,0.628582775592804,-0.0438079386949539,-0.3224208056926727,0.623863935470581
1631021246391,0.6255884766578674,-0.0976485311985015,-0.3343613147735595,0.6073611974716187
1631021246469,0.6276529431343079,-0.110585831105709,-0.3291708528995514,0.6050703525543213
1631021246578,0.6326953768730164,-0.0992850735783577,-0.3224537074565887,0.6134572625160217
1631021246657,0.634504497051239,-0.0574931055307388,-0.3281300663948059,0.63145512342453
1631021246813,0.6333701610565186,0.0498213917016983,-0.3408435583114624,0.6638211607933044
1631021246906,0.6299088597297668,0.2241042852401733,-0.3554662764072418,0.708327054977417
1631021246985,0.6409648060798645,0.4132932126522064,-0.3589957058429718,0.777753472328186
1631021247094,0.6732280850410461,0.574185311794281,-0.3491959571838379,0.8027986288070679
1631021247219,0.7104909420013428,0.6853477954864502,-0.327076107263565,0.8872665762901306
1631021247300,0.7365658283233643,0.7472150325775146,-0.3067623674869537,0.9351440072059632
1631021247394,0.7467795014381409,0.77520751953125,-0.2920202612876892,0.9537675380706788
1631021247518,0.7420367002487183,0.7874753475189209,-0.2835653126239776,0.9539983868598938
1631021247612,0.7226743102073669,0.7941059470176697,-0.278030663728714,0.9435542225837708
1631021247706,0.6917029619216919,0.7952297329902649,-0.2797463536262512,0.9260055422782898
1631021247831,0.6558711528778076,0.7936438322067261,-0.2864077091217041,0.9063254594802856
1631021247893,0.6257280707359314,0.7896482348442078,-0.2819620668888092,0.8854813575744629
1631021247987,0.5975229740142822,0.7848843932151794,-0.2400086969137191,0.8700056076049805
1631021248128,0.5819096565246582,0.7820943593978882,-0.1543071866035461,0.8644469380378723
1631021248206,0.5955334305763245,0.7779293656349182,-0.0574275106191635,0.8656759262084961
1631021248303,0.6228806376457214,0.7628411650657654,0.0211857911199331,0.8639920949935913
1631021248397,0.6454432010650635,0.7208207249641418,0.0695690140128135,0.8496704697608948
1631021248522,0.6385679841041565,0.6368129849433899,0.0970510393381118,0.8021333813667297
1631021248663,0.6000929474830627,0.5000180006027222,0.115977257490158,0.7866301536560059
1631021248741,0.5525056719779968,0.3203724920749664,0.1295174211263656,0.6948409676551819
1631021248850,0.5236292481422424,0.1454602032899856,0.1359606087207794,0.628967821598053
1631021248913,0.5177066922187805,0.0376758947968483,0.1395352184772491,0.61274653673172
1631021249022,0.5384078025817871,-0.0124100809916853,0.1442563384771347,0.6468503475189209
1631021249194,0.5688997507095337,-0.0338629223406314,0.1825229227542877,0.7189120650291443
1631021249256,0.5999756455421448,-0.0215633399784564,0.3049953281879425,0.7369102835655212
1631021249353,0.6217745542526245,0.0024055549874901,0.5001839995384216,0.7492101788520813
1631021249447,0.6217745542526245,0.0300254188477993,0.6911959648132324,0.757506787776947
1631021249572,0.6217745542526245,0.0539829321205616,0.8282947540283203,0.7624145150184631
1631021249681,0.6217745542526245,0.0659439861774444,0.8473931550979614,0.7617014646530151
1631021249775,0.6095042824745178,0.06592258810997,0.8658298850059509,0.7537634968757629
1631021249837,0.5816223621368408,0.0601419433951377,0.8871192336082458,0.7425615787506104
1631021249947,0.5402642488479614,0.0662462934851646,0.8840491771697998,0.736513614654541
1631021250025,0.5115697383880615,0.0977882742881774,0.8801167607307434,0.7480785846710205
1631021250134,0.5115697383880615,0.0977882742881774,0.879114031791687,0.7865553498268127
1631021250308,0.5115697383880615,0.0977882742881774,0.8803098201751709,0.8451455235481262
1631021250340,0.5115697383880615,0.0977882742881774,0.8831172585487366,0.9271869659423828
1631021250433,0.5115697383880615,0.0977882742881774,0.8851236701011658,0.9619089365005492
1631021250543,0.3850811123847961,0.5552460551261902,0.8854166865348816,0.932054340839386
1631021250683,0.382445752620697,0.4835860133171081,0.8773237466812134,0.7762159109115601
1631021250777,0.4136672019958496,0.423464685678482,0.8417105078697205,0.7334465980529785
1631021250886,0.4676594734191894,0.3678983449935913,0.742185652256012,0.7133275866508484
1631021250949,0.5316474437713623,0.3192590475082397,0.5198231935501099,0.7038267254829407
1631021251011,0.5955860018730164,0.277290403842926,-0.0283582508563995,0.6996378302574158
1631021251183,0.6378220319747925,0.2397874742746353,-0.0483942665159702,0.6922656297683716
1631021251279,0.6552892327308655,0.2038674801588058,-0.0681921765208244,0.6780562996864319
1631021251373,0.6572187542915344,0.1692009568214416,-0.0890895724296569,0.6592626571655273
1631021251451,0.654822051525116,0.1365799456834793,-0.1415063142776489,0.6421937942504883
1631021251545,0.6518403887748718,0.1075739040970802,-0.1691969037055969,0.6301103830337524
1631021251639,0.6468957662582397,0.081596091389656,-0.2152023911476135,0.621547281742096
1631021251811,0.6429132223129272,-0.0581507235765457,-0.2720156610012054,0.6151471734046936
1631021251873,0.6457540988922119,-0.2315448075532913,-0.3220419883728027,0.570423424243927
1631021252060,0.6546360850334167,-0.3824630081653595,-0.34375,0.5421711802482605
1631021252092,0.6691675782203674,-0.4679129123687744,-0.3343464732170105,0.5358327627182007
1631021252170,0.6853679418563843,-0.514173150062561,-0.3128670752048492,0.5453402996063232
1631021252279,0.6948595643043518,-0.5447319149971008,-0.2970470190048218,0.5505921244621277
1631021252393,0.6924529671669006,-0.5340343713760376,-0.2826299667358398,0.5417014360427856
1631021252502,0.6742568016052246,-0.5129303932189941,-0.2729578614234924,0.5221112966537476
1631021252611,0.6379106640815735,-0.4987348020076751,-0.2664259374141693,0.4964592158794403
1631021252689,0.5928362607955933,-0.4963339567184448,-0.2613372802734375,0.4792945086956024
1631021252752,0.5503745675086975,-0.4945180714130401,-0.2511473298072815,0.483753889799118
1631021252846,0.5156545639038086,-0.4902143776416778,-0.2241071164608001,0.5060408711433411
1631021253033,0.4847612082958221,-0.4855649769306183,-0.1839218586683273,0.5287328362464905
1631021253127,0.4547847509384155,-0.4817201793193817,-0.145116776227951,0.5389190316200256
1631021253205,0.4281711280345917,-0.4768358170986175,-0.1171151250600814,0.5408511161804199
1631021253302,0.4061751365661621,-0.4739263653755188,-0.1045892387628555,0.5459484457969666
1631021253396,0.3879464864730835,-0.4777157008647918,-0.1041951924562454,0.559282660484314
1631021253521,0.3650004267692566,-0.4865577518939972,-0.109257772564888,0.5717158317565918
1631021253661,0.3276563286781311,-0.4871528446674347,-0.1208149641752243,0.5726868510246277
1631021253724,0.2814359068870544,-0.4698369204998016,-0.1425364315509796,0.5592412352561951
1631021253786,0.2441951781511306,-0.4536175429821014,-0.1665340214967727,0.5429139137268066
1631021253895,0.2221467047929763,-0.4565406441688537,-0.1880047917366027,0.5334681868553162
1631021253974,0.2345617413520813,-0.4776812195777893,-0.207257330417633,0.5342426896095276
1631021254083,0.2877257764339447,-0.4960683286190033,-0.224862515926361,0.5439400672912598
1631021254208,0.3798801898956299,-0.4842039346694946,-0.2385683059692382,0.5549665689468384
1631021254317,0.4899807572364807,-0.450893223285675,-0.2551429271697998,0.5632200241088867
1631021254395,0.5856049060821533,-0.4054382145404815,-0.2857504785060882,0.5636054277420044
1631021254489,0.651767373085022,-0.3510491549968719,-0.3324367105960846,0.5592331886291504
1631021254645,0.6859256625175476,-0.2930173277854919,-0.3755264282226562,0.5541226267814636
1631021254723,0.7094300389289856,-0.2385518550872802,-0.3695482909679413,0.557827889919281
1631021254848,0.7410727739334106,-0.1942400783300399,-0.2960826456546783,0.5743173956871033
1631021254911,0.780923068523407,-0.1599044650793075,-0.1937571316957473,0.5984430313110352
1631021255005,0.8171239495277405,-0.1379141807556152,-0.109459102153778,0.6231555938720703
1631021255083,0.8463125228881836,-0.1315481066703796,-0.0595061555504798,0.6481490731239319
1631021255208,0.8701351881027222,-0.1396106332540512,-0.0377846844494342,0.6724315881729126
1631021255335,0.8890478014945984,-0.1498841196298599,-0.0311345867812633,0.6910321712493896
1631021255445,0.906570553779602,-0.1405896693468094,-0.0196216329932212,0.7106326818466187
1631021255538,0.9216633439064026,-0.1225600391626358,0.0133068021386861,0.7294859290122986
1631021255632,0.9320650696754456,-0.101413756608963,0.1232639402151107,0.7453829646110535
1631021255726,0.932675838470459,-0.0864268839359283,0.3399495184421539,0.7578921318054199
1631021255804,0.919031858444214,-0.0766239687800407,0.5777449607849121,0.7645769715309143
1631021255913,0.8964280486106873,-0.0721865370869636,0.7657527327537537,0.7712914347648621
1631021256069,0.8790754675865173,-0.0773260667920112,0.8871488571166992,0.7841812968254089
1631021256147,0.8874772787094116,-0.099614143371582,0.9506628513336182,0.8108291029930115
1631021256210,0.9101950526237488,-0.1423487365245819,0.9738866686820984,0.8397910594940186
1631021256352,0.9217901229858398,-0.2054836899042129,0.976025402545929,0.851405143737793
1631021256446,0.9113717675209044,-0.2930630445480346,0.9704421162605286,0.8359012603759766
1631021256508,0.9113717675209044,-0.2930630445480346,0.9632555842399596,0.8359012603759766
1631021256649,0.9113717675209044,-0.2930630445480346,0.958164632320404,0.8359012603759766
1631021256774,0.9113717675209044,-0.2930630445480346,0.9566097259521484,0.8359012603759766
1631021256836,0.9113717675209044,-0.2930630445480346,0.9574127197265624,0.8359012603759766
1631021256977,0.9113717675209044,-0.2930630445480346,0.9580754041671752,0.426649808883667
1631021257039,0.4653355479240417,-0.3815694451332092,0.9566031694412231,0.39749675989151
1631021257133,0.6080955266952515,-0.1703964620828628,0.9446868896484376,0.3710991740226745
1631021257287,0.6815973520278931,-0.013922655954957,0.903253734111786,0.3442673981189728
1631021257355,0.6980156302452087,0.0820058360695838,0.8108758330345154,0.3268722891807556
1631021257464,0.6795836091041565,0.1158961430191993,0.6491153240203857,0.3170664012432098
1631021257573,0.6464139223098755,0.1145245656371116,0.4144063591957092,0.3455495536327362
1631021257636,0.6132915616035461,0.1037546619772911,0.1428485959768295,0.4224049150943756
1631021257776,0.587361216545105,0.0993802174925804,-0.0616954453289508,0.5107266306877136
1631021257854,0.5653915405273438,0.1009355783462524,-0.1354949325323104,0.583091139793396
1631021258026,0.544748842716217,0.10307078063488,-0.1411674916744232,0.6216259002685547
1631021258089,0.5245141983032227,0.0977648273110389,-0.1222565323114395,0.6317903399467468
1631021258167,0.5057377219200134,0.0868125706911087,-0.098693735897541,0.6358011960983276
1631021258261,0.5107274651527405,0.0990091785788536,-0.0826280862092971,0.642894983291626
1631021258358,0.5169371366500854,0.1091949790716171,-0.0792463645339012,0.652557373046875
1631021258498,0.5116554498672485,0.1156948655843734,-0.0890582427382469,0.6637076139450073
1631021258592,0.4883846044540405,0.1167440637946128,-0.1090576350688934,0.6704970002174377
1631021258670,0.445759117603302,0.11286411434412,-0.1369481682777404,0.6716405749320984
1631021258764,0.4064207077026367,0.1137033253908157,-0.1699506193399429,0.6738326549530029
1631021258870,0.4051891267299652,0.1297472864389419,-0.2069557309150695,0.6801837086677551
1631021258950,0.4463993906974792,0.1660922914743423,-0.2313010841608047,0.6932506561279297
1631021259121,0.5072166323661804,0.2125575989484787,-0.2475424706935882,0.6995347738265991
1631021259201,0.5650240778923035,0.2517809569835663,-0.2650448381900787,0.6830865144729614
1631021259307,0.6083095669746399,0.2756359875202179,-0.2838145196437835,0.6417981386184692
1631021259390,0.6335367560386658,0.2861426770687103,-0.2985700368881225,0.5817777514457703
1631021259461,0.6484804749488831,0.2919739186763763,-0.3071531951427459,0.5273445248603821
1631021259597,0.661196231842041,0.2963023781776428,-0.3167383968830108,0.490450769662857
1631021259713,0.6785218715667725,0.2975628077983856,-0.3373193740844726,0.4636728167533874
1631021259796,0.6969413757324219,0.2976205050945282,-0.3665919601917267,0.4316272437572479
1631021259889,0.7080926299095154,0.2950538992881775,-0.3925849497318268,0.3937162160873413
1631021260016,0.7096752524375916,0.2902724146842956,-0.4005240499973297,0.3593907356262207
1631021260097,0.6987165212631226,0.2798510789871216,-0.390730082988739,0.3499874472618103
1631021260175,0.6809098124504089,0.2597043216228485,-0.3725920617580414,0.3732373118400574
1631021260328,0.6612468957901001,0.2244548946619033,-0.359216958284378,0.4059678614139557
1631021260417,0.6404774785041809,0.1705752611160278,-0.3513274788856506,0.4217562675476074
1631021260496,0.6152771711349487,0.1023426130414009,-0.3388931453227997,0.4105218350887298
1631021260583,0.5811444520950317,0.0231250412762165,-0.3099924325942993,0.3837938606739044
1631021260716,0.5374969244003296,-0.0553540587425231,-0.2646664381027221,0.3591998219490051
1631021260857,0.4891660213470459,-0.122270256280899,-0.2143207490444183,0.3478285670280456
1631021260964,0.4581643044948578,-0.1669081747531891,-0.1729513555765152,0.3554012775421142
1631021261026,0.4523124992847442,-0.1955203264951706,-0.1502803862094879,0.3716670274734497
1631021261135,0.4603317975997925,-0.2030968368053436,-0.1404453068971634,0.3893223404884338
1631021261238,0.464469850063324,-0.1940231323242187,-0.1343818306922912,0.4062134623527527
1631021261300,0.4552077353000641,-0.1893882900476455,-0.1348228007555008,0.4241622984409332
1631021261440,0.4356888234615326,-0.1898760646581649,-0.1400749087333679,0.4409916996955871
1631021261518,0.4158051609992981,-0.1893074512481689,-0.1493645906448364,0.4510245621204376
1631021261628,0.4026647806167602,-0.1819124072790146,-0.1581827104091644,0.4531041979789734
1631021261737,0.3959130048751831,-0.1719341427087783,-0.1646089106798172,0.4521758258342743
1631021261835,0.3894828855991363,-0.1625916063785553,-0.165470153093338,0.4572702348232269
1631021261932,0.3747191727161407,-0.1554771512746811,-0.1585967242717743,0.4904592335224151
1631021262026,0.3516631126403808,-0.1520769447088241,-0.1456765383481979,0.5659763216972351
1631021262137,0.3266074359416961,-0.1540749967098236,-0.1335092186927795,0.6661147475242615
1631021262215,0.3039221465587616,-0.1646267771720886,-0.1323429644107818,0.7575340867042542
1631021262336,0.2868632674217224,-0.1845139563083648,-0.1421809643507003,0.819659411907196
1631021262461,0.2686330080032348,-0.2167556136846542,-0.159095898270607,0.8494964241981506
1631021262554,0.2502677142620086,-0.264550119638443,-0.1693550050258636,0.8571105599403381
1631021262632,0.2482346892356872,-0.3258805572986603,-0.170260339975357,0.8573974967002869
1631021262742,0.2658264338970184,-0.3907115161418915,-0.1627708822488784,0.8583452105522156
1631021262854,0.298199713230133,-0.4410973489284515,-0.152302086353302,0.8590590953826904
1631021262994,0.3331025540828705,-0.4758217334747314,-0.1444257050752639,0.8580746054649353
1631021263041,0.3634681701660156,-0.5041048526763916,-0.1386036127805709,0.855186939239502
1631021263151,0.3917756676673889,-0.526679277420044,-0.1374810189008712,0.8485661149024963
1631021263213,0.4163509309291839,-0.5451964735984802,-0.1428321301937103,0.8361411094665527
1631021263369,0.4286051094532013,-0.5639614462852478,-0.1558785736560821,0.8178505897521973
1631021263447,0.4280117154121399,-0.5784080028533936,-0.1757540702819824,0.7904046773910522
1631021263541,0.4256399571895599,-0.5877277851104736,-0.2046753615140915,0.7427014112472534
1631021263635,0.4317849278450012,-0.5560699701309204,-0.2434779107570648,0.6632111072540283
1631021263729,0.4513793885707855,-0.4564301669597626,-0.2871605157852173,0.5524212121963501
1631021263819,0.4813899993896484,-0.3264660537242889,-0.3282667696475982,0.4305842816829681
1631021263975,0.5119051337242126,-0.2216847985982895,-0.3486206829547882,0.333846777677536
1631021264038,0.5237999558448792,-0.1426431685686111,-0.3159419596195221,0.2790420949459076
1631021264210,0.5179380774497986,-0.0754042416810989,-0.2278999090194702,0.2842782139778137
1631021264272,0.4926437735557556,0.0545532815158367,-0.024652412161231,0.3452215492725372
1631021264335,0.4576195776462555,0.2718830704689026,0.2292149066925048,0.4760887920856476
1631021264428,0.42927086353302,0.4970685243606567,0.4450148940086365,0.6359854340553284
1631021264553,0.4164822995662689,0.6658528447151184,0.5931261777877808,0.7694200277328491
1631021264709,0.7444990873336792,0.7703892588615417,0.6765593886375427,0.855525553226471
1631021264788,0.8432789444923401,0.8225464820861816,0.7123048305511475,0.9005404114723206
1631021264850,0.8633165955543518,0.8427858352661133,0.7239516973495483,0.9210615158081056
1631021264928,0.8614271283149719,0.8492127060890198,0.7285559773445129,0.9387625455856324
1631021265038,0.8550336360931396,0.8522226214408875,0.732569694519043,0.965909481048584
1631021265225,0.843792200088501,0.8512703776359558,0.7384831309318542,0.9969775080680848
1631021265319,0.8260960578918457,0.846409797668457,0.7450401782989502,1.025076150894165
1631021265381,0.80174320936203,0.8383044600486755,0.751678466796875,1.0466923713684082
1631021265459,0.7733206152915955,0.8299563527107239,0.7563077211380005,1.0599256753921509
1631021265584,0.73384690284729,0.8226014375686646,0.7553249001502991,1.066141128540039
1631021265678,0.7004843354225159,0.8161501884460449,0.7468038201332092,1.0627697706222534
1631021265819,0.6722016334533691,0.799523115158081,0.7162308692932129,1.0485906600952148
1631021265912,0.6511616110801697,0.7503618001937866,0.6459272503852844,1.01536226272583
1631021265975,0.6398870944976807,0.6448778510093689,0.5207714438438416,0.9559676051139832
1631021266069,0.6372345685958862,0.4717795550823211,0.3376362919807434,0.8756063580513
1631021266178,0.430927038192749,0.2369050085544586,0.1274912655353546,0.7956913113594055
1631021266336,0.3012525737285614,-0.0058023612946271,-0.0296274237334728,0.7373985648155212
1631021266414,0.3003013432025909,-0.1673729121685028,-0.0973378792405128,0.7029587030410767
1631021266477,0.3479964137077331,-0.2332764714956283,-0.1261768788099289,0.6660455465316772
1631021266602,0.399059921503067,-0.2664599120616913,-0.1546959280967712,0.6010565161705017
1631021266696,0.444310575723648,-0.2625458836555481,-0.2044218927621841,0.5084679126739502
1631021266774,0.476761132478714,-0.2408764362335205,-0.2644898295402527,0.4019958674907684
1631021266899,0.5006383657455444,-0.2105787694454193,-0.3281181752681732,0.3068735599517822
1631021267008,0.5165771842002869,-0.1795149743556976,-0.3850249052047729,0.2484809160232544
1631021267102,0.5233451724052429,-0.1531316637992859,-0.4265424311161041,0.2324210107326507
1631021267195,0.5227861404418945,-0.1389109641313552,-0.4423606097698211,0.2445708066225052
1631021267307,0.517837405204773,-0.1447534412145614,-0.4287599921226501,0.2644305229187011
1631021267386,0.5079576373100281,-0.1631428748369217,-0.3982397317886352,0.277768611907959
1631021267510,0.4910747408866882,-0.1809524446725845,-0.3677144646644592,0.2807163894176483
1631021267620,0.4688971638679504,-0.1896321028470993,-0.3413909077644348,0.2797691226005554
1631021267698,0.4402598738670349,-0.1886476725339889,-0.3050051033496856,0.2839452028274536
1631021267807,0.4042142331600189,-0.186194822192192,-0.2538208365440368,0.2951582074165344
1631021267902,0.3627400398254394,-0.1878063082695007,-0.2049718648195266,0.3065482974052429
1631021268027,0.3294419348239898,-0.1854803264141082,-0.1426801234483719,0.3310102820396423
1631021268089,0.2892543375492096,-0.1837181448936462,-0.1196237727999687,0.3514355421066284
1631021268245,0.240939050912857,-0.1845667958259582,-0.0949096530675888,0.3634080588817596
1631021268339,0.1977011561393737,-0.1896199733018875,-0.0715413466095924,0.3631409704685211
1631021268417,0.1584244072437286,-0.2001799941062927,-0.0534446574747562,0.3473781645298004
1631021268527,0.1282888501882553,-0.2167866677045822,-0.0385814942419528,0.3235452175140381
1631021268620,0.1197769492864608,-0.2390730828046798,-0.0234556198120117,0.3022621572017669
1631021268745,0.1368971467018127,-0.2633801400661468,-0.0089842658489942,0.2765020430088043
1631021268823,0.1731339693069458,-0.2775508761405945,0.0043583312071859,0.2377216815948486
1631021268933,0.216938242316246,-0.2824141085147857,0.0184440705925226,0.187933474779129
1631021269026,0.2558595240116119,-0.2797906100749969,0.0424928069114685,0.1359261572360992
1631021269120,0.2558595240116119,-0.2797906100749969,0.0822392106056213,0.1359261572360992
1631021269276,0.2558595240116119,-0.2797906100749969,0.0822392106056213,0.1359261572360992
1631021269308,0.2558595240116119,-0.2797906100749969,0.0822392106056213,0.1359261572360992
1631021269448,0.2558595240116119,-0.2797906100749969,0.0822392106056213,0.1359261572360992
1631021269558,0.2558595240116119,-0.2797906100749969,0.0822392106056213,0.1359261572360992
1631021269698,0.2558595240116119,-0.2797906100749969,0.0822392106056213,0.1359261572360992
1631021269761,0.2558595240116119,-0.2797906100749969,0.0822392106056213,0.1359261572360992
1631021269854,0.2558595240116119,-0.2797906100749969,0.0822392106056213,0.1359261572360992
1631021269917,0.2558595240116119,-0.2797906100749969,0.0822392106056213,0.1359261572360992
1631021270057,0.2558595240116119,-0.2797906100749969,0.0822392106056213,0.1359261572360992
1631021270136,0.2558595240116119,-0.2797906100749969,0.0822392106056213,0.1359261572360992
1631021270245,0.2558595240116119,0.1167593970894813,-0.0506369546055793,0.1359261572360992
1631021270341,0.6572697162628174,0.2010357230901718,-0.0325525440275669,0.1359261572360992
1631021270450,0.6988303065299988,0.237025037407875,-0.0206805169582366,0.1359261572360992
1631021270513,0.7058960199356079,0.2355478554964065,-0.0266416054219007,0.1359261572360992
1631021270701,0.7148000597953796,0.2144193053245544,-0.0518206730484962,0.8870225548744202
1631021270763,0.7148000597953796,0.1937159299850464,-0.0884093791246414,1.0016090869903564
1631021270903,0.771750807762146,0.1737557649612426,-0.1260033845901489,1.0992940664291382
1631021270966,0.815112829208374,0.1612802445888519,-0.1620539426803589,1.0992940664291382
1631021271044,0.8338010907173157,0.1576063781976699,-0.1951762288808822,1.0992940664291382
1631021271169,0.8288353085517883,0.1565795987844467,-0.2247753888368606,1.0992940664291382
1631021271263,0.8096582889556885,0.1529434621334076,-0.2442061901092529,1.0992940664291382
1631021271391,0.7844035029411316,0.1400944292545318,-0.2400527894496917,1.0992940664291382
1631021271500,0.759122908115387,0.1442444175481796,-0.2182112783193588,1.0992940664291382
1631021271547,0.7535338401794434,0.1420280188322067,-0.1745328307151794,1.1572667360305786
1631021271672,0.7418842911720276,0.1306119710206985,-0.1297011822462082,1.2176553010940552
1631021271797,0.7238692045211792,0.1051128879189491,-0.0868422612547874,1.2176553010940552
1631021271891,0.7057709693908691,0.0765864327549934,-0.0417358316481113,1.2587411403656006
1631021272000,0.7050905227661133,0.0648967325687408,0.0048955571837723,1.282586932182312
1631021272094,0.7023190855979919,0.095560722053051,0.0094367293640971,1.3254601955413818
1631021272156,0.6966924667358398,0.2123959213495254,0.0256476178765296,1.369028925895691
1631021272266,0.6966924667358398,0.2251205593347549,0.0527167059481143,1.369028925895691
1631021272362,0.6460263133049011,0.2411125898361206,0.0860163494944572,1.369028925895691
1631021272518,0.5704078674316406,0.2557173073291778,0.1243996396660804,1.369028925895691
1631021272596,0.4895340800285339,0.2665089964866638,0.1674805432558059,1.369028925895691
1631021272690,0.4356753528118133,0.2770497500896454,0.2156181782484054,1.369028925895691
1631021272784,0.4236645698547363,0.292721152305603,0.2659128308296203,1.369028925895691
1631021272868,0.4485625326633453,0.3237326741218567,0.3103561401367187,1.369028925895691
1631021272992,0.4937757849693298,0.3670265972614288,0.3434642553329468,1.369028925895691
1631021273086,0.5539734363555908,0.4134993851184845,0.362604945898056,1.369028925895691
1631021273211,0.5539734363555908,0.4609884321689605,0.362604945898056,1.369028925895691
1631021273293,0.5539734363555908,0.5194201469421387,0.362604945898056,1.369028925895691
1631021273370,0.5539734363555908,0.5194201469421387,0.362604945898056,1.369028925895691
1631021273463,0.5539734363555908,0.5194201469421387,0.362604945898056,1.369028925895691
1631021273588,0.5539734363555908,0.5194201469421387,0.362604945898056,1.369028925895691
1631021273713,0.5539734363555908,0.5194201469421387,0.362604945898056,1.369028925895691
1631021273807,0.5539734363555908,0.5194201469421387,0.362604945898056,1.369028925895691
1631021273901,0.5539734363555908,0.5194201469421387,0.362604945898056,1.369028925895691
1631021274010,0.5539734363555908,0.5194201469421387,0.362604945898056,1.369028925895691
1631021274104,0.5539734363555908,0.5194201469421387,0.362604945898056,1.369028925895691
1631021274198,0.5539734363555908,0.5194201469421387,0.362604945898056,1.369028925895691
1631021274325,0.5539734363555908,0.5194201469421387,0.362604945898056,1.369028925895691
1631021274419,0.5539734363555908,0.5194201469421387,0.362604945898056,1.369028925895691
1631021274512,0.5539734363555908,0.5194201469421387,0.362604945898056,1.369028925895691
1631021274606,0.5539734363555908,0.5194201469421387,0.362604945898056,1.369028925895691
1631021274700,0.5539734363555908,0.5194201469421387,0.362604945898056,1.369028925895691
1631021274778,0.5539734363555908,0.5194201469421387,0.362604945898056,1.369028925895691
1631021274903,0.5539734363555908,0.5194201469421387,0.362604945898056,1.369028925895691
1631021275028,0.6817489862442017,0.5194201469421387,0.1578347384929657,1.369028925895691
1631021275106,0.6570002436637878,0.5194201469421387,0.1944534033536911,1.369028925895691
1631021275247,0.6158518195152283,0.2505343854427337,0.1871800273656845,1.369028925895691
1631021275328,0.5769049525260925,0.2033784240484237,0.1513601988554,0.4471354186534881
1631021275406,0.5443986058235168,0.1774803102016449,0.1066230610013008,0.4440854489803314
1631021275562,0.5132945775985718,0.154974490404129,0.0615823380649089,0.42934450507164
1631021275640,0.4832008779048919,0.1216554343700409,0.0213813818991184,0.4111737310886383
1631021275734,0.4604616165161133,0.0828081667423248,-0.0165764726698398,0.4101258516311645
1631021275812,0.4515910446643829,0.0589358694851398,-0.0513337738811969,0.4350912570953369
1631021275922,0.4506012499332428,0.0650254786014556,-0.0821590796113014,0.467674195766449
1631021276015,0.4450046420097351,0.0971187874674797,-0.107108935713768,0.4796915054321289
1631021276140,0.4348204433917999,0.1406629830598831,-0.1271319389343261,0.4716366827487945
1631021276250,0.3941661417484283,0.1792199909687042,-0.1508740335702896,0.4500173032283783
1631021276346,0.3704249560832977,0.2063604295253753,-0.1825395822525024,0.4242186844348907
1631021276487,0.352060317993164,0.2160065323114395,-0.2467845827341079,0.3997601270675659
1631021276534,0.3273840546607971,0.2590533494949341,-0.349976897239685,0.3714348375797272
1631021276643,0.298758715391159,0.330843985080719,-0.4771406352519989,0.3419170081615448
1631021276768,0.2824645936489105,0.4156022667884826,-0.5893595814704895,0.3169917166233063
1631021276862,0.286756306886673,0.4358448386192322,-0.6443489193916321,0.3064610362052917
1631021276955,0.2925567924976349,0.4560103416442871,-0.6563843488693237,0.295969545841217
1631021277049,0.3041630983352661,0.4792479872703552,-0.6441435813903809,0.2917799949645996
1631021277159,0.3221450448036194,0.5099604725837708,-0.6281947493553162,0.2925416827201843
1631021277237,0.3376765251159668,0.5476248860359192,-0.6010220050811768,0.2809880971908569
1631021277365,0.3374424874782562,0.5863991975784302,-0.5683106780052185,0.2321692705154419
1631021277506,0.3229743242263794,0.620678722858429,-0.5348530411720276,0.1329164505004882
1631021277584,0.3166548907756805,0.6486552357673645,-0.5118536949157715,0.020208703354001
1631021277630,0.325492799282074,0.6721900105476379,-0.4992358982563019,-0.0648736357688903
1631021277724,0.3244903981685638,0.6994311213493347,-0.4872299432754516,-0.0847322419285774
1631021277880,0.2859259247779846,0.7414325475692749,-0.4695280492305755,-0.0561356209218502
1631021277990,0.2859259247779846,0.7414325475692749,-0.4695280492305755,-0.008835319429636
1631021278099,0.2859259247779846,0.7414325475692749,-0.4695280492305755,-0.008835319429636
1631021278177,0.2859259247779846,0.7414325475692749,-0.4695280492305755,-0.008835319429636
1631021278255,0.2859259247779846,0.7414325475692749,-0.4695280492305755,-0.008835319429636
1631021278352,0.2859259247779846,0.7414325475692749,-0.4695280492305755,-0.008835319429636
1631021278477,0.9760451316833496,0.7414325475692749,0.4561248123645782,0.8086312413215637
1631021278680,1.020813226699829,0.7414325475692749,0.5639766454696655,0.772890567779541
1631021278711,1.0689235925674438,0.7414325475692749,0.6341318488121033,0.7413182258605957
1631021278758,1.1137642860412598,0.7414325475692749,0.671813428401947,0.7626063823699951
1631021278868,1.1531119346618652,0.7414325475692749,0.7026048898696899,0.8520271182060242
1631021278961,1.1930322647094729,0.7414325475692749,0.7483292818069458,0.9615790843963624
1631021279039,1.2241950035095217,0.7414325475692749,0.8018278479576111,1.0459593534469604
1631021279196,1.2359720468521118,0.7414325475692749,0.8368142247200012,1.0897891521453855
1631021279303,1.2269515991210938,0.7414325475692749,0.8478348851203918,1.0964003801345823
1631021279402,1.2071982622146606,0.7414325475692749,0.8390281200408936,1.079270839691162
1631021279464,1.1836974620819092,0.7414325475692749,0.8185571432113647,1.0520696640014648
1631021279558,1.161640763282776,0.7414325475692749,0.7943708896636963,1.0247811079025269
1631021279651,1.1572402715682983,0.7414325475692749,0.7946104407310486,1.0115195512771606
1631021279803,1.1528687477111816,0.7414325475692749,0.7978992462158203,1.0155904293060305
1631021279883,1.1475218534469604,0.7414325475692749,0.8059805631637573,1.041165828704834
1631021280015,1.139810562133789,0.7414325475692749,0.8171407580375671,1.0830967426300049
1631021280113,1.1304738521575928,0.7414325475692749,0.8288788795471191,1.130099177360535
1631021280197,1.11320960521698,0.7414325475692749,0.8368574976921082,1.164413332939148
1631021280290,1.0847318172454834,0.7414325475692749,0.8404825925827026,1.1725289821624756
1631021280436,1.0427247285842896,0.7414325475692749,0.8322868943214417,1.1501386165618896
1631021280511,0.9803113341331482,0.7414325475692749,0.8041154742240906,1.100924730300903
1631021280609,0.9055020809173584,0.7414325475692749,0.7589406371116638,1.0407503843307495
1631021280717,0.8419982194900513,0.7414325475692749,0.7116835713386536,0.9967486262321472
1631021280822,0.81352698802948,0.7414325475692749,0.6749381422996521,0.9855908751487732
1631021280901,0.8117582201957703,0.7414325475692749,0.6551308631896973,0.998534858226776
1631021281014,0.8202285170555115,0.7414325475692749,0.6485525369644165,1.0162930488586426
1631021281107,0.8242592215538025,0.7414325475692749,0.6480088829994202,1.0271281003952026
1631021281232,0.8172194361686707,0.9214760661125184,0.646895706653595,1.0267244577407837
1631021281326,0.8067172765731812,0.8775478005409241,0.6408448815345764,1.013080596923828
1631021281404,0.8005151152610779,0.8812981247901917,0.6238096952438354,0.9790647625923156
1631021281544,0.8013564348220825,0.914414405822754,0.5898410081863403,0.923090636730194
1631021281669,0.8057315349578857,0.9512463808059692,0.5379717350006104,0.8540264964103699
1631021281732,0.8346510529518127,0.9512463808059692,0.5162220001220703,0.804651141166687
1631021281825,0.8280001878738403,0.9512463808059692,0.4702095985412597,0.7785677313804626
1631021281950,0.8313876390457153,0.9512463808059692,0.4401980638504028,0.7832270264625549
1631021282029,0.8439216613769531,0.9512463808059692,0.427921712398529,0.8024576306343079
1631021282122,0.8576432466506958,0.9512463808059692,0.4155472218990326,0.8150156736373901
1631021282247,0.8683383464813232,0.9512463808059692,0.4036718606948852,0.8035989999771118
1631021282325,0.875015377998352,0.9512463808059692,0.4000918269157409,0.7686944007873535
1631021282450,0.8806276321411133,0.919279396533966,0.4101350009441376,0.7226220369338989
1631021282560,0.8923174738883972,0.9076308608055116,0.4367409646511078,0.6889102458953857
1631021282606,0.9188789129257202,0.9225078225135804,0.4767473638057709,0.6885583996772766
1631021282747,0.9679372906684875,0.9791062474250792,0.5293029546737671,0.723792314529419
1631021282825,1.0294289588928225,0.9791062474250792,0.5848543643951416,0.7674983143806458
1631021282950,1.0294289588928225,0.9791062474250792,0.5848543643951416,0.7674983143806458
1631021283075,1.0294289588928225,0.9791062474250792,0.5848543643951416,0.7674983143806458
1631021283153,1.0294289588928225,0.9791062474250792,0.5848543643951416,0.7674983143806458
1631021283216,1.0294289588928225,0.9791062474250792,0.5848543643951416,0.7674983143806458
1631021283330,1.0294289588928225,0.9791062474250792,0.5848543643951416,0.7674983143806458
1631021283469,1.0294289588928225,0.9791062474250792,0.5848543643951416,0.7674983143806458
1631021283547,1.0294289588928225,0.9791062474250792,0.5848543643951416,0.7674983143806458
1631021283703,1.0294289588928225,0.9791062474250792,0.5848543643951416,0.7674983143806458
1631021283766,1.0294289588928225,0.9791062474250792,0.5848543643951416,0.7674983143806458
1631021283828,1.0294289588928225,0.9791062474250792,0.5848543643951416,0.7674983143806458
1631021283922,1.0294289588928225,0.9791062474250792,0.5848543643951416,0.7674983143806458
1631021284062,1.0294289588928225,0.9791062474250792,0.5848543643951416,0.7674983143806458
1631021284172,1.0294289588928225,0.9791062474250792,0.5848543643951416,0.7674983143806458
1631021284271,1.0294289588928225,0.9791062474250792,0.5848543643951416,0.7674983143806458
1631021284352,1.0294289588928225,0.9791062474250792,0.5848543643951416,0.7674983143806458
1631021284446,1.0294289588928225,0.9791062474250792,0.5848543643951416,0.7674983143806458
1631021284571,1.0294289588928225,0.9791062474250792,0.5848543643951416,0.7674983143806458
1631021284711,1.0294289588928225,0.9791062474250792,0.5848543643951416,0.7674983143806458
1631021284790,1.0294289588928225,0.9791062474250792,0.5848543643951416,0.7674983143806458
1631021284883,1.0294289588928225,0.9791062474250792,0.8923454284667969,0.9063540697097778
1631021284946,1.0294289588928225,0.9791062474250792,0.8152022361755371,0.8360641598701477
1631021285071,1.0294289588928225,0.9791062474250792,0.7599203586578369,0.7688707709312439
1631021285133,1.0294289588928225,0.9791062474250792,0.7186407446861267,0.7131295204162598
1631021285329,0.6528851985931396,0.9791062474250792,0.6830921173095703,0.6734952926635742
1631021285388,0.6430455446243286,0.9791062474250792,0.6513210535049438,0.6432502865791321
1631021285467,0.6143113374710083,0.9791062474250792,0.6216863989830017,0.6225104928016663
1631021285560,0.5737496018409729,0.5833690166473389,0.5951526165008545,0.6066930890083313
1631021285686,0.5350688099861145,0.5103462338447571,0.5715160965919495,0.591139018535614
1631021285796,0.4952528476715088,0.4426638782024383,0.5498545169830322,0.5730352401733398
1631021285889,0.4655775725841522,0.3859308362007141,0.5283680558204651,0.5519284605979919
1631021285999,0.4493199288845062,0.3360057473182678,0.506237804889679,0.5322943925857544
1631021286092,0.4493199288845062,0.2922483682632446,0.352530300617218,0.4374389946460724
1631021286155,0.4493199288845062,0.2922483682632446,0.2288139462471008,0.3547911942005157
1631021286280,0.4493199288845062,0.2922483682632446,0.1844131201505661,0.2808030247688293
1631021286392,0.4493199288845062,0.2922483682632446,0.1865545660257339,0.2340209037065506
1631021286501,0.4275073409080505,0.2922483682632446,0.1888903230428695,0.2257323563098907
1631021286654,0.4002988338470459,0.2922483682632446,0.1793064326047897,0.2459778785705566
1631021286724,0.3482259213924408,0.2922483682632446,0.1575571596622467,0.2711420059204101
1631021286833,0.2677503526210785,0.1460674107074737,0.1351954191923141,0.2811850309371948
1631021286884,0.1748501807451248,-0.0342104062438011,0.1137421578168869,0.2830863296985626
1631021287041,0.0980917587876319,-0.2076848000288009,0.0983845591545105,0.2632684707641601
1631021287152,0.0719483569264411,-0.3346666693687439,0.0805055052042007,0.2190563529729843
1631021287244,0.0719483569264411,-0.4415612518787384,0.0805055052042007,0.2190563529729843
1631021287332,0.0719483569264411,-0.4415612518787384,0.0805055052042007,0.2190563529729843
1631021287394,0.0719483569264411,-0.4415612518787384,0.0805055052042007,0.2190563529729843
1631021287515,0.0719483569264411,-0.4415612518787384,0.0805055052042007,0.2190563529729843
1631021287619,0.0719483569264411,-0.4415612518787384,0.0805055052042007,0.250821590423584
1631021287730,0.0719483569264411,-0.4415612518787384,0.1959934830665588,0.250821590423584
1631021287839,0.0719483569264411,-0.4415612518787384,0.271333247423172,0.250821590423584
1631021287933,0.0719483569264411,-0.4415612518787384,0.4243385195732116,0.250821590423584
1631021288027,0.0719483569264411,-0.4415612518787384,0.6708048582077026,0.250821590423584
1631021288152,0.0719483569264411,-0.4415612518787384,0.9022817015647888,0.250821590423584
1631021288214,0.0719483569264411,-0.4415612518787384,1.0604625940322876,0.250821590423584
1631021288331,0.0719483569264411,-0.4415612518787384,1.144536375999451,0.250821590423584
1631021288437,0.0719483569264411,-0.4415612518787384,1.1734298467636108,0.250821590423584
1631021288530,0.0719483569264411,-0.4415612518787384,1.166061520576477,0.250821590423584
1631021288655,0.0719483569264411,-0.4415612518787384,1.146008849143982,0.250821590423584
1631021288749,0.0719483569264411,-0.4415612518787384,1.1289962530136108,0.250821590423584
1631021288796,0.0719483569264411,-0.4415612518787384,1.115293025970459,0.250821590423584
1631021288936,0.0719483569264411,-0.4415612518787384,1.1267844438552856,0.250821590423584
1631021289046,0.0719483569264411,-0.4415612518787384,1.1326502561569214,0.250821590423584
1631021289186,0.0719483569264411,-0.4415612518787384,1.133472561836243,0.250821590423584
1631021289280,0.0719483569264411,-0.4415612518787384,1.130555510520935,0.250821590423584
1631021289346,-0.2035177499055862,1.061385154724121,1.126177191734314,0.7476466298103333
1631021289455,-0.2847827970981598,1.0941096544265747,1.1149019002914429,0.7989215850830078
1631021289580,-0.330761581659317,1.113660454750061,1.0791867971420288,0.8270578980445862
1631021289643,-0.332300990819931,1.1069034337997437,0.9999635219573976,0.8221256732940674
1631021289768,-0.3021847307682037,1.0802130699157717,0.8692480325698853,0.7918761372566223
1631021289846,-0.2567272186279297,1.0430477857589722,0.700151264667511,0.7507052421569824
1631021289940,-0.2104263305664062,1.0023006200790403,0.5306549668312073,0.7100048065185547
1631021290002,-0.1787055283784866,0.9648508429527284,0.4194161593914032,0.6725350022315979
1631021290158,-0.1590827107429504,0.9327736496925354,0.3530406355857849,0.6378860473632812
1631021290252,-0.1345707029104232,0.9053754210472108,0.2699717283248901,0.6064996719360352
1631021290411,-0.0963551104068756,0.8809525370597839,0.1556812971830368,0.5801766514778137
1631021290458,-0.0535387247800827,0.8575522899627686,0.0398553982377052,0.5607002973556519
1631021290536,-0.0267076101154088,0.8095007538795471,-0.0392534285783767,0.529039204120636
1631021290630,0.0025044006761163,0.7660545706748962,-0.0692792981863021,0.5024940967559814
1631021290817,0.026775274425745,0.7145296335220337,-0.0770281180739402,0.4636086225509643
1631021290879,0.0467916056513786,0.6397444009780884,-0.0919354036450386,0.3961789608001709
1631021290998,0.0610143765807151,0.522372305393219,-0.1285815834999084,0.2826517820358276
1631021291036,0.0645583197474479,0.3609223961830139,-0.1686118394136428,0.1353250443935394
1631021291160,0.057431623339653,0.1891899108886718,-0.2011968046426773,-0.0007315929979085
1631021291239,0.0412862226366996,0.0542502105236053,-0.2180684804916381,-0.0682615935802459
1631021291399,0.0186876524239778,-0.0154581908136606,-0.2214572429656982,-0.0682659298181533
1631021291462,-0.0007320785080082,-0.0300601348280906,-0.2221238166093826,-0.0502308756113052
1631021291571,-0.0015531125245615,-0.0388819351792335,-0.2314114719629287,-0.0366576872766017
1631021291665,0.0140684312209486,-0.0626638010144233,-0.2443531602621078,-0.0279811825603246
1631021291790,0.0310692768543958,-0.102632537484169,-0.2644736468791961,-0.0214634221047163
1631021291883,0.0340976081788539,-0.1498698741197586,-0.2967299222946167,-0.0257283058017492
1631021292040,0.0200219433754682,-0.1916239708662033,-0.3514478206634521,-0.0527803599834442
1631021292102,-0.0005990924546495,-0.2205298990011215,-0.435064822435379,-0.0942200720310211
1631021292180,-0.017140083014965,-0.2383910119533538,-0.5364625453948975,-0.1324826329946518
1631021292290,-0.0209447834640741,-0.2485444247722625,-0.6286963820457458,-0.1362950801849365
1631021292435,-0.0175841394811868,-0.2536858022212982,-0.6892223358154297,-0.1105906516313552
1631021292513,-0.0140545768663287,-0.2477754354476928,-0.7147314548492432,-0.0855483636260032
