,timestamp,TP9,AF7,AF8,TP10
1299,1629708999040,0.2762400507926941,-0.0086508281528949,0.0830025598406791,0.1704520583152771
1300,1629708999181,0.2763872742652893,-0.0060029453597962,0.0621723011136055,0.1887099295854568
1301,1629708999259,0.2778574824333191,-0.0070202406495809,0.0349349714815616,0.2031940966844558
1302,1629708999353,0.2795618772506714,-0.0077957273460924,0.0113172708079218,0.2188610583543777
1303,1629708999462,0.2839885950088501,-0.0084119169041514,-0.0028987219557166,0.2391539216041565
1304,1629708999603,0.2929942309856415,-0.0112521965056657,-0.0108801256865262,0.2621779441833496
1305,1629708999665,0.2929942309856415,-0.0187661759555339,-0.0164795648306608,0.2621779441833496
1306,1629708999759,0.2929942309856415,-0.0276647768914699,-0.0233034715056419,0.2621779441833496
1307,1629708999900,0.2926277816295624,-0.0316849574446678,-0.0308360010385513,0.2678424119949341
1308,1629708999946,0.29188272356987,-0.0265804566442966,-0.037326343357563,0.2820490598678589
1309,1629709000028,0.2896172702312469,-0.0148257408291101,-0.039265189319849,0.3024638891220093
1310,1629709000137,0.286188006401062,-0.0020477916114032,-0.0360860042273998,0.3247324228286743
1311,1629709000215,0.2871818542480469,0.0064927800558507,-0.0304943080991506,0.3444325625896454
1312,1629709000387,0.2929326891899109,0.0052967793308198,-0.027163116261363,0.3585034310817718
1313,1629709000449,0.3047860264778137,-0.0054833386093378,-0.0268019326031208,0.36831995844841
1314,1629709000559,0.318525105714798,-0.0200162604451179,-0.0233308300375938,0.3776650428771972
1315,1629709000668,0.3281890749931335,-0.0328855812549591,-0.0119826607406139,0.3925667107105255
1316,1629709000762,0.3281890749931335,-0.0416683070361614,0.0036205581855028,0.3925667107105255
1317,1629709000871,0.3281890749931335,-0.046792633831501,0.0147462077438831,0.3925667107105255
1318,1629709001030,0.3281890749931335,-0.0413868874311447,0.0180876217782497,0.3925667107105255
1319,1629709001061,0.3281890749931335,-0.0159559939056634,0.0188149288296699,0.3925667107105255
1320,1629709001155,0.3281890749931335,0.0275241900235414,0.023990623652935,0.3925667107105255
1321,1629709001280,0.3281890749931335,0.073565624654293,0.0373050272464752,0.3925667107105255
1322,1629709001389,0.3281890749931335,0.1071394234895706,0.0546701066195964,0.3925667107105255
1323,1629709001483,0.3281890749931335,0.1250635832548141,0.0686136186122894,0.3925667107105255
1324,1629709001577,0.3281890749931335,0.1349407881498336,0.0735808908939361,0.3925667107105255
1325,1629709001702,0.3281890749931335,0.1460420936346054,0.0712442249059677,0.3925667107105255
1326,1629709001827,0.3281890749931335,0.1604155749082565,0.0677119866013526,0.3925667107105255
1327,1629709001873,0.3281890749931335,0.1766944527626037,0.0690985992550849,0.3925667107105255
1328,1629709002014,0.3281890749931335,0.1943085342645645,0.0759344473481178,0.3925667107105255
1329,1629709002045,0.3281890749931335,0.2140108793973922,0.0825859233736991,0.3925667107105255
1330,1629709002237,0.3281890749931335,0.2343145161867141,0.0837415233254432,0.3925667107105255
1331,1629709002331,0.3281890749931335,0.250266432762146,0.0793093591928482,0.3925667107105255
1332,1629709002393,0.3281890749931335,0.2569844722747803,0.0725538060069084,0.3925667107105255
1333,1629709002471,0.3281890749931335,0.2520469427108764,0.065030388534069,0.3925667107105255
1334,1629709002612,0.3281890749931335,0.2357890307903289,0.0560617297887802,0.3925667107105255
1335,1629709002690,0.3281890749931335,0.211427167057991,0.0473537035286426,0.3925667107105255
1336,1629709002832,0.3281890749931335,0.1843039691448211,0.0442257970571517,0.3925667107105255
1337,1629709002927,0.3281890749931335,0.1599045246839523,0.0503544919192791,0.3925667107105255
1338,1629709003020,0.3281890749931335,0.1395346522331237,0.064819112420082,0.3925667107105255
1339,1629709003083,0.3281890749931335,0.1188392043113708,0.0828826576471328,0.3925667107105255
1340,1629709003208,0.3281890749931335,0.0936320051550865,0.0988909676671028,0.3925667107105255
1341,1629709003286,0.3281890749931335,0.0680489316582679,0.1093513146042823,0.3925667107105255
1342,1629709003458,0.3281890749931335,0.0497263669967651,0.1123807653784751,0.3925667107105255
1343,1629709003489,0.3281890749931335,0.039016880095005,0.1079776659607887,0.3925667107105255
1344,1629709003645,0.3281890749931335,0.0271114408969879,0.0989297702908515,0.3925667107105255
1345,1629709003723,0.3281890749931335,0.0083167478442192,0.0896794199943542,0.3925667107105255
1346,1629709003817,0.3281890749931335,-0.0100743845105171,0.0846891477704048,0.3925667107105255
1347,1629709003913,0.3281890749931335,-0.01368935033679,0.0856319591403007,0.3925667107105255
1348,1629709004038,0.3281890749931335,0.000632113253232,0.090105801820755,0.3925667107105255
1349,1629709004116,0.3281890749931335,0.0194289050996303,0.0931139066815376,0.3925667107105255
1350,1629709004194,0.3281890749931335,0.0285579543560743,0.0881386771798133,0.3925667107105255
1351,1629709004366,0.3281890749931335,0.0256277546286582,0.0709937214851379,0.3925667107105255
1352,1629709004397,0.3281890749931335,0.017065230756998,0.0431668274104595,0.3925667107105255
1353,1629709004459,0.3281890749931335,0.010084799490869,0.011760982684791,0.3925667107105255
1354,1629709004663,0.3281890749931335,0.0081672258675098,-0.0154730025678873,0.3925667107105255
1355,1629709004787,0.3281890749931335,0.0106651429086923,-0.0366142466664314,0.3925667107105255
1356,1629709004819,0.3281890749931335,0.015091429464519,-0.0556493215262889,0.3925667107105255
1357,1629709004905,0.3281890749931335,0.0171352159231901,-0.0748279318213462,0.3925667107105255
1358,1629709005009,0.3281890749931335,0.0139840338379144,-0.0886859372258186,0.3925667107105255
1359,1629709005118,0.3281890749931335,0.0072867507115006,-0.0904197394847869,0.3925667107105255
1360,1629709005259,0.3281890749931335,0.0007146499701775,-0.0806325227022171,0.3925667107105255
1361,1629709005384,0.3281890749931335,-0.0050340136513113,-0.0679942071437835,0.3925667107105255
1362,1629709005462,0.3281890749931335,-0.0147473635151982,-0.0595550946891307,0.3925667107105255
1363,1629709005524,0.3281890749931335,-0.0334407985210418,-0.0572399534285068,0.3925667107105255
1364,1629709005649,0.3281890749931335,-0.0599837191402912,-0.0591953173279762,0.3925667107105255
1365,1629709005759,0.3281890749931335,-0.0860553979873657,-0.0624594092369079,0.3925667107105255
1366,1629709005837,0.1678013801574707,-0.1026359796524047,-0.0633318945765495,0.1031448766589164
1367,1629709005949,0.1731600910425186,-0.1061314418911933,-0.0587769746780395,0.1578249186277389
1368,1629709006043,0.185447558760643,-0.0996861904859542,-0.0502796359360218,0.2560015916824341
1369,1629709006199,0.2169972211122512,-0.0896056666970253,-0.042015615850687,0.3551923632621765
1370,1629709006262,0.2813750803470611,-0.0821006223559379,-0.0377701595425605,0.4249438941478729
1371,1629709006340,0.3687614798545837,-0.0807975530624389,-0.0392699763178825,0.4626355171203613
1372,1629709006465,0.4499761164188385,-0.0845269560813903,-0.0463934168219566,0.4789838492870331
1373,1629709006559,0.5049688220024109,-0.0894777774810791,-0.0598243437707424,0.4861791133880615
1374,1629709006684,0.5303325653076172,-0.0941208153963089,-0.081494428217411,0.489100843667984
1375,1629709006762,0.5334926247596741,-0.0999719947576522,-0.1110902950167656,0.4878378212451935
1376,1629709006824,0.524675726890564,-0.1086260005831718,-0.1446379572153091,0.481238305568695
1377,1629709006921,0.5099795460700989,-0.1188040822744369,-0.1771340668201446,0.4702751636505127
1378,1629709007109,0.5067695379257202,-0.1253465116024017,-0.2043772935867309,0.4708616435527801
1379,1629709007140,0.5037394165992737,-0.1228985041379928,-0.2247864603996276,0.4724890291690826
1380,1629709007249,0.5024071931838989,-0.1109592765569686,-0.2389612048864364,0.4749438762664795
1381,1629709007362,0.5048502683639526,-0.0950113981962204,-0.248513326048851,0.4764848053455353
1382,1629709007471,0.5105513334274292,-0.0829432606697082,-0.2555876672267914,0.4708121120929718
1383,1629709007549,0.5153319239616394,-0.0786554962396621,-0.2615410089492798,0.4503899812698364
1384,1629709007674,0.5126586556434631,-0.0789597630500793,-0.2682854235172272,0.4141760170459747
1385,1629709007786,0.4951345026493072,-0.0750380679965019,-0.2751390337944031,0.3724550306797027
1386,1629709007864,0.4592361152172088,-0.0610421858727932,-0.2781257927417755,0.3417491614818573
1387,1629709008005,0.4120264053344726,-0.0403041653335094,-0.2732046842575073,0.3328211903572082
1388,1629709008036,0.3711001276969909,-0.0191082749515771,-0.2603619992733001,0.3417215347290039
1389,1629709008161,0.3523223102092743,6.087070869398303e-05,-0.2446282804012298,0.3565648794174194
1390,1629709008286,0.3554436266422272,0.0170216578990221,-0.2321108281612396,0.3658259212970733
1391,1629709008395,0.3682821691036224,0.0301498640328645,-0.2274177223443985,0.3661344945430755
1392,1629709008504,0.384347915649414,0.0365508757531642,-0.2310773730278015,0.3609189391136169
1393,1629709008583,0.4008068442344665,0.0349744893610477,-0.2393737137317657,0.3568803668022156
1394,1629709008661,0.4148613512516022,0.0266644097864627,-0.2469915598630905,0.3590840995311737
1395,1629709008754,0.423399418592453,0.014139050617814,-0.250459223985672,0.3673595190048218
1396,1629709008929,0.4247229397296905,0.0014118655817583,-0.2510802447795868,0.3766149282455444
1397,1629709009054,0.4229665696620941,-0.0074698119424283,-0.2534312307834625,0.3874843120574951
1398,1629709009132,0.4272085130214691,-0.0115710068494081,-0.2596230208873749,0.3989764451980591
1399,1629709009257,0.4350664913654327,-0.0145275136455893,-0.2649775445461273,0.4110796451568603
1400,1629709009288,0.446860134601593,-0.0215181950479745,-0.262599229812622,0.4219582080841064
1401,1629709009413,0.4576380252838135,-0.0348899103701114,-0.251208484172821,0.4256382584571838
1402,1629709009491,0.4602386057376861,-0.0523910038173198,-0.2354398965835571,0.4131534993648529
1403,1629709009585,0.4495086073875427,-0.0703047439455986,-0.2194159775972366,0.3771984279155731
1404,1629709009679,0.4257254600524902,-0.0870104283094406,-0.2019083648920059,0.3195637166500091
1405,1629709009788,0.3945742547512054,-0.1016799882054328,-0.182727113366127,0.259598046541214
1406,1629709009885,0.3645486235618591,-0.1120809912681579,-0.1649911254644394,0.2282787859439849
1407,1629709009994,0.3381933569908142,-0.1149271503090858,-0.151149109005928,0.241641491651535
1408,1629709010119,0.3147579729557037,-0.1101235821843147,-0.1400949507951736,0.241641491651535
1409,1629709010244,0.3147579729557037,-0.0982229709625244,-0.1280914545059204,0.241641491651535
1410,1629709010338,0.3147579729557037,-0.0802202150225639,-0.1133907735347747,0.241641491651535
1411,1629709010431,0.3147579729557037,-0.0590669400990009,-0.0986977890133857,0.241641491651535
1412,1629709010525,0.3147579729557037,-0.0389986895024776,-0.0876965224742889,0.241641491651535
1413,1629709010587,0.3147579729557037,-0.0222706738859415,-0.0814816951751709,0.241641491651535
1414,1629709010744,0.3147579729557037,-0.008362965658307,-0.0790041089057922,0.241641491651535
1415,1629709010855,0.3147579729557037,0.0032166393939405,-0.0799813270568847,0.2105250358581543
1416,1629709010949,0.1671543568372726,0.0101515129208564,-0.0863939970731735,0.1908556520938873
1417,1629709011027,0.1671543568372726,0.0112996539101004,-0.1010613441467285,0.1908556520938873
1418,1629709011152,0.1671543568372726,0.0113818598911166,-0.1242132931947708,0.1908556520938873
1419,1629709011246,0.1671543568372726,0.0168965011835098,-0.1528928428888321,0.1908556520938873
1420,1629709011380,0.1671543568372726,0.0280268639326095,-0.1798065304756164,0.1908556520938873
1421,1629709011541,0.1671543568372726,0.0380566231906414,-0.1961573958396911,0.1908556520938873
1422,1629709011586,0.1671543568372726,0.0418639779090881,-0.1972613036632537,0.1908556520938873
1423,1629709011656,0.1671543568372726,0.0412635244429111,-0.1863937973976135,0.1908556520938873
1424,1629709011691,0.1671543568372726,0.0395315028727054,-0.1697124987840652,0.1908556520938873
1425,1629709011816,0.1671543568372726,0.0359446629881858,-0.1510359793901443,0.1908556520938873
1426,1629709011972,0.1671543568372726,0.0274360571056604,-0.1325607597827911,0.1908556520938873
1427,1629709012038,0.1671543568372726,0.0140370456501841,-0.117379255592823,0.1481543928384781
1428,1629709012112,0.1671543568372726,0.0002624441694933,-0.1091471314430236,0.1481543928384781
1429,1629709012213,0.1671543568372726,-0.0074132978916168,-0.1096342578530311,0.1481543928384781
1430,1629709012333,0.1671543568372726,-0.0054401294328272,-0.1167973577976226,0.1481543928384781
1431,1629709012457,0.1671543568372726,0.0069631370715796,-0.1241263747215271,0.1481543928384781
1432,1629709012576,0.1671543568372726,0.0249298680573701,-0.1242850720882415,0.1481543928384781
1433,1629709012655,0.400943249464035,0.0382624007761478,-0.1148701757192611,0.5760461688041687
1434,1629709012771,0.3938644826412201,0.0398462191224098,-0.100509263575077,0.6275700926780701
1435,1629709012827,0.3817452788352966,0.0314447283744812,-0.0882633924484252,0.6683253645896912
1436,1629709012918,0.3661403059959411,0.0221635121852159,-0.0814052522182464,0.6887604594230652
1437,1629709012996,0.3473805785179138,0.0197484828531742,-0.0806456357240676,0.6859102845191956
1438,1629709013192,0.3268238306045532,0.0230824686586856,-0.0861504673957824,0.6658103466033936
1439,1629709013234,0.3064468502998352,0.0258629824966192,-0.0989244505763053,0.6391843557357788
1440,1629709013366,0.2878371179103851,0.0246077701449394,-0.1189208179712295,0.6152002215385437
1441,1629709013439,0.2742670774459839,0.0204066727310419,-0.1432740092277526,0.5967060327529907
1442,1629709013541,0.2674508392810821,0.0157321244478225,-0.1668547689914703,0.5820618271827698
1443,1629709013619,0.2663269937038421,0.0101101733744144,-0.1848676800727844,0.5689789056777954
1444,1629709013790,0.2668529450893402,-0.0006880725268274,-0.1939002722501754,0.5553094744682312
1445,1629709013892,0.257683515548706,-0.0186147894710302,-0.1905085146427154,0.5439528226852417
1446,1629709013991,0.2431982904672622,-0.0402471087872982,-0.1768096089363098,0.5293626189231873
1447,1629709014050,0.2312163412570953,-0.0577176213264465,-0.1599151790142059,0.5085659623146057
1448,1629709014152,0.2286540120840072,-0.0639862120151519,-0.1458191573619842,0.4771764874458313
1449,1629709014257,0.2389571219682693,-0.0591451115906238,-0.1351242214441299,0.434105783700943
1450,1629709014350,0.2636702358722687,-0.049356859177351,-0.1260844469070434,0.3862533867359161
1451,1629709014433,0.3027012646198272,-0.0415476076304912,-0.1191167533397674,0.3494071960449219
1452,1629709014569,0.3495871126651764,-0.0401910208165645,-0.1149229258298873,0.3368219435214996
1453,1629709014673,0.3913368880748749,-0.0444747656583786,-0.1115111783146858,0.3435137271881103
1454,1629709014740,0.4195871949195862,-0.0496244207024574,-0.1072598025202751,0.354010671377182
1455,1629709014868,0.4365738928318023,-0.0509673543274402,-0.1042908877134323,0.3585637807846069
1456,1629709015014,0.4545472264289856,-0.0483169145882129,-0.104571908712387,0.3609901964664459
1457,1629709015078,0.4836641848087311,-0.0453190244734287,-0.1055846735835075,0.3695225417613983
1458,1629709015211,0.5210881233215332,-0.0430274754762649,-0.1003931909799575,0.3882684409618377
1459,1629709015251,0.5556442141532898,-0.0379646904766559,-0.0860169529914856,0.4160711765289306
1460,1629709015340,0.5812270045280457,-0.0298596918582916,-0.0684661418199539,0.4496710300445556
1461,1629709015442,0.5994689464569092,-0.0238755419850349,-0.054314374923706,0.4853920936584472
1462,1629709015584,0.6142351627349854,-0.0242627039551734,-0.0452768392860889,0.5198644399642944
1463,1629709015688,0.6268277168273926,-0.0305233839899301,-0.0404082015156745,0.5483027100563049
1464,1629709015804,0.6348816156387329,-0.0379494503140449,-0.0392615720629692,0.5644806623458862
1465,1629709015880,0.6359190940856934,-0.0424691699445247,-0.0414209961891174,0.5652949810028076
1466,1629709016025,0.6276357769966125,-0.0422048605978488,-0.0457339622080326,0.5528641939163208
1467,1629709016086,0.6110893487930298,-0.0370791926980018,-0.0505442544817924,0.5350905656814575
1468,1629709016216,0.5924135446548462,-0.0283133350312709,-0.0563937984406948,0.5215705633163452
1469,1629709016302,0.5790035128593445,-0.0177195612341165,-0.0633038207888603,0.5172398686408997
1470,1629709016382,0.5738516449928284,-0.0077199256047606,-0.0689757242798805,0.5196126103401184
1471,1629709016488,0.5679647326469421,-0.000816001847852,-0.0726136863231659,0.5205813050270081
1472,1629709016556,0.5499550104141235,0.0012101565953344,-0.0764997005462646,0.5133309960365295
1473,1629709016649,0.5167894959449768,-0.0025483714416623,-0.0861630216240882,0.4951348602771759
1474,1629709016832,0.4786250591278076,-0.0126555478200316,-0.105521835386753,0.4672876000404358
1475,1629709016909,0.4494113028049469,-0.027987191453576,-0.1339610368013382,0.4313233494758606
1476,1629709016998,0.4335229396820068,-0.0468142852187156,-0.1663900315761566,0.3875535428524017
1477,1629709017092,0.4233827888965606,-0.0682892873883247,-0.1954840719699859,0.3358961343765259
1478,1629709017218,0.4105841219425201,-0.0916084423661232,-0.2157055437564849,0.2812608480453491
1479,1629709017305,0.3944524526596069,-0.1156236231327056,-0.2263330221176147,0.235623300075531
1480,1629709017411,0.3772696554660797,-0.138562723994255,-0.2310415208339691,0.2080153524875641
1481,1629709017500,0.3668293356895447,-0.1584147810935974,-0.2333578020334243,0.2062567770481109
1482,1629709017605,0.3630129396915436,-0.1728300750255584,-0.2342022657394409,0.2080351114273071
1483,1629709017689,0.3661505281925201,-0.1803817898035049,-0.2328607589006424,0.2037087082862854
1484,1629709017793,0.3741620779037475,-0.184103175997734,-0.2302332371473312,0.1887858361005783
1485,1629709017927,0.3809854388236999,-0.1888193488121032,-0.2270740121603012,0.1637542098760604
1486,1629709018006,0.3850893080234527,-0.2083858698606491,-0.2203710675239563,0.1327194571495056
1487,1629709018140,0.3899420201778412,-0.2188145965337753,-0.2066960036754608,0.1016214564442634
1488,1629709018216,0.401703417301178,-0.2151289880275726,-0.1864635050296783,0.0757456570863723
1489,1629709018323,0.4204000830650329,-0.1960891932249069,-0.1647858172655105,0.0568135306239128
1490,1629709018422,0.4373911619186401,-0.165407046675682,-0.146124005317688,0.044120468199253
1491,1629709018559,0.4414700269699096,-0.1277035474777221,-0.1322807222604751,0.0332906655967235
1492,1629709018617,0.4414700269699096,-0.0925154834985733,-0.1243274211883544,0.0332906655967235
1493,1629709018746,0.4414700269699096,-0.0686527043581008,-0.1193358600139617,0.0332906655967235
1494,1629709018819,0.4414700269699096,-0.0578870736062526,-0.111027643084526,0.0332906655967235
1495,1629709018914,0.4414700269699096,-0.0510179810225963,-0.0934258922934532,0.0332906655967235
1496,1629709019060,0.4414700269699096,-0.0364294424653053,-0.0622196719050407,0.0332906655967235
1497,1629709019117,0.4414700269699096,-0.0117275267839431,-0.0153167536482214,0.0332906655967235
1498,1629709019240,0.4414700269699096,0.0135365892201662,0.0423388294875621,0.5229594111442566
1499,1629709019329,0.4414700269699096,0.0290244072675704,0.0981992930173873,0.5066744089126587
1500,1629709019451,0.4414700269699096,0.0332072749733924,0.1391730159521103,0.486716091632843
1501,1629709019615,0.4414700269699096,0.027921725064516,0.1610270589590072,0.4630595743656158
1502,1629709019669,0.4414700269699096,0.0217216052114963,0.1693094223737716,0.4419906735420227
1503,1629709019734,0.4414700269699096,0.018737681210041,0.1743942499160766,0.4299114346504211
1504,1629709019888,0.4414700269699096,0.0274725519120693,0.1823728680610656,0.4254412055015564
1505,1629709019931,0.4414700269699096,0.0303498730063438,0.1942680031061172,0.4247874319553375
1506,1629709020122,0.2891541421413421,0.0244671162217855,0.2068107724189758,0.4228361546993255
1507,1629709020219,0.2936740815639496,0.0139814829453825,0.2171661704778671,0.417676031589508
1508,1629709020289,0.3085305392742157,0.00669427216053,0.2230147719383239,0.410103291273117
1509,1629709020331,0.3380055725574493,0.0060630175285041,0.2224565297365188,0.401151031255722
1510,1629709020452,0.3380055725574493,0.0065764896571636,0.2147205024957656,0.382574051618576
1511,1629709020609,0.3380055725574493,0.0005714625585824,0.1997542232275009,0.3693701326847076
1512,1629709020668,0.3380055725574493,-0.0155235296115279,0.1755966991186142,0.3581292927265167
1513,1629709020753,0.3237485885620117,-0.0387711748480796,0.1413856446743011,0.3467525839805603
1514,1629709020900,0.3347479104995727,-0.0608299672603607,0.1018892303109169,0.3369004130363464
1515,1629709020962,0.3347479104995727,-0.0712369382381439,0.068462960422039,0.3330259323120117
1516,1629709021113,0.3347479104995727,-0.06451877951622,0.0487730428576469,0.3386392891407013
1517,1629709021179,0.3347479104995727,-0.0462086573243141,0.0391144305467605,0.3492284417152405
1518,1629709021284,0.3347479104995727,-0.028884807601571,0.0311260148882865,0.3540897369384765
1519,1629709021384,0.3347479104995727,-0.021020196378231,0.0240257605910301,0.3480709195137024
1520,1629709021433,0.3658922016620636,-0.0228584669530391,0.0196350812911987,0.3286158442497253
1521,1629709021535,0.3658922016620636,-0.0292296856641769,0.0175717771053314,0.3286158442497253
1522,1629709021695,0.3658922016620636,-0.035729095339775,0.0139527190476655,0.3286158442497253
1523,1629709021766,0.3658922016620636,-0.0410234332084655,0.0068405661731958,0.3286158442497253
1524,1629709021887,0.3658922016620636,-0.0444625802338123,-0.0009124388452619,0.3286158442497253
1525,1629709021996,0.1618233621120453,-0.0458516329526901,-0.0061852550134062,0.1388421356678009
1526,1629709022093,0.1906081587076187,-0.0475079715251922,-0.0108288284391164,0.1181366369128227
1527,1629709022220,0.2279947251081466,-0.0514963008463382,-0.0188423227518796,0.0985736772418022
1528,1629709022298,0.2647502422332763,-0.0570960938930511,-0.0325936414301395,0.0833905190229415
1529,1629709022393,0.2912662029266357,-0.0617854744195938,-0.0500982664525508,0.0763514414429664
1530,1629709022516,0.3027482628822326,-0.0669368430972099,-0.0648328065872192,0.0782523304224014
1531,1629709022591,0.3005729019641876,-0.0785161480307579,-0.0684053674340248,0.0849511995911598
1532,1629709022662,0.2901637554168701,-0.1002471819519996,-0.0567827485501766,0.0902557447552681
1533,1629709022765,0.2792173326015472,-0.128361776471138,-0.0373600721359252,0.0931340754032135
1534,1629709022899,0.274943083524704,-0.1533591598272323,-0.0212856549769639,0.1016853004693985
1535,1629709022976,0.2805016636848449,-0.1671161502599716,-0.0102266576141119,0.1239063665270805
1536,1629709023086,0.2919754981994629,-0.1700854152441024,0.0040594018064439,0.158305212855339
1537,1629709023220,0.3096278309822082,-0.1679682731628418,0.027317851781845,0.195023313164711
1538,1629709023283,0.3206266760826111,-0.165605291724205,0.0543613210320472,0.1977066844701767
1539,1629709023413,0.3319925665855407,-0.16377754509449,0.0760383233428001,0.2029617875814438
1540,1629709023533,0.3411613404750824,-0.1607342362403869,0.089659608900547,0.2118653059005737
1541,1629709023660,0.3455445766448974,-0.1548139154911041,0.0988492742180824,0.2255268841981887
1542,1629709023719,0.3421659469604492,-0.1460108160972595,0.1069535687565803,0.2436218410730362
1543,1629709023801,0.3302226364612579,-0.1332384496927261,0.1141437739133834,0.2650935053825378
1544,1629709023892,0.3140047490596771,-0.1138629913330078,0.1191476061940193,0.2876526713371277
1545,1629709023982,0.3028305470943451,-0.0850907191634178,0.1197799295186996,0.3094902634620666
1546,1629709024124,0.3064450323581695,-0.0500934943556785,0.1150741502642631,0.332163393497467
1547,1629709024200,0.3293222784996032,-0.0170992258936166,0.1050228774547576,0.3621580600738525
1548,1629709024307,0.3666639626026153,0.0073113488033413,0.091052696108818,0.4057806432247162
1549,1629709024416,0.3666639626026153,0.0213883426040411,0.0745102614164352,0.4057806432247162
1550,1629709024497,0.3666639626026153,0.0273635983467102,0.0546021237969398,0.4057806432247162
1551,1629709024597,0.3666639626026153,0.0305048115551471,0.0303030293434858,0.4057806432247162
1552,1629709024758,0.3666639626026153,0.0377258732914924,0.0042627728544175,0.4057806432247162
1553,1629709024860,0.3190900385379791,0.0535994954407215,-0.0178328938782215,0.2182271778583526
1554,1629709024902,0.360839307308197,0.0755966752767562,-0.0315443985164165,0.2752329409122467
1555,1629709025028,0.3766061961650848,0.097030371427536,-0.0376507602632045,0.3137884140014648
1556,1629709025100,0.3845192790031433,0.1132708340883255,-0.0407115258276462,0.3355905711650848
1557,1629709025194,0.4028334021568298,0.1232122480869293,-0.0439345315098762,0.3497448265552521
1558,1629709025339,0.4313588142395019,0.1257300078868866,-0.047105997800827,0.3635805249214172
1559,1629709025433,0.4575441777706146,0.1183995157480239,-0.0476153157651424,0.3774470090866089
1560,1629709025543,0.4755239486694336,0.0999829173088073,-0.0414391756057739,0.3893411457538605
1561,1629709025619,0.4877504706382751,0.0738083198666572,-0.0297818072140216,0.3987897932529449
1562,1629709025702,0.4958808720111847,0.0475837849080562,-0.0178017579019069,0.4080361425876617
1563,1629709025821,0.4977762997150421,0.0277295690029859,-0.0092606646940112,0.4166364967823028
1564,1629709025966,0.4926295876502991,0.0164417475461959,-0.0036455853842198,0.4210846126079559
1565,1629709026117,0.5003702044487,0.0116118667647242,0.0003380022244527,0.4363574981689453
1566,1629709026200,0.50566565990448,0.0090547576546669,0.0010556016350165,0.4434698224067688
1567,1629709026252,0.509344220161438,0.002357457531616,-0.0038142122793942,0.4460503756999969
1568,1629709026345,0.5097872018814087,-0.0148611506447196,-0.0123170036822557,0.4473202228546142
1569,1629709026436,0.506463348865509,-0.0436147935688495,-0.0200068224221467,0.4469922482967376
1570,1629709026573,0.5008136034011841,-0.0786173418164253,-0.0229964088648557,0.4449752271175384
1571,1629709026670,0.491725206375122,-0.113309197127819,-0.020033311098814,0.4413753151893616
1572,1629709026786,0.4901571273803711,-0.1435563117265701,-0.0110737672075629,0.4416373372077942
1573,1629709026862,0.4794168472290039,-0.1658130884170532,0.0023130646441131,0.4401289224624634
1574,1629709027002,0.462756335735321,-0.1752437800168991,0.0150326760485768,0.4361145198345184
1575,1629709027044,0.4447197616100311,-0.1714009791612625,0.0200616773217916,0.4305328726768493
1576,1629709027212,0.4251176118850708,-0.1600802093744278,0.0135154183954,0.4239882826805115
1577,1629709027258,0.4034040868282318,-0.1479321718215942,-0.0028469702228903,0.4138530194759369
1578,1629709027345,0.3860669732093811,-0.1379386633634567,-0.0237804111093282,0.3993369340896606
1579,1629709027483,0.3820289671421051,-0.1315251141786575,-0.0447809286415576,0.3866626024246216
1580,1629709027515,0.3900849521160126,-0.1288050562143325,-0.0635534450411796,0.3861456215381622
1581,1629709027613,0.3955268561840057,-0.1285528838634491,-0.0785807818174362,0.3998683094978332
1582,1629709027765,0.3832799792289734,-0.1288205683231353,-0.0896315053105354,0.4178545773029327
1583,1629709027892,0.3832799792289734,-0.1281812787055969,-0.0980582535266876,0.4178545773029327
1584,1629709027968,0.3832799792289734,-0.123630054295063,-0.1036050394177436,0.4178545773029327
1585,1629709028092,0.3832799792289734,-0.1111278310418129,-0.1064721941947937,0.4178545773029327
1586,1629709028170,0.3832799792289734,-0.0884081497788429,-0.1085084900259971,0.4178545773029327
1587,1629709028233,0.3832799792289734,-0.0589344725012779,-0.1138228252530098,0.4178545773029327
1588,1629709028438,0.2709380388259887,-0.0304677058011293,-0.1247715875506401,0.3969572782516479
1589,1629709028495,0.2618536651134491,-0.0102438274770975,-0.1384673863649368,0.3542051911354065
1590,1629709028607,0.2519239485263824,-0.0020774616859853,-0.1491974294185638,0.3263078927993774
1591,1629709028670,0.2418484091758728,-0.0058956202119588,-0.1528388410806656,0.3079468905925751
1592,1629709028764,0.2321642786264419,-0.0176995936781168,-0.1508848220109939,0.2963503003120422
1593,1629709028873,0.2252159267663955,-0.0297312512993812,-0.1473893672227859,0.2912794649600982
1594,1629709028982,0.2206269949674606,-0.0352427437901496,-0.1441064476966858,0.2900765836238861
1595,1629709029107,0.2171567231416702,-0.0336931198835372,-0.1393335908651352,0.2871245145797729
1596,1629709029201,0.2144071012735366,-0.0300610829144716,-0.1318972110748291,0.2793108224868774
1597,1629709029310,0.2121952921152115,-0.0287933032959699,-0.1233095079660415,0.2687913477420807
1598,1629709029357,0.2101894617080688,-0.0290992334485054,-0.1168507561087608,0.2600158452987671
1599,1629709029498,0.2076507210731506,-0.0285952556878328,-0.1150360181927681,0.25424325466156
1600,1629709029623,0.2006428986787796,-0.0259235519915819,-0.1170283034443855,0.2213262170553207
1601,1629709029732,0.1951464861631393,-0.0226234216243028,-0.1198111698031425,0.1934458166360855
1602,1629709029810,0.1925431340932846,-0.0200817361474037,-0.1200578436255455,0.1793925464153289
1603,1629709029951,0.1913364678621292,-0.0171165894716978,-0.1179159730672836,0.1806574910879135
1604,1629709030032,0.1892499923706054,-0.0116792637854814,-0.1154692098498344,0.1935920566320419
1605,1629709030173,0.1865394562482834,-0.0037197428755462,-0.1114222109317779,0.2129790931940078
1606,1629709030204,0.1840676963329315,0.0039658043533563,-0.1010883972048759,0.2316495180130005
1607,1629709030345,0.1831855922937393,0.0081698792055249,-0.0822706818580627,0.2429995685815811
1608,1629709030454,0.1829300671815872,0.0071912910789251,-0.0592307597398757,0.2432856261730194
1609,1629709030563,0.1827466487884521,0.0007731427904218,-0.0386573709547519,0.2330076992511749
1610,1629709030657,0.1823433637619018,-0.010389432311058,-0.0243321303278207,0.2165312618017196
1611,1629709030719,0.1805667579174041,-0.0244821570813655,-0.0137833096086978,0.1988335996866226
1612,1629709030876,0.1772106736898422,-0.0378667674958705,-0.0015880720457062,0.1821819394826889
1613,1629709030938,0.1740143895149231,-0.0465414077043533,0.0163672976195812,0.1652174293994903
1614,1629709031032,0.174352616071701,-0.0468905605375766,0.0403891280293464,0.1473268419504165
1615,1629709031126,0.17786805331707,-0.0395955368876457,0.0669852867722511,0.130270317196846
1616,1629709031223,0.1834839135408401,-0.0294019766151905,0.0917991995811462,0.1195915192365646
1617,1629709031317,0.1902084946632385,-0.0227153673768043,0.1120982989668846,0.1174644157290458
1618,1629709031426,0.2004799097776413,-0.0234128758311271,0.1274703443050384,0.1172766983509063
1619,1629709031551,0.2134151309728622,-0.0301829576492309,0.1382790654897689,0.1102232784032821
1620,1629709031660,0.2257301062345504,-0.0376293435692787,0.14386747777462,0.0972894504666328
1621,1629709031773,0.2363514155149459,-0.0400992780923843,0.1441550701856613,0.091159738600254
1622,1629709031836,0.2476665377616882,-0.0349107272922992,0.1416165232658386,0.0992962643504142
1623,1629709031913,0.2532303035259247,-0.0221809335052967,0.1400927156209945,0.08595672249794
1624,1629709032116,0.2587539553642273,-0.0022322461009025,0.1409543454647064,0.084079161286354
1625,1629709032226,0.2650745809078216,0.0223127715289592,0.1420234888792038,0.094790793955326
1626,1629709032257,0.2737871408462524,0.046272087842226,0.1395905315876007,0.1166860088706016
1627,1629709032351,0.2857191860675812,0.0648878738284111,0.1330700367689132,0.1452545821666717
1628,1629709032398,0.2997671365737915,0.0758440494537353,0.1254966855049133,0.1763844341039657
1629,1629709032507,0.3130660355091095,0.076395034790039,0.1216175258159637,0.2086886763572693
1630,1629709032663,0.3236942887306213,0.0632558241486549,0.1253481954336166,0.2420581430196762
1631,1629709032741,0.3299894034862518,0.0365943014621734,0.1369691491127014,0.2752056717872619
1632,1629709032900,0.3319990038871765,0.0036829619202762,0.1524073779582977,0.3044890165328979
1633,1629709032931,0.3267275393009186,-0.0247477833181619,0.1660047769546508,0.3306187987327575
1634,1629709033103,0.3267275393009186,-0.0426877178251743,0.1736894398927688,0.3306187987327575
1635,1629709033150,0.3267275393009186,-0.0516498461365699,0.1755598485469818,0.3306187987327575
1636,1629709033291,0.3267275393009186,-0.0562460124492645,0.1736742556095123,0.3306187987327575
1637,1629709033384,0.3267275393009186,-0.0609079450368881,0.169651597738266,0.3306187987327575
1638,1629709033447,0.3267275393009186,-0.0692450180649757,0.1666323095560073,0.3306187987327575
1639,1629709033587,0.5932131409645081,-0.0835171714425087,0.1687186658382415,0.1324395388364792
1640,1629709033665,0.6233645081520081,-0.1029717028141021,0.1777992695569992,0.1440529078245163
1641,1629709033790,0.6333024501800537,-0.1241769343614578,0.1907574981451034,0.1574507504701614
1642,1629709033872,0.6253637075424194,-0.1446466743946075,0.2016228437423706,0.1666988432407379
1643,1629709033997,0.6067468523979187,-0.1644554138183593,0.2051489800214767,0.1690441817045211
1644,1629709034091,0.584378182888031,-0.1816639304161071,0.197472259402275,0.1649565696716308
1645,1629709034169,0.5617223381996155,-0.1901651322841644,0.1759993284940719,0.1577107906341552
1646,1629709034325,0.5410235524177551,-0.185260459780693,0.1410416811704635,0.1527910083532333
1647,1629709034356,0.522497296333313,-0.1705475151538849,0.0981141030788421,0.1530448496341705
1648,1629709034497,0.5055240392684937,-0.1559932678937912,0.0562393888831138,0.1558077931404113
1649,1629709034591,0.4894236922264099,-0.1497623175382614,0.0240505430847406,0.1570751965045929
1650,1629709034685,0.4740530550479889,-0.1545013338327407,0.0042871348559856,0.1564204692840576
1651,1629709034794,0.4623006582260132,-0.1678653210401535,-0.0056758797727525,0.156780257821083
1652,1629709034872,0.4414195716381073,-0.1834889054298401,-0.010119104757905,0.1594880372285843
1653,1629709034953,0.409125953912735,-0.1941752880811691,-0.0153290340676903,0.1608252823352813
1654,1629709035094,0.3633907735347748,-0.1964973211288452,-0.0269879903644323,0.155412808060646
1655,1629709035234,0.3080180287361145,-0.1917857676744461,-0.0475062616169452,0.1422238051891327
1656,1629709035281,0.2540102303028106,-0.1831502616405487,-0.0733783915638923,0.1250756531953811
1657,1629709035390,0.2141070365905761,-0.1723912954330444,-0.0982361212372779,0.1089688017964363
1658,1629709035468,0.1914225816726684,-0.1586226224899292,-0.1169068068265914,0.1029826700687408
1659,1629709035578,0.176937848329544,-0.1421330273151397,-0.1288781017065048,0.1007678806781768
1660,1629709035718,0.1675561219453811,-0.1266893595457077,-0.1339131444692611,0.1019435450434684
1661,1629709035875,0.1592043787240982,-0.117589995265007,-0.1274276822805404,0.1020961999893188
1662,1629709035908,0.1503542810678482,-0.1173505261540412,-0.1057339310646057,0.0963385552167892
1663,1629709035988,0.1414825767278671,-0.1214325651526451,-0.0714232102036476,0.0848965421319007
1664,1629709036112,0.1341381222009658,-0.1217703372240066,-0.0307444036006927,0.0724768936634063
1665,1629709036206,0.1288874000310897,-0.1145974695682525,0.011340326629579,0.060678631067276
1666,1629709036347,0.1222988590598106,-0.102994680404663,0.0512973852455616,0.0428379997611045
1667,1629709036456,0.1127043515443801,-0.0934918895363807,0.0856218710541725,0.0131539078429341
1668,1629709036534,0.1027197539806366,-0.0909448787569999,0.1113958954811096,-0.0240050312131643
1669,1629709036597,0.1027197539806366,-0.09588573127985,0.1287927776575088,-0.0240050312131643
1670,1629709036690,0.1027197539806366,-0.1047061830759048,0.1408388763666153,-0.0240050312131643
1671,1629709036784,0.1027197539806366,-0.1114894896745681,0.1519962847232818,-0.0240050312131643
1672,1629709036925,0.1027197539806366,-0.1108500137925148,0.165846973657608,-0.0240050312131643
1673,1629709037021,0.1027197539806366,-0.1036241650581359,0.1824487000703811,-0.0240050312131643
1674,1629709037130,0.2037334740161895,-0.0956222638487815,0.1991257220506668,0.1703627556562423
1675,1629709037193,0.2037334740161895,-0.0909060314297676,0.21281298995018,0.1703627556562423
1676,1629709037318,0.2037334740161895,-0.0875366628170013,0.2213268280029297,0.1703627556562423
1677,1629709037443,0.2037334740161895,-0.0802370756864547,0.223372608423233,0.1703627556562423
1678,1629709037552,0.2037334740161895,-0.0676840245723724,0.2196307331323623,0.1703627556562423
1679,1629709037708,0.2037334740161895,-0.0554300770163536,0.2121101468801498,0.1703627556562423
1680,1629709037740,0.2037334740161895,-0.0498819686472415,0.2025060504674911,0.1703627556562423
1681,1629709037865,0.2037334740161895,-0.052173413336277,0.1913904845714569,0.1703627556562423
1682,1629709037927,0.2037334740161895,-0.058715883642435,0.1797757744789123,0.1703627556562423
1683,1629709038055,0.2037334740161895,-0.0665754899382591,0.1708189398050308,0.1703627556562423
1684,1629709038133,0.2037334740161895,-0.076125867664814,0.1663703024387359,0.1703627556562423
1685,1629709038242,0.2037334740161895,-0.0880041867494583,0.16426582634449,0.1703627556562423
1686,1629709038367,0.2037334740161895,-0.1007622703909874,0.1600517779588699,0.1703627556562423
1687,1629709038414,0.2037334740161895,-0.1138386875391006,0.1506962180137634,0.1703627556562423
1688,1629709038524,0.2037334740161895,-0.128203347325325,0.1365402489900589,0.1703627556562423
1689,1629709038649,0.2037334740161895,-0.1452520042657852,0.1201302632689476,0.1703627556562423
1690,1629709038758,0.2037334740161895,-0.1650532782077789,0.1035060137510299,0.1703627556562423
1691,1629709038883,0.4499953091144562,-0.1868795603513717,0.0865843743085861,0.1117786094546318
1692,1629709038961,0.4755025506019592,-0.2117576450109481,0.0683888494968414,0.1150353848934173
1693,1629709039027,0.4834502339363098,-0.2415982037782669,0.0477635562419891,0.1238007992506027
1694,1629709039106,0.4802789092063904,-0.2736881375312805,0.0240828897804021,0.1431254297494888
1695,1629709039230,0.4737700223922729,-0.2985370457172394,-0.0024374357890337,0.171294555068016
1696,1629709039387,0.4667990207672119,-0.3072977662086487,-0.0298090074211359,0.1972052156925201
1697,1629709039449,0.4614805281162262,-0.2985537946224212,-0.0554322861135005,0.2119516730308532
1698,1629709039559,0.4574296474456787,-0.276207834482193,-0.0797655433416366,0.2147778272628784
1699,1629709039668,0.4516234695911407,-0.2456002980470657,-0.1047662571072578,0.2119356244802475
1700,1629709039762,0.441019207239151,-0.2130695581436157,-0.1273718476295471,0.2091403752565384
1701,1629709039871,0.4257799983024597,-0.183166891336441,-0.1406377851963043,0.2075829356908798
1702,1629709039996,0.4257799983024597,-0.1575179100036621,-0.1422711312770843,0.2075829356908798
1703,1629709040142,0.4337308406829834,-0.1369010061025619,-0.1378236263990402,0.2164169549942016
1704,1629709040204,0.4366107583045959,-0.1216062977910041,-0.1327645629644394,0.2239470928907394
1705,1629709040267,0.4309817254543304,-0.1111955568194389,-0.1292020827531814,0.2316242605447769
1706,1629709040376,0.4157027304172516,-0.101705826818943,-0.1274222731590271,0.2406785488128662
1707,1629709040485,0.3954800963401794,-0.0867422819137573,-0.1265133917331695,0.2515830993652344
1708,1629709040563,0.3768706023693084,-0.062617227435112,-0.1219885423779487,0.2612706124782562
1709,1629709040673,0.3634473085403442,-0.0311242379248142,-0.1054642498493194,0.2636985182762146
1710,1629709040798,0.3522338569164276,0.0019381198799237,-0.0734807476401329,0.2516842186450958
1711,1629709040912,0.3404947817325592,0.0293227657675743,-0.0349404327571392,0.2256599366664886
1712,1629709040975,0.3210965394973755,0.0459479577839374,-0.0034095956943929,0.1964648813009262
1713,1629709041069,0.3210965394973755,0.0512544028460979,0.0136741399765014,0.1964648813009262
1714,1629709041225,0.3210965394973755,0.0484989918768405,0.0187699608504772,0.1964648813009262
1715,1629709041318,0.3210965394973755,0.043046697974205,0.0175987910479307,0.1964648813009262
1716,1629709041412,0.3210965394973755,0.0381003282964229,0.0128350490704178,0.1964648813009262
1717,1629709041475,0.0738590806722641,0.0345810204744339,0.0054513881914317,0.1964648813009262
1718,1629709041553,0.0652116760611534,0.0339654944837093,-0.0005871204775758,0.1864374876022339
1719,1629709041647,0.0930142700672149,0.0374642089009285,0.0001042800504365,0.2304103821516037
1720,1629709041803,0.1319197118282318,0.0433832816779613,0.009650545194745,0.2620026469230652
1721,1629709041914,0.1599818766117096,0.0465808436274528,0.0258234292268753,0.2826902270317077
1722,1629709041992,0.1669477224349975,0.0412731170654296,0.0445158965885639,0.2945065200328827
1723,1629709042102,0.1570288985967636,0.0243413373827934,0.0609470680356025,0.2984005510807037
1724,1629709042195,0.1384822726249694,-0.0042321756482124,0.0682565867900848,0.2951504588127136
1725,1629709042305,0.1190759092569351,-0.0421167165040969,0.0611563324928283,0.2864000201225281
1726,1629709042414,0.1059193089604377,-0.0825937762856483,0.0413429699838161,0.2741616368293762
1727,1629709042508,0.1062832847237587,-0.1160010248422622,0.018276147544384,0.2595907151699066
1728,1629709042633,0.1243622228503227,-0.1357356905937194,0.0049879252910614,0.2448126673698425
1729,1629709042695,0.1502500921487808,-0.1409590989351272,0.0071789305657148,0.2448126673698425
1730,1629709042805,0.1993070244789123,-0.136863499879837,0.0189983006566762,0.253684937953949
1731,1629709042883,0.2534925043582916,-0.1311458498239517,0.031287882477045,0.2642347812652588
1732,1629709043042,0.2973219752311706,-0.1314588189125061,0.0394139625132083,0.2539286911487579
1733,1629709043152,0.3223167359828949,-0.1431217193603515,0.0453143268823623,0.2344257980585098
1734,1629709043214,0.3282734453678131,-0.1641247868537902,0.0528099834918975,0.2092156112194061
1735,1629709043292,0.3226196467876434,-0.1840703636407852,0.0629650130867958,0.1825705617666244
1736,1629709043417,0.3141595125198364,-0.1914016902446746,0.0721092075109481,0.1540944576263427
1737,1629709043511,0.3093964159488678,-0.180309921503067,0.07549699395895,0.1234548091888427
1738,1629709043652,0.3098606467247009,-0.1540190279483795,0.0718783661723136,0.0980604812502861
1739,1629709043766,0.3156723976135254,-0.1213075295090675,0.0644008368253707,0.0928271561861038
1740,1629709043844,0.3263644874095917,-0.0905799865722656,0.0564796961843967,0.1127082183957099
1741,1629709043953,0.3386588394641876,-0.066079206764698,0.0493404418230056,0.1442292630672454
1742,1629709044003,0.34510338306427,-0.0471043474972248,0.0430581606924533,0.1697301566600799
1743,1629709044128,0.3382012546062469,-0.0318235196173191,0.036625500768423,0.1804014593362808
1744,1629709044253,0.3136659264564514,-0.0203877761960029,0.0279396753758192,0.1660281866788864
1745,1629709044347,0.2719464898109436,-0.013371393084526,0.0172811187803745,0.1498755514621734
1746,1629709044440,0.2225543409585952,-0.0090550724416971,0.0087551763281226,0.1382143497467041
1747,1629709044534,0.1824162006378173,-0.0037272034678608,0.0064177382737398,0.1392332166433334
1748,1629709044628,0.1647163331508636,0.0058422680012881,0.0062638791278004,0.144274428486824
1749,1629709044706,0.1670915484428405,0.0187978371977806,-0.000851476448588,0.1492159962654113
1750,1629709044848,0.1782688796520233,0.0309288427233696,-0.0192500837147235,0.1522653698921203
1751,1629709044973,0.1904257535934448,0.0379920229315757,-0.0419182144105434,0.1576654762029647
1752,1629709045051,0.2036471664905548,0.0372532308101654,-0.0569633729755878,0.1692015081644058
1753,1629709045161,0.2197528630495071,0.0308275409042835,-0.0601441301405429,0.183327630162239
1754,1629709045239,0.2387135624885559,0.0263948552310466,-0.057517621666193,0.1900466382503509
1755,1629709045332,0.2597628831863403,0.0337996408343315,-0.0540968850255012,0.1840659081935882
1756,1629709045457,0.2821189761161804,0.0562360174953937,-0.0502004586160182,0.1703139692544937
1757,1629709045567,0.3053328096866607,0.0870698094367981,-0.0456510037183761,0.1591467559337616
1758,1629709045676,0.3279367983341217,0.1169352084398269,-0.0420195832848548,0.1570045202970504
1759,1629709045723,0.3477560579776764,0.1395076215267181,-0.039416454732418,0.1621432155370712
1760,1629709045866,0.3642424941062927,0.1521893143653869,-0.036531988531351,0.1684271097183227
1761,1629709045975,0.3755383193492889,0.1550319045782089,-0.0344590581953525,0.1714721322059631
1762,1629709046053,0.3794445097446441,0.1506557464599609,-0.0360897369682788,0.1699449717998504
1763,1629709046178,0.3746485114097595,0.1421604305505752,-0.0414976067841053,0.164734736084938
1764,1629709046287,0.3646794259548187,0.1327210217714309,-0.046658057719469,0.1579647809267044
1765,1629709046365,0.355302631855011,0.1248763129115104,-0.0483702756464481,0.151640236377716
1766,1629709046475,0.3574065566062927,0.1204672306776046,-0.049038365483284,0.1485334187746048
1767,1629709046521,0.3609123229980469,0.1207356452941894,-0.0545670762658119,0.1402076929807663
1768,1629709046709,0.364368587732315,0.1227268576622009,-0.0672516897320747,0.1248615458607673
1769,1629709046771,0.3646396100521087,0.1199928447604179,-0.0832586288452148,0.1041419729590416
1770,1629709046883,0.3570177257061004,0.105450265109539,-0.0970400646328926,0.0814350247383117
1771,1629709047008,0.3378474414348602,0.0765289291739463,-0.1060299575328826,0.0593007765710353
1772,1629709047055,0.307368665933609,0.037207007408142,-0.1115567684173584,0.0411553345620632
1773,1629709047180,0.270458310842514,-0.0048397961072623,-0.116073340177536,0.0296110287308692
1774,1629709047290,0.2361548840999603,-0.0420919060707092,-0.1198684126138687,0.0255653690546751
1775,1629709047415,0.2083357870578766,-0.0689577236771583,-0.1207353323698043,0.0277361422777175
1776,1629709047461,0.184784322977066,-0.0818465501070022,-0.1166969910264015,0.0337507463991642
1778,1629709047680,0.184784322977066,-0.0798556208610534,-0.1099626943469047,0.0337507463991642
1777,1629709047696,0.184784322977066,-0.0666409283876419,-0.1052152141928672,0.0337507463991642
1779,1629709047789,0.184784322977066,-0.0500106029212474,-0.1044860258698463,0.0337507463991642
1780,1629709047892,0.184784322977066,-0.0377593040466308,-0.1070753708481788,0.0337507463991642
1781,1629709048011,0.1890325993299484,-0.0339914858341217,-0.1133217811584472,0.2938937842845917
1782,1629709048104,0.2316706329584121,-0.0379515886306762,-0.1230084002017974,0.3155008256435394
1783,1629709048214,0.2594831883907318,-0.0444716140627861,-0.1331995874643325,0.3298510015010834
1784,1629709048326,0.2628431618213653,-0.0482387617230415,-0.1397664099931717,0.3298510015010834
1785,1629709048436,0.2443146258592605,-0.0462853498756885,-0.1408273130655288,0.3298510015010834
1786,1629709048498,0.2443146258592605,-0.0389678888022899,-0.1377590447664261,0.3298510015010834
1787,1629709048623,0.2443146258592605,-0.0302189625799655,-0.1333177238702774,0.3298510015010834
1788,1629709048670,0.2443146258592605,-0.0240983720868825,-0.1301375180482864,0.3298510015010834
1789,1629709048779,0.2443146258592605,-0.0233004745095968,-0.1314738541841507,0.3298510015010834
1790,1629709048889,0.2443146258592605,-0.028405524790287,-0.1409288346767425,0.3298510015010834
1791,1629709049001,0.2443146258592605,-0.0379182919859886,-0.15983647108078,0.3298510015010834
1792,1629709049126,0.2443146258592605,-0.0493780300021171,-0.1849140971899032,0.3298510015010834
1793,1629709049204,0.2692691087722778,-0.0599863678216934,-0.2087780088186264,0.3398147523403168
1794,1629709049282,0.280434250831604,-0.0672767013311386,-0.2256678491830825,0.3569363355636596
1795,1629709049407,0.2806542515754699,-0.0691736713051796,-0.2352494001388549,0.3723256289958954
1796,1629709049470,0.2726179957389831,-0.0654170885682106,-0.2390723228454589,0.374613881111145
1797,1629709049579,0.2564809322357178,-0.0596202425658702,-0.2385167330503463,0.356114000082016
1798,1629709049720,0.2365753501653671,-0.0572415776550769,-0.2356254011392593,0.3220193982124328
1799,1629709049848,0.2239927500486374,-0.060994267463684,-0.2337488532066345,0.3013707399368286
1800,1629709049910,0.228019505739212,-0.0684981569647789,-0.2359649986028671,0.2913690209388733
1801,1629709050003,0.2166498750448227,-0.0750143006443977,-0.241980105638504,0.286542147397995
1802,1629709050097,0.2097376734018325,-0.078135535120964,-0.2483908385038375,0.2793355286121368
1803,1629709050222,0.2068521976470947,-0.078762948513031,-0.2531878650188446,0.2682120203971863
1804,1629709050347,0.2080254405736923,-0.0775987207889556,-0.2579275667667389,0.2576494216918945
1805,1629709050441,0.2118049263954162,-0.0738108605146408,-0.2643555998802185,0.2517022490501404
1806,1629709050535,0.2145002633333206,-0.0674570575356483,-0.2704787850379944,0.2500998675823211
1807,1629709050644,0.213227093219757,-0.0618036203086376,-0.2732305526733398,0.2496353685855865
1808,1629709050691,0.200506791472435,-0.0608130507171154,-0.2739448547363281,0.2460242062807083
1809,1629709050818,0.1882630586624145,-0.0658001527190208,-0.2759370803833008,0.2308107614517212
1810,1629709050959,0.1762203425168991,-0.0745500549674034,-0.2782914042472839,0.2085837572813034
1811,1629709051084,0.1641045361757278,-0.0825522765517234,-0.2768208384513855,0.1898711323738098
1812,1629709051115,0.1550950855016708,-0.0843128263950347,-0.2700215280056,0.1837440878152847
1813,1629709051271,0.1526129841804504,-0.0765749514102935,-0.2616525292396545,0.187719315290451
1814,1629709051334,0.1564237028360366,-0.0609107427299022,-0.2566980123519897,0.1910363882780075
1815,1629709051412,0.1598702669143676,-0.0434846878051757,-0.2576973438262939,0.186822310090065
1816,1629709051568,0.1580841243267059,-0.0306916274130344,-0.264754444360733,0.1772802323102951
1817,1629709051662,0.1499873846769333,-0.0239412114024162,-0.2756381630897522,0.1680189967155456
1818,1629709051755,0.1396163254976272,-0.0184319969266653,-0.2850696146488189,0.1619758456945419
1819,1629709051881,0.1297481060028076,-0.0077106542885303,-0.288486897945404,0.1562965810298919
1820,1629709051943,0.1218068078160286,0.0087685268372297,-0.286029577255249,0.1477031111717224
1821,1629709051990,0.1172477304935455,0.0245611686259508,-0.2828465402126312,0.1351119428873062
1822,1629709052162,0.118216834962368,0.0323405675590038,-0.2813683748245239,0.1208777502179145
1823,1629709052255,0.1271985918283462,0.0310490261763334,-0.2784417867660522,0.1100483834743499
1824,1629709052349,0.1466287970542907,0.0259794909507036,-0.2721013128757477,0.1078789755702018
1825,1629709052412,0.1781455278396606,0.0235387813299894,-0.2648472189903259,0.1147245392203331
1826,1629709052600,0.2165821492671966,0.025814389809966,-0.2591472864151001,0.1257509589195251
1827,1629709052631,0.25136598944664,0.0297396089881658,-0.2537599802017212,0.1336060613393783
1828,1629709052787,0.2753420174121856,0.0307072829455137,-0.2464952021837234,0.1355603337287902
1829,1629709052899,0.2882535755634308,0.0265464913100004,-0.2385168820619583,0.1337839066982269
1830,1629709052961,0.2960496544837951,0.0187993235886096,-0.2328008711338043,0.1339393258094787
1831,1629709053055,0.3048159480094909,0.0098970057442784,-0.2310905307531356,0.1392420083284378
1832,1629709053149,0.3167569637298584,6.455437687691301e-05,-0.2329095155000686,0.1499006152153015
1833,1629709053227,0.3293561041355133,-0.0138952201232314,-0.2355411946773529,0.1619803756475448
1834,1629709053383,0.3388499021530151,-0.0358295254409313,-0.2343198508024215,0.1710651665925979
1835,1629709053477,0.3434385955333709,-0.0650923773646354,-0.2271693646907806,0.1753278076648712
1836,1629709053586,0.3464392423629761,-0.0943134874105453,-0.2159907072782516,0.1789827346801757
1837,1629709053664,0.3525276780128479,-0.1125654056668281,-0.2051468193531036,0.1873136758804321
1838,1629709053789,0.3618979156017303,-0.1146808564662933,-0.1991317123174667,0.1999745368957519
1839,1629709053820,0.3694594800472259,-0.1063611581921577,-0.2003579288721084,0.2119281440973281
1840,1629709054011,0.3711483776569366,-0.0981833711266517,-0.2088322043418884,0.2198685854673385
1841,1629709054073,0.3684538602828979,-0.0976065546274185,-0.2185401618480682,0.2243364453315735
1842,1629709054182,0.3666649758815765,-0.1061256602406501,-0.2181451767683029,0.2287242859601974
1843,1629709054307,0.3699362576007843,-0.117423802614212,-0.2012591660022735,0.2373059242963791
1844,1629709054417,0.378770112991333,-0.1227653250098228,-0.1722119599580764,0.2531721591949463
1845,1629709054479,0.3901927471160888,-0.1191398203372955,-0.1404149532318115,0.2720400094985962
1846,1629709054651,0.4025451838970184,-0.1094211190938949,-0.1114928722381591,0.2877120077610016
1847,1629709054776,0.4150929749011993,-0.0957354605197906,-0.0879372954368591,0.2977152466773987
1848,1629709054823,0.4272290170192718,-0.0769663602113723,-0.0724854171276092,0.3062694370746612
1849,1629709054875,0.4376788735389709,-0.0533140078186988,-0.0673531591892242,0.3178110718727112
1850,1629709054997,0.4455867707729339,-0.0297013521194458,-0.0694743245840072,0.3311915099620819
1851,1629709055122,0.450082004070282,-0.0115961767733097,-0.0728621631860733,0.339865893125534
1852,1629709055232,0.4499924778938293,-0.0002437218790873,-0.073881983757019,0.3399065434932709
1853,1629709055278,0.4442059099674225,0.0063656829297542,-0.0731168165802955,0.3322044909000397
1854,1629709055435,0.4329974949359894,0.0116727743297815,-0.0722707286477088,0.3200177848339081
1855,1629709055513,0.4165096580982208,0.0176464170217514,-0.0722651705145835,0.3064145147800445
1856,1629709055607,0.3937312960624695,0.023843940347433,-0.0755793303251266,0.293589323759079
1857,1629709055685,0.3644675612449646,0.0276525039225816,-0.0861413776874542,0.2810131907463074
1858,1629709055810,0.3307180106639862,0.0260631274431943,-0.1039609536528587,0.2655626833438873
1859,1629709055939,0.2978387773036957,0.0191341005265712,-0.1224597319960594,0.2437133491039276
1860,1629709056033,0.2723550498485565,0.0111489221453666,-0.1316534727811813,0.2174057215452194
1861,1629709056095,0.2556536495685577,0.0068280748091638,-0.1274942308664322,0.1926202625036239
1862,1629709056220,0.2453571110963821,0.0061038467101752,-0.1159444376826286,0.1731489896774292
1863,1629709056283,0.2379526942968368,0.0043069231323897,-0.1067096665501594,0.156059056520462
1864,1629709056455,0.2314801663160324,-0.0007381461909972,-0.1046764850616455,0.1378657072782516
1865,1629709056517,0.2248001992702484,-0.0035795667208731,-0.1090886443853378,0.1195801571011543
1866,1629709056611,0.2166591584682464,0.0027106886263936,-0.1142056882381439,0.1066495403647422
1867,1629709056705,0.2108393311500549,0.0183692127466201,-0.1151371598243713,0.1019320040941238
1868,1629709056798,0.2155588120222091,0.0374800078570842,-0.1113707721233367,0.1092463582754135
1869,1629709056963,0.2337375581264495,0.0523369498550891,-0.1045582070946693,0.1327205002307891
1870,1629709057027,0.2582080066204071,0.0580520182847976,-0.0948315188288688,0.1697248071432113
1871,1629709057168,0.2812102138996124,0.0549158118665218,-0.0798255205154419,0.2131731212139129
1872,1629709057261,0.3043305873870849,0.0490488708019256,-0.0590815246105194,0.2599835693836212
1873,1629709057371,0.3361923694610595,0.0475367233157157,-0.0370857492089271,0.3112609982490539
1874,1629709057402,0.3788610994815826,0.0528113469481468,-0.0207552146166563,0.3654603958129883
1875,1629709057543,0.4221234023571014,0.0604954399168491,-0.0164662078022956,0.4143308699131012
1876,1629709057636,0.4558755457401275,0.0657124072313308,-0.0265494529157876,0.4528206586837768
1877,1629709057746,0.4800406992435455,0.0671417340636253,-0.045911468565464,0.4854944050312042
1878,1629709057855,0.5020695328712463,0.0666377395391464,-0.0627170130610466,0.5190948247909546
1879,1629709057949,0.529465913772583,0.0655784904956817,-0.0667300224304199,0.5549882054328918
1880,1629709058029,0.5616073608398438,0.0623702853918075,-0.0588233172893524,0.5883240103721619
1881,1629709058139,0.5913735032081604,0.0538797080516815,-0.0492100790143013,0.6139302849769592
1882,1629709058264,0.6113966107368469,0.0379007942974567,-0.0457236319780349,0.6305027604103088
1883,1629709058389,0.6184141635894775,0.0141984159126877,-0.0476124919950962,0.6378496885299683
1884,1629709058436,0.6155007481575012,-0.0140313673764467,-0.0496266521513462,0.6363235712051392
1885,1629709058529,0.6105248332023621,-0.039934154599905,-0.049326553940773,0.6287173628807068
1886,1629709058654,0.610957145690918,-0.056398469954729,-0.0508595779538154,0.6186493635177612
1887,1629709058701,0.620879054069519,-0.061075534671545,-0.0605119504034519,0.6069197654724121
1888,1629709058892,0.6427754163742065,-0.0579719096422195,-0.080843336880207,0.5907303094863892
1889,1629709058971,0.6775149703025818,-0.0533222556114196,-0.1086378768086433,0.5677861571311951
1890,1629709059049,0.7223626971244812,-0.0490519031882286,-0.1369062811136245,0.5411378145217896
1891,1629709059189,0.7675116062164307,-0.0450453199446201,-0.1589066237211227,0.5153769850730896
1892,1629709059267,0.8005174994468689,-0.0398931540548801,-0.1715277284383773,0.4892318248748779
1893,1629709059408,0.8151751160621643,-0.0322134494781494,-0.1754361689090728,0.4576877057552337
1894,1629709059533,0.8133568167686462,-0.0214655566960573,-0.171811506152153,0.4184546172618866
1895,1629709059580,0.8043460249900818,-0.0095812939107418,-0.1602017134428024,0.3784374892711639
1896,1629709059658,0.79899662733078,-0.0003496306308079,-0.1424360126256942,0.3510236740112304
1897,1629709059752,0.804033100605011,0.0034429319202899,-0.1239373087882995,0.3453033566474914
1898,1629709059832,0.8201166391372681,0.0027671945281326,-0.1117272078990936,0.3605590164661407
1899,1629709059989,0.8427814841270447,0.0019016849109902,-0.1103284880518913,0.3858824670314789
1900,1629709060098,0.8661447763442993,0.004292351193726,-0.1186123043298721,0.4068098664283752
1901,1629709060192,0.885629415512085,0.0094960201531648,-0.1296482384204864,0.4157615303993225
1902,1629709060285,0.8988267183303833,0.0142558198422193,-0.1347787231206894,0.4154336154460907
1903,1629709060410,0.9058169722557068,0.0155856562778353,-0.1300697475671768,0.4128904342651367
1904,1629709060442,0.907978057861328,0.0114285266026854,-0.1192176938056945,0.4120664298534393
1905,1629709060582,0.906693994998932,-0.0003635028551798,-0.1081760078668594,0.4119923114776611
1906,1629709060692,0.9037720561027528,-0.0203215852379798,-0.0996794924139976,0.4122835397720337
1907,1629709060770,0.9010744094848632,-0.0466226078569889,-0.094541497528553,0.4160247147083282
1908,1629709060991,0.9003129005432129,-0.0751809999346733,-0.0947427004575729,0.4268935024738312
1909,1629709061022,0.901799201965332,-0.1026075407862663,-0.1042633205652237,0.4446396827697754
1910,1629709061085,0.9020835161209106,-0.1273192018270492,-0.1251479089260101,0.4632160365581512
1911,1629709061163,0.8973090648651123,-0.1472026109695434,-0.1527926176786422,0.4741483926773071
1912,1629709061272,0.8846756815910339,-0.1599228382110595,-0.1786801218986511,0.4720153212547302
1913,1629709061366,0.8643063902854919,-0.1639390438795089,-0.1957603394985199,0.4567873477935791
1914,1629709061506,0.8385456800460815,-0.1592036038637161,-0.2023167759180069,0.4351087212562561
1915,1629709061647,0.8106638193130493,-0.1475732028484344,-0.2000537365674972,0.4168458878993988
1916,1629709061678,0.7838101983070374,-0.134571760892868,-0.1930288076400756,0.4068022966384887
1917,1629709061756,0.7583763599395752,-0.1275586485862732,-0.1865913420915603,0.4027381837368011
1918,1629709061916,0.7279012203216553,-0.1286609470844268,-0.185129702091217,0.4015522003173828
1919,1629709061994,0.6827679872512817,-0.1302664875984192,-0.1886622309684753,0.4054592847824096
1920,1629709062103,0.618304431438446,-0.1226874589920044,-0.1929427832365036,0.4213092923164367
1921,1629709062181,0.5401536226272583,-0.1059145033359527,-0.1948695927858352,0.4505934715270996
1922,1629709062322,0.4657417237758636,-0.0893014445900917,-0.1952734142541885,0.4851056635379791
1923,1629709062400,0.4106039106845855,-0.0799946784973144,-0.1957467347383499,0.5124783515930176
1924,1629709062509,0.3771150410175323,-0.0781002938747406,-0.1944391131401062,0.5248330235481262
1925,1629709062634,0.3607825636863708,-0.0802446603775024,-0.1894043087959289,0.5222058296203613
1926,1629709062728,0.35648974776268,-0.083867534995079,-0.1824664920568466,0.5113855600357056
1927,1629709062821,0.362078845500946,-0.0869449824094772,-0.1769564598798751,0.5000267028808594
1928,1629709062915,0.3724642097949981,-0.089495375752449,-0.1742434501647949,0.4919995069503784
1929,1629709063012,0.3826197981834411,-0.0949142128229141,-0.1721613109111786,0.4869281947612762
1930,1629709063137,0.3902554214000702,-0.1068322360515594,-0.169141799211502,0.4837565720081329
1931,1629709063230,0.3952806293964386,-0.1235015615820884,-0.1673658639192581,0.4834499657154083
1932,1629709063355,0.4017771482467651,-0.1381188929080963,-0.1699315458536148,0.4884750545024872
1933,1629709063418,0.4154853224754333,-0.1468976885080337,-0.1760827302932739,0.4994536340236664
1934,1629709063496,0.4388693273067474,-0.1541861295700073,-0.1821172535419464,0.5124673247337341
1935,1629709063637,0.4653166830539703,-0.1654836982488632,-0.1860265880823135,0.519405722618103
1936,1629709063730,0.4849965870380401,-0.178292691707611,-0.1893146187067031,0.5123434662818909
1937,1629709063840,0.4936775267124176,-0.1847437918186187,-0.1929313838481903,0.4888515472412109
1938,1629709063933,0.4958155155181885,-0.1824184954166412,-0.1953566521406173,0.454272985458374
1939,1629709064044,0.4976348876953125,-0.1757976710796356,-0.1952448636293411,0.4203994870185852
1940,1629709064139,0.5009234547615051,-0.1674787998199463,-0.1942249834537506,0.3982162177562713
1941,1629709064201,0.5039675831794739,-0.1552261114120483,-0.1959162950515747,0.3894532322883606
1942,1629709064341,0.5054813623428345,-0.1394529491662979,-0.2022834867238998,0.3895531296730041
1943,1629709064451,0.50545334815979,-0.1257483214139938,-0.2123332768678665,0.3938992023468017
1944,1629709064560,0.505386233329773,-0.1191876381635665,-0.2239861637353897,0.4015161395072937
1945,1629709064654,0.5081164240837097,-0.1188070848584175,-0.2345158904790878,0.4116170704364776
1946,1629709064716,0.5161929726600647,-0.1187922433018684,-0.2403861731290817,0.4208484888076782
1947,1629709064857,0.5252473950386047,-0.1144541576504707,-0.24014712870121,0.4234547615051269
1948,1629709064966,0.5264790654182434,-0.1057333797216415,-0.2366925776004791,0.4145551323890686
1949,1629709065080,0.5131518840789795,-0.094863623380661,-0.2334889024496078,0.3934376835823059
1950,1629709065142,0.4884440302848816,-0.083187349140644,-0.231098935008049,0.3648202419281006
1951,1629709065252,0.4618975520133972,-0.0713052451610565,-0.2262392491102218,0.3374119699001312
1952,1629709065330,0.4407524764537811,-0.0590431354939937,-0.2163338363170623,0.3173899352550506
1953,1629709065408,0.4242464601993561,-0.0466251634061336,-0.2042423337697982,0.3035681247711181
1954,1629709065564,0.4069163501262665,-0.0343452431261539,-0.1960221976041793,0.2896284162998199
1955,1629709065689,0.3868238627910614,-0.0225569643080234,-0.1935073584318161,0.2719253897666931
1956,1629709065752,0.3666535913944244,-0.0129241850227117,-0.1916229873895645,0.2529596388339996
1957,1629709065825,0.3493016958236694,-0.00632054079324,-0.1835794001817703,0.2369906604290008
1958,1629709065990,0.3363689482212066,-0.001611957559362,-0.1686972975730896,0.2259023338556289
1959,1629709066068,0.3269376456737518,0.0035733000840991,-0.1532029509544372,0.2167474180459976
1960,1629709066209,0.3171327710151672,0.0098708299919962,-0.143936276435852,0.2053966671228408
1961,1629709066271,0.3038906455039978,0.0150114903226494,-0.1430262774229049,0.1900216937065124
1962,1629709066396,0.2915157675743103,0.0166738759726285,-0.1481808722019195,0.1728141158819198
1963,1629709066505,0.2894048988819122,0.0154608441516757,-0.1550565958023071,0.157951146364212
1964,1629709066568,0.3032028079032898,0.0136216599494218,-0.1614226549863815,0.148086592555046
1965,1629709066615,0.3269601464271545,0.0125385057181119,-0.1684216260910034,0.1406620889902115
1966,1629709066771,0.3520021140575409,0.0128596872091293,-0.178443357348442,0.1342215240001678
1967,1629709066883,0.3741025030612945,0.0151503589004278,-0.1929631531238556,0.1296824067831039
1968,1629709066992,0.3919647336006164,0.0196432620286941,-0.2107595801353454,0.1311283558607101
1969,1629709067101,0.4062402248382568,0.0251059215515851,-0.2273958325386047,0.1408503502607345
1970,1629709067195,0.4180538654327392,0.0286561269313097,-0.2387649416923523,0.1575327515602111
1971,1629709067273,0.4270053505897522,0.0282447300851345,-0.2460479587316513,0.1766577810049057
1972,1629709067398,0.4330237507820129,0.0239110495895147,-0.2560515999794006,0.1909058392047882
1973,1629709067523,0.4361857771873474,0.0168978702276945,-0.2720836699008941,0.1944520026445388
1974,1629709067586,0.4518821835517883,0.0080845970660448,-0.2884281873703003,0.1854768693447113
1975,1629709067664,0.466407835483551,-0.0019250897457823,-0.2947630286216736,0.1689804047346115
1976,1629709067773,0.4758802354335785,-0.0119749652221798,-0.2887840270996094,0.1533641964197158
1977,1629709067867,0.4764902591705322,-0.0199866946786642,-0.2784515917301178,0.1439014673233032
1978,1629709068011,0.4668334126472473,-0.0250886362046003,-0.2710901796817779,0.1356943994760513
1979,1629709068104,0.447829008102417,-0.0287115164101123,-0.2668488025665283,0.1307557225227356
1980,1629709068229,0.4223867952823639,-0.0330178365111351,-0.2623870372772217,0.1298437714576721
1981,1629709068323,0.4343973398208618,-0.0398731082677841,-0.2580530941486358,0.1491154134273529
1982,1629709068416,0.4507619142532348,-0.0498339608311653,-0.2568416595458984,0.1658992618322372
1983,1629709068447,0.4627977311611175,-0.0594974867999553,-0.258337914943695,0.1797278076410293
1984,1629709068651,0.467991828918457,-0.0645099803805351,-0.2584213018417358,0.1939498633146286
1985,1629709068729,0.4674432277679443,-0.0651727318763732,-0.2558359205722809,0.208818107843399
1987,1629709068838,0.4686015546321869,-0.0637723952531814,-0.2526435256004333,0.223785251379013
1986,1629709068869,0.4819207191467285,-0.0597739219665527,-0.2490915656089782,0.240086555480957
1988,1629709068979,0.5097358226776123,-0.04927559196949,-0.2444491982460022,0.2575371861457824
1989,1629709069104,0.5127960443496704,-0.0317564196884632,-0.2402523607015609,0.2738985419273376
1990,1629709069244,0.5155662298202515,-0.0115037849172949,-0.2393169552087783,0.2870017290115356
1991,1629709069369,0.5201568007469177,0.0073288138955831,-0.2388323098421096,0.30017751455307
1992,1629709069416,0.5299946665763855,0.022630451247096,-0.2317812293767929,0.3187472224235534
1993,1629709069510,0.5443137884140015,0.0329431481659412,-0.2173803597688675,0.3346099853515625
1994,1629709069603,0.557655930519104,0.0372835174202919,-0.2012508064508438,0.3481765985488891
1995,1629709069697,0.5644791126251221,0.0368090867996215,-0.1858178228139877,0.3523597419261932
1996,1629709069838,0.556331217288971,0.0353891998529434,-0.1662226170301437,0.34980508685112
1997,1629709069932,0.5411516427993774,0.0362308956682682,-0.1392697244882583,0.3433262705802917
1998,1629709070029,0.5264894962310791,0.038741048425436,-0.1089841872453689,0.3367460668087005
1999,1629709070123,0.5166837573051453,0.0405475087463855,-0.0807779282331466,0.3296419978141784
2000,1629709070217,0.5117555856704712,0.0420514158904552,-0.055771380662918,0.3207967579364776
2001,1629709070326,0.5075689554214478,0.0454011484980583,-0.03405387327075,0.3117966651916504
2002,1629709070419,0.5005436539649963,0.0516341887414455,-0.0169355142861604,0.3082268834114074
2003,1629709070544,0.4922919571399688,0.0601374097168445,-0.0043540960177779,0.3160448372364044
2004,1629709070654,0.488033264875412,0.0698684081435203,0.0060172728262841,0.3347987830638885
2005,1629709070685,0.4878139197826385,0.0778001025319099,0.0153548615053296,0.3547022640705108
2006,1629709070876,0.4846368432044983,0.0793777406215667,0.0202501751482486,0.3623183071613312
2007,1629709070954,0.4710258543491363,0.0724618285894393,0.0176540538668632,0.3520360887050628
2008,1629709071063,0.4455087780952453,0.0600901283323764,0.0103051997721195,0.3288474678993225
2009,1629709071204,0.4144458770751953,0.0478808209300041,0.0032493204344063,0.3053232431411743
2010,1629709071235,0.3877191245555877,0.0394159890711307,-0.0031135068275034,0.2922634482383728
2011,1629709071344,0.3729128837585449,0.0340465232729911,-0.01360026281327,0.290957361459732
2012,1629709071436,0.3703658878803253,0.0294719878584146,-0.030900739133358,0.2964057624340057
2013,1629709071502,0.3738072514533996,0.0217841751873493,-0.0522052459418773,0.3064369857311249
2014,1629709071631,0.3765048682689667,0.0081854294985532,-0.0750444233417511,0.3209619522094726
2015,1629709071726,0.3753867447376251,-0.010986833833158,-0.1001593023538589,0.3378930985927582
2016,1629709071851,0.3711296617984772,-0.0330942347645759,-0.1265557557344436,0.3516529500484466
2017,1629709071995,0.3637508749961853,-0.0572753325104713,-0.149274080991745,0.3559689819812774
2018,1629709072041,0.3516434133052826,-0.0869072377681732,-0.1653828471899032,0.3474863171577453
2019,1629709072165,0.3334980010986328,-0.124832347035408,-0.1769633442163467,0.3284335136413574
2020,1629709072251,0.3111686408519745,-0.1648327261209488,-0.1850092709064483,0.3070046305656433
2021,1629709072400,0.2915163338184356,-0.1938042640686035,-0.18588587641716,0.2947404384613037
2022,1629709072468,0.2807416319847107,-0.204894483089447,-0.1783217489719391,0.2977288365364074
2023,1629709072554,0.2797732949256897,-0.2024949043989181,-0.1686790585517883,0.3114937543869018
2024,1629709072621,0.2828920185565948,-0.1935845464468002,-0.1632040143013,0.3281570374965668
2025,1629709072712,0.2838781476020813,-0.1825471520423889,-0.1622461974620819,0.3438449203968048
2026,1629709072899,0.2790636122226715,-0.1731989979743957,-0.1628041863441467,0.3567800223827362
2027,1629709072995,0.2679698467254638,-0.1701361984014511,-0.1630427986383438,0.3636922538280487
2028,1629709073041,0.2542456090450287,-0.1732636839151382,-0.1633273661136627,0.3611305058002472
2029,1629709073172,0.2446639537811279,-0.1776385009288787,-0.1618225872516632,0.3508397340774536
2030,1629709073280,0.2418853342533111,-0.1777115613222122,-0.1561508476734161,0.3403188288211822
2031,1629709073337,0.2457279562950134,-0.1718817353248596,-0.1470731496810913,0.339983582496643
2032,1629709073465,0.2551839351654053,-0.1602686047554016,-0.1383749395608902,0.3565363883972168
2033,1629709073587,0.2708689272403717,-0.1425660848617553,-0.1314051002264022,0.389623761177063
2034,1629709073719,0.2900037765502929,-0.1202634423971176,-0.1251345723867416,0.4298418462276459
2035,1629709073766,0.3068469166755676,-0.099112369120121,-0.1217141672968864,0.4637531042098999
2036,1629709073856,0.3150274753570556,-0.0850825682282447,-0.1261642426252365,0.4834617674350738
2037,1629709073970,0.3126382231712341,-0.0797965750098228,-0.1404532343149185,0.4886376857757568
2038,1629709074078,0.3005024790763855,-0.0799730122089386,-0.1583303660154342,0.4840736091136932
2039,1629709074170,0.2829540967941284,-0.082362562417984,-0.1695676445960998,0.4758719205856323
2040,1629709074275,0.2642499208450317,-0.0867763012647628,-0.1692184656858444,0.4685318768024444
2041,1629709074383,0.2507773339748382,-0.0945898666977882,-0.1605380624532699,0.4650247097015381
2042,1629709074520,0.2448696345090866,-0.1056210920214653,-0.1499624848365783,0.4653657674789428
2043,1629709074562,0.2443612068891525,-0.116731658577919,-0.1419376283884048,0.4674756824970245
2044,1629709074702,0.2447053045034408,-0.123641088604927,-0.1400141417980194,0.4671604037284851
2045,1629709074849,0.2460224479436874,-0.1262208074331283,-0.1465218514204025,0.4608265161514282
2046,1629709074891,0.2511105537414551,-0.1283232122659683,-0.1607676595449447,0.4455463886260986
2047,1629709074981,0.2587065994739532,-0.1351390928030014,-0.1780585646629333,0.4185689091682434
2048,1629709075089,0.2597677707672119,-0.1464885175228119,-0.193208247423172,0.3779917061328888
2049,1629709075147,0.246594026684761,-0.1532085090875625,-0.2054437547922134,0.3258523941040039
2050,1629709075389,0.2217530161142349,-0.1425416469573974,-0.2171933054924011,0.2724711894989013
2051,1629709075429,0.1960104405879974,-0.1126955896615982,-0.229478433728218,0.230265811085701
2052,1629709075474,0.1804898530244827,-0.0767068788409233,-0.2400248795747757,0.2045473307371139
2053,1629709075644,0.1792285740375518,-0.0506059899926185,-0.2469298392534256,0.193737119436264
2054,1629709075690,0.1882767081260681,-0.0400843136012554,-0.2520226538181305,0.1931848675012588
2055,1629709075796,0.203443557024002,-0.0381665527820587,-0.2582820355892181,0.1987442225217819
2056,1629709075891,0.2198880761861801,-0.0324801057577133,-0.2656760811805725,0.2074548155069351
2057,1629709076015,0.2403470426797866,-0.0165008567273616,-0.2699090242385864,0.2273103147745132
2058,1629709076095,0.2688459157943725,0.0069056213833391,-0.2662115395069122,0.2670188844203949
2059,1629709076213,0.3027878105640411,0.0312008708715438,-0.2532616555690765,0.3229722678661346
2060,1629709076282,0.3313739001750946,0.0540021695196628,-0.2340600788593292,0.3805367350578308
2061,1629709076379,0.3449459075927734,0.0761192664504051,-0.2141539901494979,0.427861750125885
2062,1629709076536,0.3434286415576935,0.0969182476401329,-0.1986250728368759,0.4608482420444488
2063,1629709076597,0.3361147940158844,0.1122078821063041,-0.190840870141983,0.479595810174942
2064,1629709076726,0.3344144821166992,0.1169577166438102,-0.1904243528842926,0.4870806336402893
2065,1629709076799,0.3414615392684936,0.1093686893582344,-0.1934620440006256,0.4878460466861725
2066,1629709076898,0.3532440364360809,0.093146301805973,-0.19285649061203,0.4870390892028808
2067,1629709077007,0.3619553744792938,0.0773130655288696,-0.1849240660667419,0.4865723848342895
2068,1629709077142,0.3646132946014404,0.070745438337326,-0.1731476038694381,0.4837916791439056
2069,1629709077219,0.3640016615390777,0.0762383043766021,-0.1643046587705612,0.4753515720367431
2070,1629709077354,0.3635272681713104,0.0885342806577682,-0.160840556025505,0.4610618650913238
2071,1629709077398,0.3634800314903259,0.1000465899705886,-0.1607001423835754,0.4447233378887176
2072,1629709077523,0.358489066362381,0.1068146973848342,-0.1618191748857498,0.4276323318481445
2073,1629709077610,0.3428811728954315,0.1093607097864151,-0.1649294644594192,0.4062535762786865
2074,1629709077728,0.3189611732959747,0.1105980426073074,-0.1717583686113357,0.3764685690402984
2075,1629709077830,0.2972988486289978,0.1122312322258949,-0.1816763132810592,0.3380199074745178
2076,1629709077933,0.2871577739715576,0.1131479516625404,-0.1919667720794677,0.2953717708587646
2077,1629709078014,0.2871041893959045,0.1129541397094726,-0.1984337866306305,0.2569000720977783
2078,1629709078111,0.2881979346275329,0.1144236326217651,-0.1991015523672104,0.2314969301223755
2079,1629709078201,0.2836114168167114,0.1201841905713081,-0.1965164840221405,0.2240428626537323
2080,1629709078332,0.2732624113559723,0.1285386830568313,-0.1956627666950225,0.2327738404273986
2081,1629709078462,0.260212242603302,0.1353794783353805,-0.2003026902675628,0.2491854131221771
2082,1629709078602,0.2504705190658569,0.138370543718338,-0.2096942812204361,0.264786034822464
2083,1629709078616,0.2467171996831894,0.1380576640367508,-0.2206534892320633,0.2753700017929077
2084,1629709078729,0.24566251039505,0.1342582553625106,-0.230898380279541,0.2811703979969024
2085,1629709078829,0.2414080053567886,0.1251058578491211,-0.2413348406553268,0.2832189798355102
2086,1629709078928,0.2326447814702987,0.1100538596510887,-0.2520211935043335,0.2809247076511383
2087,1629709079072,0.2240930944681167,0.0912541821599006,-0.2619611620903015,0.2741382420063019
2088,1629709079158,0.2208640277385711,0.0706588253378868,-0.2707371413707733,0.2651513516902923
2089,1629709079256,0.2194862365722656,0.0476661510765552,-0.2788417637348175,0.2569780945777893
2090,1629709079340,0.2125581949949264,0.0203066412359476,-0.2851908504962921,0.2505111694335937
2091,1629709079432,0.2010096311569214,-0.0102316029369831,-0.2863783538341522,0.2443348169326782
2092,1629709079570,0.1950303465127945,-0.039204403758049,-0.2824412286281585,0.2382324934005737
2093,1629709079665,0.2043157070875167,-0.0635213628411293,-0.2781132757663727,0.2320832461118698
2094,1629709079775,0.2273141741752624,-0.0843987837433815,-0.2767830789089203,0.225326806306839
2095,1629709079861,0.2575075328350067,-0.1041898354887962,-0.2766072452068329,0.2165416479110717
2096,1629709079964,0.2920623123645782,-0.1242223680019378,-0.2735763490200043,0.209443062543869
2097,1629709080022,0.3295400142669678,-0.1454759836196899,-0.2645474970340729,0.2112390398979187
2098,1629709080170,0.3668990433216095,-0.1684013456106186,-0.249921515583992,0.2251510769128799
2099,1629709080328,0.4004504680633545,-0.190012127161026,-0.2322308868169784,0.2455425560474395
2100,1629709080402,0.4290250241756439,-0.2036982178688049,-0.2147456109523773,0.2645993530750274
2101,1629709080477,0.4523236751556396,-0.2055090367794037,-0.1997168362140655,0.2773025631904602
2102,1629709080584,0.4723643362522125,-0.197547972202301,-0.1861716508865356,0.2835967540740967
2103,1629709080688,0.4951751828193664,-0.1843567788600921,-0.1723934859037399,0.2929624319076538
2104,1629709080823,0.5256341099739075,-0.1674565076828003,-0.1566046476364135,0.3290352821350097
2105,1629709080877,0.5629883408546448,-0.146481305360794,-0.1389829963445663,0.4051056802272796
2106,1629709080987,0.5979130268096924,-0.1241341456770896,-0.1223153993487358,0.4993797540664673
2107,1629709081100,0.6220918893814087,-0.1072976514697074,-0.1107182130217552,0.5802409648895264
2108,1629709081163,0.6329072117805481,-0.1010922938585281,-0.1063726022839546,0.6338643431663513
2109,1629709081253,0.6335495710372925,-0.1047647669911384,-0.1070407629013061,0.6627317070960999
2110,1629709081397,0.6282504200935364,-0.1130407825112342,-0.107625313103199,0.6762513518333435
2111,1629709081505,0.6196182370185852,-0.1178030669689178,-0.1062606126070022,0.681135356426239
2112,1629709081584,0.6081488728523254,-0.1119629889726638,-0.1065060719847679,0.6802109479904175
2113,1629709081686,0.593826413154602,-0.0945180058479309,-0.1120033040642738,0.6757109761238098
2114,1629709081805,0.5771437883377075,-0.0720340088009834,-0.1222232580184936,0.6695693135261536
2115,1629709081913,0.5597066879272461,-0.0526910424232482,-0.1332640349864959,0.6641355752944946
2116,1629709082021,0.5440064668655396,-0.040824931114912,-0.1433683037757873,0.6616407036781311
2117,1629709082107,0.5290133953094482,-0.0359638035297393,-0.1553043574094772,0.6617470383644104
2118,1629709082212,0.5080592036247253,-0.0364832393825054,-0.1713795512914657,0.6585283279418945
2119,1629709082281,0.4737289249897003,-0.0425756052136421,-0.1927619874477386,0.6389609575271606
2120,1629709082372,0.4236496090888977,-0.053739134222269,-0.2192410379648208,0.5897817611694336
2121,1629709082513,0.3660800755023956,-0.066077634692192,-0.2490895241498947,0.507605254650116
2122,1629709082631,0.3136551678180694,-0.0723631754517555,-0.2782787978649139,0.4046171903610229
2123,1629709082705,0.2756284177303314,-0.0677649602293968,-0.3002118170261383,0.3058532476425171
2124,1629709082812,0.2529471814632416,-0.0536098927259445,-0.3108561635017395,0.2340356260538101
2125,1629709082911,0.2427389323711395,-0.0354273431003093,-0.3130865693092346,0.1908175945281982
2126,1629709083008,0.2396475225687027,-0.0197545792907476,-0.3125022947788238,0.1656052768230438
2127,1629709083089,0.2361914664506912,-0.0117730563506484,-0.3142141699790954,0.1498057693243026
2128,1629709083193,0.228498950600624,-0.0117911398410797,-0.3199362754821777,0.1392444670200348
2129,1629709083350,0.2186818271875381,-0.0157703012228012,-0.3272154927253723,0.1362752765417099
2130,1629709083416,0.2111972421407699,-0.0202934313565492,-0.3325501680374145,0.1402925997972488
2131,1629709083507,0.2059706747531891,-0.0260002203285694,-0.3345600664615631,0.1430733650922775
2132,1629709083615,0.2005205005407333,-0.0356590263545513,-0.3331023156642914,0.1370264738798141
2133,1629709083749,0.1938406676054,-0.0486539900302886,-0.3288021087646484,0.1252983063459396
2134,1629709083845,0.1875400245189666,-0.0609099380671978,-0.3223759829998016,0.1174300611019134
2135,1629709083913,0.1834811419248581,-0.0686459690332412,-0.3167259991168976,0.1180955693125724
2136,1629709084062,0.1840878576040268,-0.0697361454367637,-0.3152401745319366,0.1245122700929641
2137,1629709084175,0.1910544782876968,-0.0643844306468963,-0.3157646059989929,0.133703276515007
2138,1629709084228,0.203114777803421,-0.0555138885974884,-0.3132628798484802,0.1498712301254272
2139,1629709084323,0.2143677920103073,-0.0477023273706436,-0.3083199262619018,0.1740237176418304
2140,1629709084437,0.2191963046789169,-0.0434421077370643,-0.3072832822799682,0.2020851373672485
2141,1629709084545,0.2170676290988922,-0.0405501015484333,-0.3142938017845154,0.2284958660602569
2142,1629709084620,0.2137009054422378,-0.0360364764928817,-0.3249740898609161,0.2504474520683288
2143,1629709084715,0.2124146372079849,-0.0317311845719814,-0.330902487039566,0.2660399973392486
2144,1629709084816,0.2101846933364868,-0.0318966135382652,-0.3283995389938354,0.2733762264251709
2145,1629709084917,0.2047498375177383,-0.0360490344464778,-0.3193067014217376,0.2742474973201751
2146,1629709085038,0.1996702253818512,-0.0386423245072364,-0.3067376613616943,0.2757493555545807
2147,1629709085169,0.2008357793092727,-0.0345332212746143,-0.2942656576633453,0.2844078242778778
2148,1629709085258,0.2071747332811355,-0.024863788858056,-0.2843546569347381,0.2994817793369293
2149,1629709085352,0.2137096971273422,-0.0133732873946428,-0.2759325504302978,0.3172783851623535
2150,1629709085459,0.2166098058223724,-0.0027977642603218,-0.2647302746772766,0.3375930488109588
2151,1629709085529,0.2152450531721115,0.0044533596374094,-0.2485670298337936,0.3607249557971954
2152,1629709085705,0.209181323647499,0.0055354894138872,-0.2332239598035812,0.3828150331974029
2153,1629709085784,0.198971539735794,-0.0003544646315276,-0.2253694087266922,0.3991195857524872
2154,1629709085885,0.1897778660058975,-0.0096046272665262,-0.2241203486919403,0.4093005359172821
2155,1629709085915,0.1895318329334259,-0.0177559889853,-0.2219269126653671,0.4173716604709625
2156,1629709086032,0.2008010894060135,-0.0248764958232641,-0.2145081311464309,0.4290453791618347
2157,1629709086135,0.2177023738622665,-0.0344000495970249,-0.205477237701416,0.4468319714069366
2158,1629709086266,0.2337463945150375,-0.0461730509996414,-0.2012700587511062,0.4684107303619385
2159,1629709086366,0.2488974928855896,-0.0550437606871128,-0.2038386017084121,0.488383412361145
2160,1629709086471,0.2635426819324493,-0.0558278486132621,-0.2103033512830734,0.501193642616272
2161,1629709086612,0.2748986184597015,-0.0468317829072475,-0.2165658622980117,0.5041564106941223
2162,1629709086664,0.2768875062465668,-0.0298098735511302,-0.220368891954422,0.4981655776500702
2163,1629709086741,0.2700495719909668,-0.0074132964946329,-0.2224487066268921,0.4859554171562195
2164,1629709086932,0.2619941234588623,0.013939275406301,-0.2257078140974044,0.4705286026000976
2165,1629709086984,0.2617298662662506,0.0265883151441812,-0.2323726713657379,0.4537025988101959
2166,1629709087097,0.2713815569877624,0.0277949031442403,-0.2398780137300491,0.437191754579544
2167,1629709087168,0.2863952815532684,0.0226614717394113,-0.2405021041631698,0.4227169156074524
2168,1629709087252,0.3003689050674438,0.0194434877485036,-0.2313115894794464,0.4094589650630951
2169,1629709087368,0.308455228805542,0.0226829685270786,-0.218482568860054,0.3947915732860565
2170,1629709087508,0.3088646829128265,0.0318458415567874,-0.2108873575925827,0.3759898543357849
2171,1629709087590,0.3022799491882324,0.0446458607912063,-0.2105150669813156,0.3497376441955566
2172,1629709087693,0.2906249761581421,0.0591175034642219,-0.2136208415031433,0.3142555356025696
2173,1629709087821,0.2776430547237396,0.0728186517953872,-0.217013344168663,0.2741833925247192
2174,1629709087860,0.2663046717643738,0.0831049084663391,-0.2206746935844421,0.244593396782875
2175,1629709087984,0.2583074569702148,0.0878698751330375,-0.225921019911766,0.2407408952713012
2177,1629709088172,0.2542705535888672,0.0854419842362403,-0.231746032834053,0.2610650360584259
2176,1629709088218,0.258737564086914,0.0749480798840522,-0.2344397902488708,0.2899822294712066
2178,1629709088312,0.2736105620861053,0.0583089739084243,-0.2306987643241882,0.3143422603607178
2179,1629709088390,0.2919363975524902,0.0419488251209259,-0.2220693975687027,0.3290075957775116
2180,1629709088453,0.3034498393535614,0.0343474224209785,-0.2150524407625198,0.3337711095809936
2181,1629709088593,0.303874671459198,0.0373592898249626,-0.2167331129312515,0.3292868435382843
2182,1629709088703,0.2993052005767822,0.042971521615982,-0.2299470752477646,0.3194304406642914
2183,1629709088781,0.2975684404373169,0.0414190217852592,-0.2504956722259521,0.3093902170658111
2184,1629709088940,0.3013427555561065,0.0285266209393739,-0.268665999174118,0.3039562702178955
2185,1629709089017,0.3062158524990082,0.0062442570924758,-0.2759774029254913,0.3026803433895111
2186,1629709089064,0.3097342252731323,-0.0210720840841531,-0.271126389503479,0.3022159039974212
2187,1629709089174,0.3163171112537384,-0.0483170412480831,-0.2578110992908478,0.3016127347946167
2188,1629709089346,0.328449010848999,-0.0709736570715904,-0.2371598482131958,0.2995462715625763
2189,1629709089439,0.3421440422534942,-0.0880861803889274,-0.2092963904142379,0.2992291748523712
2190,1629709089486,0.3504312336444855,-0.1020416989922523,-0.1789890229701995,0.2858982980251312
2191,1629709089627,0.3506823778152466,-0.1147703975439071,-0.1528768241405487,0.2578278183937073
2192,1629709089721,0.344076931476593,-0.1238437965512275,-0.1348662674427032,0.2197411507368087
2193,1629709089845,0.3332135379314422,-0.1265972554683685,-0.1246154382824897,0.1822081357240677
2194,1629709089958,0.3230297565460205,-0.1253691762685775,-0.1183078363537788,0.1454581320285797
2195,1629709090051,0.3190986514091491,-0.1281053572893142,-0.1115176305174827,0.1336568295955658
2196,1629709090161,0.3235011398792267,-0.139757752418518,-0.1014861166477203,0.137223020195961
2197,1629709090239,0.3316259980201721,-0.1554183959960937,-0.0886986255645752,0.1420993208885193
2198,1629709090332,0.339116632938385,-0.1619893610477447,-0.0746080204844474,0.1417323499917984
2199,1629709090410,0.3455312252044678,-0.1511733531951904,-0.0600861981511116,0.1351058781147003
2200,1629709090520,0.3537864089012146,-0.1267500817775726,-0.0464883372187614,0.1383934915065765
2201,1629709090645,0.3653260171413421,-0.0987735837697982,-0.0358594879508018,0.1588025689125061
2202,1629709090738,0.3784450590610504,-0.0750980600714683,-0.0263031180948019,0.193228930234909
2203,1629709090832,0.3907548487186432,-0.0569656044244766,-0.0100700268521904,0.2316515892744064
2204,1629709090927,0.4017274975776672,-0.0391229912638664,0.0178397335112094,0.2566426396369934
2205,1629709091038,0.4120860993862152,-0.017816612496972,0.05221563950181,0.2720640897750854
2206,1629709091210,0.4212924540042877,0.0030872237402945,0.0810087472200393,0.2777416110038757
2207,1629709091257,0.4282102882862091,0.0160311069339513,0.0963979735970497,0.2772738039493561
2208,1629709091398,0.4325595498085022,0.0170913711190223,0.0982961654663086,0.2765300869941711
2209,1629709091460,0.4350488483905792,0.0100210066884756,0.0916583836078643,0.2934476733207702
2210,1629709091538,0.4335281252861023,0.0019256795058026,0.0812169760465622,0.3098552227020263
2211,1629709091647,0.4246962964534759,-0.002427440136671,0.0692454874515533,0.3222894370555877
2212,1629709091741,0.4076581299304962,-0.0027394550852477,0.0576010830700397,0.3282391428947449
2213,1629709091882,0.3849092423915863,-0.0019652391783893,0.0468676947057247,0.3287925124168396
2214,1629709091960,0.3609116971492767,-0.002561981556937,0.0363624095916748,0.3181267976760864
2216,1629709092166,0.3382714986801147,-0.005614501889795,0.0258357152342796,0.3185584843158722
2215,1629709092182,0.3181197643280029,-0.0101942066103219,0.0156600773334503,0.3241994082927704
2217,1629709092244,0.301690936088562,-0.013986462727189,0.003896954935044,0.3350912630558014
2218,1629709092354,0.293035626411438,-0.0166310463100671,-0.0172629915177822,0.3481552004814148
2219,1629709092510,0.2949545383453369,-0.0223010927438735,-0.0557794272899627,0.3594657480716705
2220,1629709092588,0.3038472533226013,-0.03560296818614,-0.1111108139157295,0.3668936789035797
2221,1629709092635,0.3142158985137939,-0.0538423024117946,-0.1705430448055267,0.3714300394058227
2222,1629709092775,0.3234259188175201,-0.0670348778367042,-0.2150942683219909,0.3757040798664093
2223,1629709092853,0.335026741027832,-0.0666376575827598,-0.2329361140727996,0.3859573602676391
2224,1629709093010,0.3498536348342895,-0.0566306449472904,-0.2287595421075821,0.4062768816947937
2225,1629709093090,0.3659323751926422,-0.0473181828856468,-0.2149375975131988,0.4331994950771332
2226,1629709093184,0.3792880475521087,-0.0452571213245391,-0.2008144259452819,0.4581114947795868
2227,1629709093246,0.3886293172836303,-0.0507966727018356,-0.1907956451177597,0.4752481281757355
2228,1629709093387,0.3965890407562256,-0.0613671131432056,-0.1831367760896682,0.4856807589530945
2229,1629709093465,0.4080813527107239,-0.0749392583966255,-0.1749224513769149,0.4933888912200928
2230,1629709093574,0.4289445281028747,-0.0906704664230346,-0.1636976301670074,0.5000998377799988
2231,1629709093715,0.4611592590808868,-0.1079572364687919,-0.1478365212678909,0.5041550397872925
2232,1629709093809,0.5055918097496033,-0.1255992501974105,-0.1289428174495697,0.5045058727264404
2233,1629709093902,0.5576062798500061,-0.1402931660413742,-0.1115011423826217,0.5021816492080688
2234,1629709093965,0.6081477999687195,-0.1440572887659073,-0.0994073823094368,0.4991386830806732
2235,1629709094090,0.6477798223495483,-0.1302936375141143,-0.0917623937129974,0.4962914288043976
2236,1629709094215,0.6722238659858704,-0.1047254502773284,-0.0846479907631874,0.4930132031440735
2237,1629709094308,0.6836329102516174,-0.0820965096354484,-0.0778985992074012,0.4875496625900268
2238,1629709094387,0.6863453388214111,-0.0741273313760757,-0.0755891576409339,0.4754612147808075
2239,1629709094511,0.6843122839927673,-0.0803587734699249,-0.0810847207903862,0.4529518485069275
2240,1629709094605,0.6800472140312195,-0.0918024256825447,-0.0926264151930809,0.4217421114444732
2241,1629709094715,0.6767416000366211,-0.0987861156463623,-0.1057743951678276,0.3906534314155578
2242,1629709094855,0.6754405498504639,-0.096722699701786,-0.1178223863244056,0.3678516447544098
2243,1629709094918,0.6740379333496094,-0.0883547142148017,-0.1297274827957153,0.3539446592330932
2244,1629709095027,0.6688010096549988,-0.0796421319246292,-0.1438622772693634,0.3462144136428833
2245,1629709095121,0.6553625464439392,-0.0733078196644783,-0.1628570109605789,0.3484707772731781
2246,1629709095214,0.62949138879776,-0.0685258731245994,-0.1872370243072509,0.368798166513443
2247,1629709095293,0.5846057534217834,-0.0642232373356819,-0.2131204456090927,0.4060720205307007
2248,1629709095418,0.5150702595710754,-0.0627814084291458,-0.2340905219316482,0.4484252035617828
2249,1629709095527,0.4208606779575348,-0.0702919140458107,-0.2465600371360778,0.4845063388347626
2250,1629709095621,0.3151557743549347,-0.0896525904536247,-0.254793107509613,0.5116267800331116
2251,1629709095746,0.2221956104040146,-0.1150502488017082,-0.265406847000122,0.5326216816902161
2252,1629709095839,0.1580355316400528,-0.1336617618799209,-0.2789994776248932,0.5500646233558655
2253,1629709095902,0.1144948750734329,-0.1351366341114044,-0.2903512716293335,0.5634943246841431
2254,1629709096027,0.0775338485836982,-0.1218305379152298,-0.2936004102230072,0.5724197626113892
2255,1629709096167,0.0453614182770252,-0.1050737649202346,-0.2880648970603943,0.577321469783783
2256,1629709096277,0.0193302650004625,-0.0937926396727562,-0.2759355008602142,0.5789389610290527
2257,1629709096339,0.0013919457560405,-0.0902006775140762,-0.2589347958564758,0.5790374279022217
2258,1629709096417,-0.0049070958048105,-0.0913847237825393,-0.2385793924331665,0.5811145305633545
2259,1629709096511,0.0020050380844622,-0.0939447730779647,-0.2165879011154174,0.5874005556106567
2260,1629709096652,0.0176157262176275,-0.0979544222354888,-0.1952589452266693,0.5933033227920532
2261,1629709096730,0.035196341574192,-0.1053996905684471,-0.178833395242691,0.588822603225708
2262,1629709096823,0.0491468161344528,-0.1163517013192176,-0.1714225560426712,0.5667144060134888
2263,1629709096949,0.0580955855548381,-0.1274367123842239,-0.1741662323474884,0.5285206437110901
2264,1629709097044,0.0640103965997695,-0.1333508342504501,-0.184399202466011,0.4834994971752167
2265,1629709097154,0.0703526958823204,-0.1311699897050857,-0.1963801383972168,0.441771924495697
2266,1629709097247,0.083068236708641,-0.1229372769594192,-0.2042428255081176,0.4093096256256103
2267,1629709097357,0.1038200780749321,-0.115470565855503,-0.2055191695690155,0.3878681659698486
2268,1629709097482,0.1304015666246414,-0.1155766993761062,-0.2004855722188949,0.3758062422275543
2269,1629709097528,0.1606450527906417,-0.1248157396912574,-0.1887731850147247,0.3695230484008789
2270,1629709097607,0.1962897181510925,-0.1368043273687362,-0.1684391498565673,0.3699881434440613
2271,1629709097700,0.2357656210660934,-0.1423805356025695,-0.142081007361412,0.382213681936264
2272,1629709097861,0.2736340761184692,-0.1384281069040298,-0.1180767565965652,0.4062637984752655
2273,1629709097970,0.3047551214694977,-0.1284079253673553,-0.1043163314461708,0.4317584931850433
2274,1629709098064,0.3269144296646118,-0.1143211349844932,-0.1018307656049728,0.447082370519638
2275,1629709098204,0.3443386554718017,-0.0929234251379966,-0.1041369140148162,0.4524824321269989
2276,1629709098283,0.3635075986385345,-0.0610122121870517,-0.1020240038633346,0.4595816135406494
2277,1629709098361,0.3881153464317322,-0.0225521624088287,-0.0905702263116836,0.4781442582607269
2278,1629709098454,0.4136308133602142,0.0137212937697768,-0.0707046911120414,0.5038337111473083
2279,1629709098611,0.432236760854721,0.0411752425134182,-0.0475155301392078,0.526422917842865
2280,1629709098689,0.4421074986457824,0.0581287890672683,-0.0268841963261365,0.5412041544914246
2281,1629709098783,0.4488950371742248,0.0672445967793464,-0.0130253573879599,0.5491632223129272
2282,1629709098832,0.4622745811939239,0.0744762867689132,-0.0079490626230835,0.5515726208686829
2283,1629709098942,0.4846847057342529,0.0846441537141799,-0.0112084718421101,0.5491260886192322
2284,1629709099082,0.506960928440094,0.0985413491725921,-0.0212884172797203,0.5426948666572571
2285,1629709099145,0.5176336765289307,0.1128407642245292,-0.0380340442061424,0.5317801833152771
2286,1629709099270,0.5131973624229431,0.1239298954606056,-0.059728167951107,0.5154044032096863
2287,1629709099379,0.5007057189941406,0.1306585073471069,-0.0815141722559928,0.4956767559051513
2288,1629709099473,0.4888812601566314,0.1331551074981689,-0.0983414500951767,0.4785178005695343
2289,1629709099535,0.4811184108257293,0.1302910447120666,-0.1100961863994598,0.4671384692192077
2290,1629709099723,0.4735498130321502,0.1195781677961349,-0.1212928518652916,0.4547034204006195
2291,1629709099772,0.4622245728969574,0.098865158855915,-0.1353170573711395,0.4298824667930603
2292,1629709099897,0.4462251663208008,0.0688962265849113,-0.1518704742193222,0.3880921602249145
2293,1629709099959,0.4296520352363586,0.0340333245694637,-0.1698185056447982,0.3377308845520019
2294,1629709100069,0.4165353178977966,2.7287662305752747e-05,-0.1875713169574737,0.2918571829795837
2295,1629709100147,0.4054936170578003,-0.0293086785823106,-0.2010152488946914,0.2565045356750488
2296,1629709100303,0.3895021080970764,-0.0534774251282215,-0.2060739547014236,0.2302577048540115
2297,1629709100366,0.360221803188324,-0.0758512243628501,-0.2024760097265243,0.2137492001056671
2298,1629709100459,0.3158589601516723,-0.1001129373908042,-0.1958241313695907,0.2102626413106918
2299,1629709100585,0.2661243081092834,-0.1279257237911224,-0.1928302943706512,0.2167952209711074
2300,1629709100647,0.2272394597530365,-0.1580671221017837,-0.1956571638584137,0.2252667397260666
2301,1629709100837,0.2095608711242675,-0.1886504590511322,-0.202543020248413,0.2288928776979446
2302,1629709100930,0.2035674154758453,-0.2194824367761612,-0.2111485749483108,0.2226179093122482
2303,1629709101040,0.1951715648174286,-0.2497299462556839,-0.219361737370491,0.2013638019561767
2304,1629709101087,0.1805903911590576,-0.27515909075737,-0.2269499152898788,0.1638107895851135
2305,1629709101212,0.1668239682912826,-0.2897341847419739,-0.2348203361034393,0.118608109652996
2306,1629709101290,0.1583612710237503,-0.2903712689876556,-0.2458230555057525,0.0802364945411682
2307,1629709101399,0.1522925049066543,-0.279498815536499,-0.2612725794315338,0.0569599941372871
2308,1629709101524,0.1433166563510894,-0.2620347440242767,-0.2785256206989288,0.0455402955412864
2309,1629709101602,0.1328109204769134,-0.2433895170688629,-0.2917552292346954,0.0412901975214481
2310,1629709101743,0.1279482245445251,-0.2274521887302398,-0.297719806432724,0.0446945764124393
2311,1629709101823,0.132144421339035,-0.217502623796463,-0.2972933053970337,0.0560728721320629
2312,1629709101870,0.1408354938030243,-0.2152075171470642,-0.2901205718517303,0.0711237043142318
2313,1629709101995,0.1478432565927505,-0.2183942943811416,-0.2731085419654846,0.0850481167435646
2314,1629709102120,0.1541513800621032,-0.2204609662294387,-0.2469857782125473,0.1016313284635543
2315,1629709102276,0.1677802950143814,-0.2137453407049179,-0.2179552465677261,0.1300235241651535
2316,1629709102370,0.1957461386919021,-0.194745272397995,-0.1923946887254715,0.1724987477064132
2317,1629709102417,0.2404050529003143,-0.1661936938762664,-0.1724056154489517,0.2245247364044189
2318,1629709102511,0.2938865423202514,-0.135967269539833,-0.1580869406461715,0.2826118469238281
2319,1629709102589,0.3426786363124847,-0.1103843748569488,-0.1481847912073135,0.3429692387580871
2320,1629709102761,0.3773879408836365,-0.0918996706604957,-0.1414066851139068,0.396719217300415
2321,1629709102839,0.3957551419734955,-0.0802347511053085,-0.1362242549657821,0.4353564381599426
2322,1629709102935,0.4033868014812469,-0.0742559283971786,-0.1322281509637832,0.4573006927967071
2323,1629709103029,0.4071230590343475,-0.073575347661972,-0.1300674825906753,0.4689763188362121
2324,1629709103107,0.4125266075134277,-0.0771399065852165,-0.1308024823665619,0.4787709414958954
2325,1629709103263,0.4203743934631347,-0.0827861428260803,-0.1348771601915359,0.4898313879966736
2326,1629709103341,0.4300326406955719,-0.0879556611180305,-0.1401485055685043,0.4995903372764587
2327,1629709103497,0.4387150406837463,-0.0908185318112373,-0.1441753357648849,0.5036942958831787
2328,1629709103544,0.4431836605072021,-0.0914735496044159,-0.1475788652896881,0.5003089904785156
2329,1629709103654,0.4403039813041687,-0.0931099131703376,-0.1539530754089355,0.4899516701698303
2330,1629709103747,0.4277363419532776,-0.0999376028776168,-0.164338082075119,0.4736601412296295
2331,1629709103779,0.4051856696605682,-0.1134955212473869,-0.1745792031288147,0.4531087875366211
2332,1629709103985,0.3728317320346832,-0.1314602196216583,-0.1797427684068679,0.4300495684146881
2333,1629709104032,0.3321069180965423,-0.1486320942640304,-0.1777415126562118,0.4047020673751831
2334,1629709104157,0.2888019979000091,-0.1607314497232437,-0.1702364385128021,0.3765895664691925
2335,1629709104251,0.254900574684143,-0.1668255925178527,-0.1612777560949325,0.3482447564601898
2336,1629709104360,0.2430832087993621,-0.1685920506715774,-0.154033213853836,0.3263852298259735
2337,1629709104470,0.2522407174110412,-0.1662686318159103,-0.1493513882160186,0.3165052235126495
2338,1629709104626,0.2700502574443817,-0.1560795605182647,-0.1459743678569793,0.3159711956977844
2339,1629709104641,0.2835741341114044,-0.1350392997264862,-0.1436090618371963,0.3177802562713623
2340,1629709104766,0.288132756948471,-0.1068249270319938,-0.1432078033685684,0.3172792792320251
2341,1629709104860,0.2846142947673797,-0.0802822262048721,-0.1467991918325424,0.3143245875835418
2342,1629709104923,0.2793202996253967,-0.0623611882328987,-0.1558779776096344,0.311173141002655
2343,1629709105048,0.2800053358078003,-0.0531084835529327,-0.1689181625843048,0.3131331205368042
2344,1629709105188,0.2890686094760895,-0.0484641976654529,-0.1804743111133575,0.3235442638397217
2345,1629709105282,0.3007466793060303,-0.0456403382122516,-0.1867353767156601,0.3396369218826294
2346,1629709105391,0.3065487146377563,-0.0453331284224987,-0.1904059201478958,0.352893590927124
2347,1629709105469,0.3029510378837585,-0.0490442886948585,-0.198007121682167,0.3557240962982178
2348,1629709105563,0.2924363017082214,-0.0555270686745643,-0.2116398066282272,0.3464163243770599
2349,1629709105657,0.2795474231243133,-0.0625187531113624,-0.2270431220531463,0.3292637765407562
2350,1629709105797,0.2651692628860473,-0.0694286450743675,-0.2376502007246017,0.3119658827781677
2351,1629709105875,0.2478683292865753,-0.0770393088459968,-0.2392947077751159,0.2996346652507782
2352,1629709105954,0.2282507568597793,-0.0860810056328773,-0.2334957420825958,0.2916527986526489
2353,1629709106063,0.2141401022672653,-0.0994412079453468,-0.2256089001893997,0.2851741313934326
2354,1629709106172,0.2147746533155441,-0.1214486360549926,-0.2177571058273315,0.2782002389431
2355,1629709106250,0.2308521866798401,-0.1541541963815689,-0.2063897252082824,0.2700980603694916
2356,1629709106438,0.252958208322525,-0.1904322654008865,-0.1884304136037826,0.2628290951251983
2357,1629709106485,0.2713496387004852,-0.2170743495225906,-0.1680965274572372,0.25943723320961
2358,1629709106578,0.2823247015476227,-0.2284482568502426,-0.1541589796543121,0.2585231363773346
2359,1629709106688,0.2872247993946075,-0.2304579317569732,-0.1516252011060714,0.256467193365097
2360,1629709106828,0.2920525968074798,-0.22958904504776,-0.1562245786190033,0.2523612678050995
2361,1629709106875,0.3027446866035461,-0.2249797880649566,-0.1597411781549453,0.2521364688873291
2362,1629709106985,0.3201304376125335,-0.2134664952754974,-0.1578086167573928,0.2607319056987762
2363,1629709107156,0.3415493965148926,-0.1960939019918441,-0.151329219341278,0.2749837040901184
2364,1629709107203,0.3634043335914612,-0.1778702586889267,-0.1404505968093872,0.2871182858943939
2365,1629709107281,0.3826130926609039,-0.1629970669746399,-0.1229188591241836,0.2922231554985046
2366,1629709107422,0.3958473205566406,-0.15167997777462,-0.100558154284954,0.2910940647125244
2367,1629709107485,0.4029497802257538,-0.140465959906578,-0.0796876326203346,0.2891696393489837
2368,1629709107625,0.4039273858070373,-0.125258058309555,-0.0659606531262397,0.2907687127590179
2369,1629709107703,0.3984058797359466,-0.1066517010331153,-0.0616774745285511,0.2954013049602508
2370,1629709107828,0.3878678679466247,-0.0888701528310775,-0.0673597753047943,0.301624596118927
2371,1629709107909,0.3772244751453399,-0.076721042394638,-0.0808082073926925,0.3098089694976806
2372,1629709108018,0.3712412118911743,-0.0710023492574691,-0.0952241420745849,0.3214071989059448
2373,1629709108096,0.370201975107193,-0.069393366575241,-0.1026799157261848,0.3350966572761535
2374,1629709108221,0.3712795674800873,-0.0688921883702278,-0.1007124856114387,0.3453839421272278
2375,1629709108299,0.3724768757820129,-0.067837007343769,-0.0940607041120529,0.3477311432361603
2376,1629709108440,0.3736856877803802,-0.0670527890324592,-0.0876487642526626,0.3410418629646301
2377,1629709108502,0.3740494847297668,-0.0678935497999191,-0.0813738778233528,0.3279114961624145
2378,1629709108643,0.3718544244766235,-0.0714384317398071,-0.074107602238655,0.3124056458473205
2379,1629709108721,0.3673608899116516,-0.0773963183164596,-0.069301500916481,0.2992604970932007
2380,1629709108830,0.3646490275859833,-0.084216259419918,-0.0736351907253265,0.293295681476593
2381,1629709108927,0.3677259683609009,-0.0912524685263633,-0.0896343663334846,0.2993545234203338
2382,1629709109005,0.3744176924228668,-0.1009990498423576,-0.1124102622270584,0.3152245879173279
2383,1629709109177,0.3782835304737091,-0.1170033439993858,-0.1335512846708297,0.3329434394836426
2384,1629709109224,0.3752124309539795,-0.1381230950355529,-0.1474557518959045,0.3467934131622314
2385,1629709109317,0.3666585683822632,-0.1582710742950439,-0.1524284034967422,0.3578611612319946
2386,1629709109458,0.3560841679573059,-0.1723808944225311,-0.1511872112751007,0.3689309954643249
2387,1629709109505,0.3456543684005737,-0.1832615435123443,-0.1487620919942855,0.3793877959251404
2388,1629709109661,0.3356958031654358,-0.1968676149845123,-0.1490847617387771,0.3862272500991821
2389,1629709109724,0.3282375037670135,-0.2149464339017868,-0.1512287259101867,0.3912816941738128
2390,1629709109817,0.3274285495281219,-0.2345975339412689,-0.1528453677892685,0.4000840783119201
2391,1629709109895,0.3377062082290649,-0.2520009577274322,-0.15285424888134,0.4158632457256317
2392,1629709110071,0.3577972054481506,-0.2641775012016296,-0.1523361504077911,0.4364928007125854
2393,1629709110165,0.379891574382782,-0.2673301994800567,-0.1524173766374588,0.4568216800689697
2394,1629709110259,0.3991300165653229,-0.2564565539360046,-0.1525614261627197,0.4731168746948242
2395,1629709110337,0.4142901003360748,-0.2306898534297943,-0.1494496464729309,0.4846219420433044
2396,1629709110462,0.4279453456401825,-0.1959335505962371,-0.1412219405174255,0.4904381334781647
2397,1629709110509,0.4421298205852508,-0.1608156263828277,-0.1306095123291015,0.4899788498878479
2398,1629709110634,0.4577943682670593,-0.1293576657772064,-0.1230820938944816,0.4835403263568878
2399,1629709110743,0.4750357568264007,-0.101496584713459,-0.1221849396824836,0.4726017713546753
2400,1629709110852,0.4918121993541717,-0.0765742808580398,-0.1272048205137252,0.4584356844425201
2401,1629709110915,0.5070536732673645,-0.0538810864090919,-0.1335045844316482,0.4413616359233856
2402,1629709111043,0.5210578441619873,-0.0301943570375442,-0.1348641365766525,0.4226765632629394
2403,1629709111121,0.5348885655403137,0.0002021143882302,-0.1272208243608474,0.4063297510147095
2404,1629709111262,0.5475307703018188,0.0379728451371192,-0.1127978563308715,0.3952409327030182
2405,1629709111355,0.5552948117256165,0.0758465901017189,-0.0984438210725784,0.3883846998214721
2406,1629709111465,0.5540527105331421,0.1048531457781791,-0.0912767872214317,0.381367415189743
2407,1629709111527,0.5438751578330994,0.1212510392069816,-0.0932242199778556,0.370909184217453
2408,1629709111621,0.5287320613861084,0.1263888925313949,-0.101476140320301,0.357092022895813
2409,1629709111746,0.5111927390098572,0.1227437257766723,-0.1120406836271286,0.3413674533367157
2410,1629709111934,0.4914383292198181,0.1124544963240623,-0.1248932182788848,0.3231884241104126
2411,1629709111965,0.4680851101875305,0.0992356613278389,-0.1404518783092498,0.3028205931186676
2412,1629709112074,0.4451779723167419,0.0892697647213935,-0.1559477746486663,0.2873413264751434
2413,1629709112168,0.4314706325531006,0.0870019942522049,-0.1647518724203109,0.2898596227169037
2414,1629709112277,0.4314606189727783,0.0911614075303077,-0.1623459458351135,0.3153319954872131
2415,1629709112355,0.439747154712677,0.0965132042765617,-0.1508041471242904,0.3526787161827087
2416,1629709112465,0.4468931853771209,0.0992647558450698,-0.1373748183250427,0.3847927749156952
2417,1629709112590,0.4482227563858032,0.0987483039498329,-0.129835844039917,0.4023994505405426
2418,1629709112683,0.4444523453712463,0.0948359072208404,-0.1335573047399521,0.4044345021247864
2419,1629709112746,0.4378845393657684,0.0878610759973526,-0.1489993333816528,0.3946335613727569
2420,1629709112858,0.4292713701725006,0.0804171562194824,-0.1710040718317031,0.3773863911628723
2421,1629709112952,0.419021338224411,0.07634287327528,-0.1913929730653762,0.3576181530952453
2422,1629709113124,0.4081909358501434,0.075147308409214,-0.206804946064949,0.339538037776947
2423,1629709113171,0.4004324674606323,0.0718880891799926,-0.2200402468442917,0.3256359696388244
2424,1629709113311,0.4009360671043396,0.0632553547620773,-0.2336094975471496,0.3162983953952789
2425,1629709113421,0.4112201631069183,0.0512254983186721,-0.2440589815378189,0.3102224767208099
2426,1629709113452,0.4275068640708923,0.0388867668807506,-0.2476548552513122,0.3039374351501465
2427,1629709113592,0.4410001635551452,0.0248151011765003,-0.245465487241745,0.2910541892051697
2428,1629709113686,0.4432746171951294,0.0045691947452723,-0.2431858330965042,0.2643328607082367
2429,1629709113796,0.4307105839252472,-0.0235505253076553,-0.2452810406684875,0.2205276042222976
2430,1629709113892,0.4077993929386139,-0.0557017624378204,-0.2535901069641113,0.1648952662944793
2431,1629709113985,0.3821198642253876,-0.0870594680309295,-0.2673580348491668,0.1112522780895233
2432,1629709114095,0.3584469556808471,-0.1168330982327461,-0.2829927206039428,0.0743616670370101
2433,1629709114173,0.3363130986690521,-0.1472027897834777,-0.2931720912456512,0.0604258887469768
2434,1629709114298,0.3147578239440918,-0.1788714379072189,-0.293089896440506,0.0614537559449672
2435,1629709114438,0.2963809370994568,-0.2098888456821441,-0.2863905131816864,0.0675221532583236
2436,1629709114517,0.2846082150936126,-0.2350535094738006,-0.2812094986438751,0.0743789672851562
2437,1629709114595,0.2816041111946106,-0.2450821995735168,-0.2807530164718628,0.0840963050723075
2438,1629709114704,0.2857017517089844,-0.2325325161218643,-0.2810719311237335,0.0983788818120956
2439,1629709114813,0.2909660935401916,-0.2017338126897812,-0.2770916223526001,0.1148435100913047
2440,1629709114893,0.291068285703659,-0.1663612425327301,-0.2701479792594909,0.1310807168483734
2441,1629709115003,0.2837556898593902,-0.1343653947114944,-0.2658942341804504,0.1485102772712707
2442,1629709115113,0.2718112766742706,-0.106095016002655,-0.2693930864334106,0.1685851663351059
2443,1629709115207,0.258882075548172,-0.0815076678991317,-0.2797570824623108,0.1878788769245147
2444,1629709115300,0.2504343688488006,-0.0630129054188728,-0.292134553194046,0.2005385160446167
2445,1629709115425,0.248818039894104,-0.0518787056207656,-0.3021058142185211,0.2020044773817062
2446,1629709115519,0.2523775994777679,-0.0458385348320007,-0.3074225783348083,0.1927805691957473
2447,1629709115644,0.2591136693954468,-0.0422387458384037,-0.3094723224639892,0.1765500754117965
2448,1629709115706,0.2686644792556762,-0.0411643721163272,-0.3106967806816101,0.1581471115350723
2449,1629709115847,0.2822288274765014,-0.0437537133693695,-0.3111080527305603,0.1428214758634567
2450,1629709115925,0.2980143129825592,-0.0489715822041034,-0.3063118457794189,0.1322696954011917
2451,1629709116008,0.3102658987045288,-0.0550115369260311,-0.2926132678985595,0.1228169873356819
2452,1629709116164,0.3135270476341247,-0.0618653111159801,-0.272587388753891,0.1105826571583747
2453,1629709116258,0.3071286380290985,-0.0715897679328918,-0.2550889551639557,0.0984299853444099
2454,1629709116336,0.2951441705226898,-0.085638627409935,-0.2483893036842346,0.0946833342313766
2455,1629709116461,0.2845045328140259,-0.1021955609321594,-0.2530792653560638,0.1021871119737625
2456,1629709116523,0.280342549085617,-0.1181185096502304,-0.2599855065345764,0.1130177527666091
2457,1629709116601,0.2830758690834045,-0.1310359239578247,-0.253420352935791,0.1179039105772972
2458,1629709116773,0.2925176620483398,-0.1401974856853485,-0.2267302870750427,0.1169179379940033
2459,1629709116851,0.3054929375648498,-0.1455977410078048,-0.1888284236192703,0.1167706921696662
2460,1629709116929,0.3188930749893188,-0.1477830857038498,-0.1548423320055008,0.122129701077938
2461,1629709117042,0.329296350479126,-0.1479112356901168,-0.1346877813339233,0.1329697221517563
2462,1629709117120,0.3335219025611877,-0.1466921865940094,-0.1289459466934204,0.148890808224678
2463,1629709117261,0.3312759399414062,-0.1453888863325119,-0.1335161328315735,0.1718114614486694
2464,1629709117386,0.3232108652591705,-0.1456998586654663,-0.1449103653430938,0.2024889141321182
2465,1629709117495,0.3111146092414856,-0.1496038883924484,-0.1621044427156448,0.2364007085561752
2466,1629709117573,0.2990557551383972,-0.1583236008882522,-0.1840250641107559,0.2671788036823272
2467,1629709117699,0.2926998138427734,-0.1704074293375015,-0.207312986254692,0.2904949784278869
2468,1629709117761,0.2967538833618164,-0.1811287701129913,-0.2263061851263046,0.3052267730236053
2469,1629709117855,0.3112285435199737,-0.1862094700336456,-0.2369684129953384,0.310736209154129
2470,1629709117980,0.3293798565864563,-0.1875162124633789,-0.239846795797348,0.3076317012310028
2471,1629709118124,0.3442218899726867,-0.1915976107120514,-0.2409241944551468,0.2988631427288055
2472,1629709118156,0.3543709516525268,-0.1996054202318191,-0.2495094686746597,0.288608193397522
2473,1629709118218,0.3611452877521515,-0.2025305330753326,-0.2728523910045624,0.2783972322940826
2474,1629709118374,0.3654391765594482,-0.1907064169645309,-0.3127126395702362,0.2672590911388397
2475,1629709118484,0.3670805394649505,-0.1674408316612243,-0.3633854687213897,0.2577341496944427
2476,1629709118562,0.3688775897026062,-0.1446762681007385,-0.4121284782886505,0.2554276883602142
2477,1629709118702,0.3762339651584625,-0.130468413233757,-0.4430664181709289,0.2618066668510437
2478,1629709118749,0.3893704712390899,-0.1239510774612426,-0.4459641277790069,0.2710763216018677
2479,1629709118878,0.4043661057949066,-0.1203406378626823,-0.4228061139583587,0.276113748550415
2480,1629709118956,0.4190895855426788,-0.1162579730153083,-0.3857944011688232,0.2760373950004577
2481,1629709119034,0.4327811896800995,-0.1092729195952415,-0.3489648699760437,0.2749644517898559
2482,1629709119190,0.4441804587841034,-0.0978940278291702,-0.3190282881259918,0.2753160297870636
2483,1629709119299,0.4492748975753784,-0.0834136232733726,-0.2947300970554352,0.2758169770240783
2484,1629709119393,0.4449414610862732,-0.0695203766226768,-0.2725268304347992,0.2759430706501007
2485,1629709119456,0.4341064989566803,-0.0586887933313846,-0.2512427866458893,0.2778464257717132
2486,1629709119565,0.4223055243492126,-0.0521780364215374,-0.2320149838924408,0.2827926278114319
2487,1629709119659,0.4124886393547058,-0.0514312125742435,-0.2149647027254104,0.2890517711639404
2488,1629709119835,0.4035950601100921,-0.0579574555158615,-0.1963158845901489,0.2942194938659668
2489,1629709119898,0.3952211737632751,-0.0694172903895378,-0.1701287180185318,0.2977289855480194
2490,1629709120038,0.387897789478302,-0.0785907655954361,-0.1350868195295334,0.2979958057403564
2491,1629709120117,0.3805471956729889,-0.0791890397667884,-0.0979429334402084,0.2933962643146515
2492,1629709120226,0.369442343711853,-0.0720322057604789,-0.0688304901123046,0.2836558222770691
2493,1629709120273,0.353513091802597,-0.0633520111441612,-0.0540453009307384,0.2696205675601959
2494,1629709120413,0.3352584838867187,-0.0579740814864635,-0.0532337427139282,0.2526204586029053
2495,1629709120491,0.317668080329895,-0.0565068945288658,-0.0593850724399089,0.2362446188926696
2496,1629709120585,0.3024102747440338,-0.058779302984476,-0.0632791817188263,0.2242079973220825
2497,1629709120679,0.2878200709819793,-0.066551961004734,-0.0597589761018753,0.2172530442476272
2498,1629709120773,0.2740623652935028,-0.080092966556549,-0.0513333901762962,0.2127904146909713
2499,1629709120900,0.2643146812915802,-0.0953446552157402,-0.0445695109665393,0.2083816081285476
2500,1629709121025,0.2587552368640899,-0.1056388467550277,-0.0444574244320392,0.203446552157402
2501,1629709121119,0.2542555034160614,-0.1074286699295044,-0.0523480400443077,0.2000523060560226
2502,1629709121197,0.2455004304647445,-0.1039803698658943,-0.0678241476416587,0.2008326947689056
2503,1629709121291,0.2317415326833725,-0.1020689383149147,-0.0906781256198883,0.2074280083179474
2504,1629709121400,0.2157468497753143,-0.1073799133300781,-0.1216958463191986,0.2171694040298462
2505,1629709121478,0.2012297213077545,-0.1226851940155029,-0.1607621312141418,0.2267265319824218
2506,1629709121650,0.1918364465236663,-0.1468234658241272,-0.2033517509698867,0.2343671023845672
2507,1629709121697,0.1880599558353424,-0.1758679896593094,-0.2423359453678131,0.2382672578096389
2508,1629709121838,0.1883034408092498,-0.2049784958362579,-0.2724118828773498,0.2372767776250839
2509,1629709121900,0.1892747581005096,-0.2305018603801727,-0.2923380434513092,0.2322397232055664
2510,1629709122056,0.1898993998765945,-0.2501890957355499,-0.3044063746929168,0.2247385680675506
2511,1629709122134,0.1937912851572036,-0.2617689669132232,-0.308129221200943,0.2169309258460998
2512,1629709122259,0.2101058214902877,-0.2623742520809173,-0.3035570979118347,0.2100663781166076
2513,1629709122353,0.2413757741451263,-0.2508871853351593,-0.2924943268299103,0.2063973098993301
2514,1629709122416,0.277323842048645,-0.2306176573038101,-0.2752629220485687,0.2084278166294098
2515,1629709122541,0.3061361908912658,-0.2102915495634079,-0.249142900109291,0.2147863805294037
2516,1629709122603,0.3250093758106231,-0.1962138563394546,-0.214576169848442,0.2199688404798507
2517,1629709122681,0.3382207453250885,-0.1865797340869903,-0.1787570714950561,0.2186141312122345
2518,1629709122853,0.347023457288742,-0.1739384680986404,-0.1511910557746887,0.2095144093036651
2519,1629709122962,0.3501823842525482,-0.1544265896081924,-0.1354602128267288,0.1968257427215576
2520,1629709123076,0.3494549393653869,-0.1324828267097473,-0.1279530972242355,0.1851589232683181
2521,1629709123123,0.3479997813701629,-0.1142518147826194,-0.123136892914772,0.1735866665840149
2522,1629709123232,0.3466647267341614,-0.1006151437759399,-0.1167681440711021,0.1612727791070938
2523,1629709123294,0.3442973494529724,-0.0877772197127342,-0.1075141802430152,0.1497244536876678
2524,1629709123466,0.3423982560634613,-0.0718156397342681,-0.0976171568036079,0.140784740447998
2525,1629709123560,0.3416334986686706,-0.0534719042479991,-0.0924098491668701,0.132008746266365
2526,1629709123669,0.3394107818603515,-0.0371448434889316,-0.098205491900444,0.1191577911376953
2527,1629709123716,0.332628071308136,-0.0271800346672534,-0.1165411546826362,0.1061294823884964
2528,1629709123841,0.3227334022521972,-0.0266443248838186,-0.1426209211349487,0.1025813519954681
2529,1629709123982,0.3159157037734985,-0.0357854440808296,-0.1694509088993072,0.1119973585009574
2530,1629709124078,0.3151319921016693,-0.049374084919691,-0.1936123818159103,0.1259740442037582
2531,1629709124172,0.3169004917144775,-0.0585446283221244,-0.2143899053335189,0.1335118860006332
2532,1629709124266,0.3166962563991546,-0.0585156641900539,-0.2292367815971374,0.1323845386505127
2533,1629709124359,0.3161101639270782,-0.0542318522930145,-0.2347994297742843,0.1262703984975814
2534,1629709124469,0.3189519047737121,-0.0546354539692401,-0.2320698797702789,0.119365707039833
2535,1629709124594,0.3242906332015991,-0.0615320093929767,-0.2255905121564865,0.1149693131446838
2536,1629709124703,0.3295468986034393,-0.069568932056427,-0.2184299379587173,0.1230591684579849
2537,1629709124832,0.3385810256004333,-0.0732877403497695,-0.212198719382286,0.1540670990943908
2538,1629709124895,0.3577827215194702,-0.0736216232180595,-0.2073230892419815,0.2044722288846969
2539,1629709124942,0.3840192258358001,-0.0764899551868438,-0.2014613151550293,0.2560365796089172
2540,1629709125069,0.4073173999786377,-0.085459753870964,-0.1888128817081451,0.2947927713394165
2541,1629709125163,0.4206194281578064,-0.0995490998029708,-0.1676104217767715,0.3187357783317566
2542,1629709125319,0.4219972193241119,-0.1138092875480651,-0.1449958831071853,0.3324923515319824
2543,1629709125351,0.4123357832431793,-0.1229529157280922,-0.1312631368637085,0.3399336338043213
2544,1629709125491,0.3931331634521484,-0.1255453377962112,-0.1316443830728531,0.3436317145824432
2545,1629709125554,0.3682545125484466,-0.1242515668272972,-0.1437983214855194,0.350119799375534
2546,1629709125663,0.3447874188423157,-0.1208136975765228,-0.1623867303133011,0.3659341335296631
