,timestamp,TP9,AF7,AF8,TP10
1299,1629708999040,0.3350638151168823,-0.214962288737297,-0.2245468646287918,0.1498880237340927
1300,1629708999181,0.3005704879760742,-0.299105167388916,-0.2670729756355285,0.1293781995773315
1301,1629708999259,0.2648425996303558,-0.3607254326343536,-0.3129762411117553,0.1123683080077171
1302,1629708999368,0.2340131849050521,-0.3943726420402527,-0.3549222648143768,0.1000348329544067
1303,1629708999462,0.2126064747571945,-0.4139785170555115,-0.3863014280796051,0.0987087711691856
1304,1629708999603,0.2043354958295822,-0.4257000982761383,-0.4039666950702667,0.1165017336606979
1305,1629708999665,0.2043354958295822,-0.4235696792602539,-0.4150389730930328,0.1165017336606979
1306,1629708999775,0.2043354958295822,-0.4002067744731903,-0.4062716960906982,0.1165017336606979
1307,1629708999900,0.2029074728488922,-0.346030980348587,-0.2847753763198852,0.0935478955507278
1308,1629708999962,0.1885938346385955,-0.2656674683094024,-0.0445637255907058,0.054279625415802
1309,1629709000043,0.16209177672863,-0.1820864528417587,0.1863090544939041,0.0195211265236139
1310,1629709000137,0.1227698996663093,-0.1138422638177871,0.3433442115783691,0.0063715735450387
1311,1629709000215,0.0589126348495483,-0.0739539489150047,0.4266926646232605,0.0124934762716293
1312,1629709000371,-0.0242271777242422,-0.0578472912311553,0.4578235447406769,0.0247763749212026
1313,1629709000434,-0.1019631847739219,-0.0540961027145385,0.4651924669742584,0.0382673218846321
1314,1629709000559,-0.154153898358345,-0.0526643060147762,0.4678670763969421,0.0570924617350101
1315,1629709000668,-0.1503719538450241,-0.0498264953494071,0.4707436263561249,0.0860530287027359
1316,1629709000762,-0.1503719538450241,-0.0436363257467746,0.4741753935813904,0.0860530287027359
1317,1629709000871,-0.1503719538450241,-0.0368832126259803,0.4813130795955658,0.0860530287027359
1318,1629709001011,-0.1503719538450241,-0.0300877280533313,0.5023924708366394,0.0860530287027359
1319,1629709001061,-0.1503719538450241,-0.0236174724996089,0.5456908345222473,0.0860530287027359
1320,1629709001139,-0.1503719538450241,-0.0189782977104187,0.6025410294532776,0.0860530287027359
1321,1629709001264,-0.1503719538450241,-0.0209793467074632,0.6521028876304626,0.0860530287027359
1322,1629709001389,-0.1503719538450241,-0.0389733873307704,0.672650158405304,0.0860530287027359
1323,1629709001483,-0.1503719538450241,-0.0817537009716034,0.6504727602005005,0.0860530287027359
1324,1629709001592,-0.1503719538450241,-0.149279698729515,0.5878787636756897,0.0860530287027359
1325,1629709001702,-0.1503719538450241,-0.2293435186147689,0.5070884227752686,0.0860530287027359
1326,1629709001811,-0.1503719538450241,-0.2947428524494171,0.4424460530281067,0.0860530287027359
1327,1629709001889,-0.1503719538450241,-0.326829046010971,0.4159538447856903,0.0860530287027359
1328,1629709002014,-0.1503719538450241,-0.3303609788417816,0.4145561456680298,0.0860530287027359
1329,1629709002045,-0.1503719538450241,-0.3214374184608459,0.4176706969738006,0.0860530287027359
1330,1629709002237,-0.1503719538450241,-0.3112739622592926,0.4188271164894104,0.0860530287027359
1331,1629709002346,-0.1503719538450241,-0.3082082271575928,0.4186282157897949,0.0860530287027359
1332,1629709002393,-0.1503719538450241,-0.3099713325500488,0.4170534312725067,0.0860530287027359
1333,1629709002471,-0.1503719538450241,-0.3130238354206085,0.4070981442928314,0.0860530287027359
1334,1629709002612,-0.1503719538450241,-0.3164463341236114,0.3741207718849182,0.0860530287027359
1335,1629709002690,-0.1503719538450241,-0.3210527896881103,0.310106486082077,0.0860530287027359
1336,1629709002832,-0.1503719538450241,-0.3258797824382782,0.2233243286609649,0.0860530287027359
1337,1629709002927,-0.1503719538450241,-0.3259352147579193,0.1423389315605163,0.0860530287027359
1338,1629709003020,-0.1503719538450241,-0.316361129283905,0.0987161174416542,0.0860530287027359
1339,1629709003083,-0.1503719538450241,-0.2946620285511017,0.0909292623400688,0.0860530287027359
1340,1629709003208,-0.1503719538450241,-0.2633149623870849,0.0948574692010879,0.0860530287027359
1341,1629709003286,-0.1503719538450241,-0.220945805311203,0.101005844771862,0.0860530287027359
1342,1629709003442,-0.1503719538450241,-0.1668180078268051,0.1077887490391731,0.0860530287027359
1343,1629709003489,-0.1503719538450241,-0.1077363863587379,0.1163464412093162,0.0860530287027359
1344,1629709003645,-0.1503719538450241,-0.0580493807792663,0.1264816969633102,0.0860530287027359
1345,1629709003739,-0.1503719538450241,-0.0238464083522558,0.1400856971740722,0.0860530287027359
1346,1629709003817,-0.1503719538450241,0.0065439436584711,0.1555456519126892,0.0860530287027359
1347,1629709003897,-0.1503719538450241,0.0612554289400577,0.1713156104087829,0.0860530287027359
1348,1629709004038,-0.1503719538450241,0.1498424410820007,0.1840877830982208,0.0860530287027359
1349,1629709004131,-0.1503719538450241,0.2456717938184738,0.1915902942419052,0.0860530287027359
1350,1629709004194,-0.1503719538450241,0.3189201056957245,0.1918907910585403,0.0860530287027359
1352,1629709004366,-0.1503719538450241,0.3606538772583008,0.1858088076114654,0.0860530287027359
1351,1629709004413,-0.1503719538450241,0.3799389898777008,0.1815443634986877,0.0860530287027359
1353,1629709004459,-0.1503719538450241,0.3914004862308502,0.1846935003995895,0.0860530287027359
1354,1629709004663,-0.1503719538450241,0.4024816453456878,0.1917351633310318,0.0860530287027359
1355,1629709004787,-0.1503719538450241,0.4105789959430694,0.1947164982557296,0.0860530287027359
1356,1629709004834,-0.1503719538450241,0.4111609160900116,0.1880639642477035,0.0860530287027359
1357,1629709004897,-0.1503719538450241,0.402534008026123,0.1723881214857101,0.0860530287027359
1358,1629709004993,-0.1503719538450241,0.3871220052242279,0.1528957635164261,0.0860530287027359
1359,1629709005118,-0.1503719538450241,0.3707556128501892,0.135719433426857,0.0860530287027359
1360,1629709005259,-0.1503719538450241,0.3576497137546539,0.1214712187647819,0.0860530287027359
1361,1629709005384,-0.1503719538450241,0.3447551131248474,0.1076643392443656,0.0860530287027359
1362,1629709005462,-0.1503719538450241,0.3175844252109527,0.0856451019644737,0.0860530287027359
1363,1629709005524,-0.1503719538450241,0.2590933442115783,0.0426494218409061,0.0860530287027359
1364,1629709005649,-0.1503719538450241,0.1642066836357116,-0.026954410597682,0.0860530287027359
1365,1629709005759,-0.1503719538450241,0.0501661524176597,-0.1108121573925018,0.0860530287027359
1366,1629709005837,0.1633471250534057,-0.0464003384113311,-0.1808515638113021,0.2882181704044342
1367,1629709005949,0.1575930118560791,-0.104590006172657,-0.2310793250799179,0.2492815405130386
1368,1629709006043,0.1685921251773834,-0.1460074782371521,-0.2789300382137298,0.2546545565128326
1369,1629709006199,0.1982783526182174,-0.1963135451078415,-0.3335676193237304,0.3102048337459564
1370,1629709006262,0.2407153695821762,-0.2504123151302337,-0.3774207830429077,0.3903243541717529
1371,1629709006340,0.2814054787158966,-0.2875744700431824,-0.3962206542491913,0.4588828980922699
1372,1629709006465,0.3093449473381042,-0.298041969537735,-0.3953583538532257,0.4982499778270721
1373,1629709006574,0.3238912224769592,-0.2979740500450134,-0.3938756287097931,0.5070511698722839
1374,1629709006668,0.3281631767749786,-0.3097113370895386,-0.4042788743972778,0.4954834580421448
1375,1629709006762,0.3322644531726837,-0.3369854688644409,-0.4302723407745361,0.4776924848556518
1376,1629709006824,0.3393782079219818,-0.367409199476242,-0.4652734398841858,0.4614083766937256
1377,1629709006921,0.3473839163780212,-0.3855475485324859,-0.4936451017856598,0.4486621618270874
1378,1629709007124,0.3594517707824707,-0.3872430324554443,-0.4975079596042633,0.4403653740882873
1379,1629709007140,0.3699372112751007,-0.3782594501972198,-0.4793869256973266,0.4342217147350311
1380,1629709007249,0.3791665732860565,-0.3624272644519806,-0.4628807306289673,0.4344482719898224
1381,1629709007362,0.3888835608959198,-0.3416392803192138,-0.4624053537845611,0.4410272538661957
1382,1629709007471,0.4015076458454132,-0.3193612396717071,-0.4714935719966888,0.4495031833648681
1383,1629709007549,0.4133026301860809,-0.3000583350658417,-0.4754013419151306,0.4487336575984955
1384,1629709007674,0.4161877632141113,-0.2873149514198303,-0.4703321754932403,0.4273518919944763
1385,1629709007786,0.406275987625122,-0.2839482724666595,-0.460536390542984,0.3810469806194305
1386,1629709007864,0.3928023874759674,-0.2924598455429077,-0.4477894008159637,0.3258222043514251
1387,1629709008005,0.3941483497619629,-0.3102031350135803,-0.4334872663021087,0.2946871519088745
1388,1629709008036,0.4158596098423004,-0.3258661329746246,-0.421467512845993,0.3074571490287781
1389,1629709008161,0.4439415037631988,-0.3221742808818817,-0.4150283336639404,0.343010812997818
1390,1629709008286,0.4589695036411285,-0.2912664413452148,-0.4119583964347839,0.3688404560089111
1391,1629709008395,0.455962061882019,-0.2442836910486221,-0.4070466756820678,0.3740653693675995
1392,1629709008504,0.4424082040786743,-0.1998301893472671,-0.4000708162784576,0.3637498021125793
1393,1629709008583,0.4266268312931061,-0.1703368872404098,-0.3979620933532715,0.3466562330722809
1394,1629709008661,0.4124052226543426,-0.1579723358154297,-0.4040482640266418,0.3289123177528381
1395,1629709008754,0.3993157744407654,-0.1586624830961227,-0.4110034704208374,0.3120980560779571
1396,1629709008929,0.385771244764328,-0.1664269417524337,-0.4041216373443603,0.2955178022384643
1397,1629709009054,0.3784823417663574,-0.1777619272470474,-0.3733301162719726,0.296292781829834
1398,1629709009132,0.3744519650936126,-0.1900277733802795,-0.3267526924610138,0.298736423254013
1399,1629709009273,0.3731098473072052,-0.1981924474239349,-0.2825632095336914,0.3077428042888641
1400,1629709009288,0.3787230849266052,-0.1979561299085617,-0.2565089464187622,0.3218179643154144
1401,1629709009398,0.3833226561546325,-0.1911906450986862,-0.2518485784530639,0.3252761662006378
1402,1629709009507,0.3672238290309906,-0.1841722875833511,-0.2604308724403381,0.2947039604187011
1403,1629709009585,0.3149148821830749,-0.1808503419160843,-0.2680039703845978,0.210808128118515
1404,1629709009679,0.2309659272432327,-0.1815042942762375,-0.2618085443973541,0.0687631294131279
1405,1629709009788,0.1442093551158905,-0.1900289803743362,-0.2392548471689224,-0.1079659387469291
1406,1629709009885,0.0915844440460205,-0.212748721241951,-0.2088744491338729,-0.2520257234573364
1407,1629709009994,0.0741762965917587,-0.2481168508529663,-0.1824557930231094,-0.3024138510227203
1408,1629709010119,0.0720768570899963,-0.2836542427539825,-0.165509358048439,-0.3024138510227203
1409,1629709010244,0.0720768570899963,-0.306778222322464,-0.1576964408159256,-0.3024138510227203
1410,1629709010322,0.0720768570899963,-0.3185581564903259,-0.1573814302682876,-0.3024138510227203
1411,1629709010431,0.0720768570899963,-0.3293010592460632,-0.16585373878479,-0.3024138510227203
1412,1629709010525,0.0720768570899963,-0.3460490107536316,-0.1847444772720337,-0.3024138510227203
1413,1629709010587,0.0720768570899963,-0.3683539032936096,-0.2094566971063614,-0.3024138510227203
1414,1629709010759,0.0720768570899963,-0.390410453081131,-0.2285723388195037,-0.3024138510227203
1415,1629709010855,0.0720768570899963,-0.4015908241271972,-0.2261228710412979,0.0741665065288543
1416,1629709010933,0.4150553941726684,-0.3923109173774719,-0.1958424597978592,0.0303941424936056
1417,1629709011043,0.4150553941726684,-0.3665902316570282,-0.1494765281677246,0.0303941424936056
1418,1629709011152,0.4150553941726684,-0.3422644734382629,-0.106966882944107,0.0303941424936056
1419,1629709011246,0.4150553941726684,-0.33673095703125,-0.0792740061879158,0.0303941424936056
1420,1629709011383,0.4150553941726684,-0.3483347296714782,-0.0608421005308628,0.0303941424936056
1421,1629709011544,0.4150553941726684,-0.3501335680484772,-0.0283145047724246,0.0303941424936056
1422,1629709011586,0.4150553941726684,-0.3202982544898987,0.0322656892240047,0.0303941424936056
1423,1629709011663,0.4150553941726684,-0.2647158205509186,0.1079351752996444,0.0303941424936056
1424,1629709011687,0.4150553941726684,-0.2103253006935119,0.1791007369756698,0.0303941424936056
1425,1629709011819,0.4150553941726684,-0.1738216280937194,0.2356552928686142,0.0303941424936056
1426,1629709011961,0.4150553941726684,-0.1562836170196533,0.2761315107345581,0.0303941424936056
1427,1629709012050,0.4150553941726684,-0.1497791409492492,0.3010503351688385,-0.0567842125892639
1428,1629709012101,0.4150553941726684,-0.1454741507768631,0.3110979795455932,-0.0567842125892639
1429,1629709012218,0.4150553941726684,-0.1433137506246566,0.3092390596866607,-0.0567842125892639
1430,1629709012340,0.4150553941726684,-0.1494427770376205,0.3001174628734588,-0.0567842125892639
1431,1629709012464,0.4150553941726684,-0.1676398962736129,0.2863781750202179,-0.0567842125892639
1432,1629709012577,0.4150553941726684,-0.1943865865468979,0.2695983350276947,-0.0567842125892639
1433,1629709012643,0.2414231747388839,-0.2173687666654586,0.2537502348423004,0.671850323677063
1434,1629709012775,0.2716847956180572,-0.2243202328681945,0.2433975934982299,0.6820558309555054
1435,1629709012832,0.2918840646743774,-0.2153794318437576,0.2361944615840912,0.6680224537849426
1436,1629709012921,0.3042041659355163,-0.208801656961441,0.2182731032371521,0.6443490386009216
1437,1629709012998,0.3073973953723907,-0.221969187259674,0.1759878247976303,0.6241750121116638
1439,1629709013192,0.3021949231624603,-0.2628065049648285,0.1073814928531646,0.610702633857727
1438,1629709013236,0.2931336462497711,-0.3236046135425567,0.0215239115059375,0.5978018045425415
1440,1629709013367,0.2904956042766571,-0.3869046866893768,-0.0670834332704544,0.5819165706634521
1441,1629709013439,0.2947311997413635,-0.4354543685913086,-0.1455578953027725,0.5645096302032471
1442,1629709013541,0.3013495802879333,-0.4649331271648407,-0.2010222971439361,0.5484706163406372
1443,1629709013620,0.3069856762886047,-0.4831951260566711,-0.2236698120832443,0.5364207029342651
1444,1629709013787,0.314313679933548,-0.4883215427398681,-0.2200536578893661,0.5300670266151428
1445,1629709013892,0.3347029685974121,-0.4712651669979095,-0.2106302231550216,0.5281768441200256
1447,1629709014003,0.3560768365859985,-0.435011476278305,-0.2067242860794067,0.5203773975372314
1446,1629709014049,0.3667764365673065,-0.3983460068702698,-0.2078507095575332,0.4978366792201996
1448,1629709014148,0.36178919672966,-0.3806263208389282,-0.2114637792110443,0.460878849029541
1449,1629709014258,0.3472976088523865,-0.3886513113975525,-0.2208231091499328,0.4251033365726471
1450,1629709014350,0.3291933834552765,-0.416733980178833,-0.2364685237407684,0.4032947123050689
1451,1629709014438,0.3102606534957886,-0.4533683657646179,-0.2495975047349929,0.39222052693367
1452,1629709014567,0.295100063085556,-0.4887860417366028,-0.2484524250030517,0.3804531097412109
1453,1629709014670,0.2876425087451935,-0.5188648700714111,-0.2338755130767822,0.3615677058696747
1454,1629709014741,0.2878504693508148,-0.540736198425293,-0.216738611459732,0.3404578566551208
1455,1629709014867,0.288449764251709,-0.5517792701721191,-0.2058631926774978,0.3234479427337646
1456,1629709015003,0.2849032282829284,-0.55321204662323,-0.2018442749977111,0.3157687485218048
1457,1629709015077,0.2767238914966583,-0.5503424406051636,-0.2009873688220977,0.3223738670349121
1458,1629709015210,0.2690222859382629,-0.5503501892089844,-0.1960006654262542,0.3423255980014801
1459,1629709015248,0.2640513181686401,-0.5627336502075195,-0.1785641461610794,0.3771261274814605
1460,1629709015339,0.2601572871208191,-0.6004361510276794,-0.1474124044179916,0.4408023059368133
1461,1629709015446,0.2700210809707641,-0.6679590940475464,-0.10398481041193,0.5520565509796143
1462,1629709015584,0.3299205601215362,-0.7395326495170593,-0.0551097691059112,0.6961920857429504
1463,1629709015689,0.4684748649597168,-0.7638471126556396,-0.0107673360034823,0.8462666273117065
1464,1629709015797,0.6358778476715088,-0.72808837890625,0.0211194492876529,0.9763550758361816
1465,1629709015880,0.7717463374137878,-0.6780712008476257,0.0382073149085044,1.072060227394104
1466,1629709016025,0.8551991581916809,-0.6462470293045044,0.0432147197425365,1.1311304569244385
1467,1629709016086,0.8923912048339844,-0.627752959728241,0.0407204031944274,1.1593776941299438
1468,1629709016221,0.9029712677001952,-0.6042501330375671,0.0328908301889896,1.1690633296966553
1469,1629709016302,0.9055687189102172,-0.5687793493270874,0.0221627745777368,1.172881245613098
1470,1629709016384,0.9076777100563048,-0.527518630027771,0.0117245502769947,1.1766759157180786
1471,1629709016488,0.909483790397644,-0.4905376434326172,0.0028134048916399,1.1800280809402466
1472,1629709016552,0.9099650382995604,-0.4625692963600158,-0.0074556353501975,1.1812957525253296
1473,1629709016647,0.9077616930007936,-0.4423419237136841,-0.0237849839031696,1.1799347400665283
1474,1629709016832,0.902104675769806,-0.424772173166275,-0.0482035465538501,1.175151228904724
1475,1629709016909,0.8935084939002991,-0.40748992562294,-0.0765503197908401,1.16354238986969
1476,1629709017000,0.8807016611099243,-0.3926000297069549,-0.107265718281269,1.137471318244934
1477,1629709017105,0.8560613393783569,-0.3872789442539215,-0.141594186425209,1.0889357328414917
1478,1629709017219,0.7994326949119568,-0.3968634307384491,-0.1798675060272216,1.0076398849487305
1479,1629709017306,0.6910334229469299,-0.4128701090812683,-0.2151970565319061,0.8854287266731262
1480,1629709017415,0.5290443897247314,-0.4134166538715362,-0.2395385652780532,0.7247481346130371
1481,1629709017501,0.3443818092346191,-0.3853969275951385,-0.2547284662723541,0.5683370232582092
1482,1629709017594,0.1924341320991516,-0.3399049937725067,-0.2708486318588257,0.4467245936393738
1483,1629709017689,0.1263560205698013,-0.2846802771091461,-0.2875028550624847,0.3973870873451233
1484,1629709017798,0.0961961969733238,-0.2191161215305328,-0.2954905927181244,0.3860465586185455
1485,1629709017909,0.0517929941415786,-0.1323346942663192,-0.2824702560901642,0.3740670382976532
1486,1629709018005,-0.0089422306045889,-0.1212446317076683,-0.2400494366884231,0.3565017580986023
1487,1629709018131,-0.0670083314180374,-0.1066936701536178,-0.1673526614904403,0.3367991745471954
1488,1629709018225,-0.0965790078043937,-0.0873334780335426,-0.0769699662923812,0.3139733076095581
1489,1629709018323,-0.0838954448699951,0.0674002766609191,0.0184103045612573,0.2813283503055572
1490,1629709018422,-0.0382622629404068,0.135946899652481,0.104159191250801,0.2333295047283172
1491,1629709018559,0.0243140663951635,0.1566154658794403,0.1701964884996414,0.1715590804815292
1492,1629709018617,0.0243140663951635,0.1606102883815765,0.2137949466705322,0.1715590804815292
1493,1629709018746,0.0243140663951635,0.1636002957820892,0.2416316121816635,0.1715590804815292
1494,1629709018819,0.0243140663951635,0.1718849837779998,0.2686829268932342,0.1715590804815292
1495,1629709018914,0.0243140663951635,0.185381144285202,0.303278774023056,0.1715590804815292
1496,1629709019069,0.0243140663951635,0.2016327828168869,0.3381288051605224,0.1715590804815292
1497,1629709019117,0.0243140663951635,0.2165359705686569,0.3628496825695038,0.1715590804815292
1498,1629709019240,0.0243140663951635,0.2211751192808151,0.3742842972278595,1.2033885717391968
1499,1629709019330,0.0243140663951635,0.206582635641098,0.3757141828536987,1.1622202396392822
1500,1629709019451,0.0243140663951635,0.1613910794258117,0.3703280091285705,1.1058460474014282
1501,1629709019615,0.0243140663951635,0.1350347399711609,0.3574761748313904,1.0470194816589355
1502,1629709019669,0.0243140663951635,0.1115630939602851,0.3355408310890198,0.9933890104293824
1503,1629709019734,0.0243140663951635,0.0912821590900421,0.3071117401123047,0.9511244297027588
1504,1629709019888,0.0243140663951635,-0.0166274178773164,0.2730895578861236,0.9239798188209534
1505,1629709019931,0.0243140663951635,-0.0883436650037765,0.2338553220033645,0.909092128276825
1506,1629709020122,1.099194884300232,-0.1082598865032196,0.190040111541748,0.8962008357048035
1507,1629709020219,1.0156283378601074,-0.1063159853219986,0.1460570842027664,0.8777140378952026
1508,1629709020289,0.9465569853782654,-0.1075127348303794,0.1044689193367958,0.8526424169540405
1509,1629709020331,0.8863053321838379,-0.1243199780583381,0.0546303652226924,0.825259804725647
1510,1629709020452,0.8863053321838379,-0.1602842956781387,-0.0185786429792642,0.7924050092697144
1511,1629709020609,0.8863053321838379,-0.2120268642902374,-0.1102118790149688,0.7290322780609131
1512,1629709020669,0.8863053321838379,-0.2610302567481994,-0.1898311823606491,0.6298843026161194
1513,1629709020754,0.6616032123565674,-0.2771003246307373,-0.2300643175840377,0.5199387073516846
1514,1629709020900,0.1124158427119255,-0.2505901455879211,-0.2367351651191711,0.4419960677623749
1515,1629709020965,0.1124158427119255,-0.2076187431812286,-0.2332321256399154,0.4214649796485901
1516,1629709021114,0.1124158427119255,-0.1769133955240249,-0.2297146022319793,0.4453601837158203
1517,1629709021173,0.1124158427119255,-0.1677551716566085,-0.2308374643325805,0.4877473413944244
1518,1629709021287,0.1124158427119255,-0.1714698374271392,-0.2509191632270813,0.5205064415931702
1519,1629709021387,0.1124158427119255,-0.1789832264184951,-0.3013122677803039,0.5150648951530457
1520,1629709021436,0.1112171337008476,-0.186791256070137,-0.3832144141197204,0.4427518546581268
1521,1629709021536,0.1112171337008476,-0.1922718286514282,-0.4775756597518921,0.4427518546581268
1522,1629709021693,0.1112171337008476,-0.1901018172502517,-0.5503107309341431,0.4427518546581268
1523,1629709021758,0.1112171337008476,-0.1776963472366333,-0.5724459290504456,0.4427518546581268
1524,1629709021888,0.1112171337008476,-0.159341961145401,-0.5503029227256775,0.4427518546581268
1525,1629709021995,0.0047016800381243,-0.1432287245988845,-0.5104342699050903,-0.1258979141712188
1526,1629709022094,0.0871212035417556,-0.1370414197444915,-0.4720132946968078,-0.0164204556494951
1527,1629709022220,0.1787475645542144,-0.1476190388202667,-0.4400732815265655,0.0928701311349868
1528,1629709022291,0.2584220767021179,-0.1805447489023208,-0.4083247780799866,0.1722521781921386
1529,1629709022393,0.3127636909484863,-0.2338356375694275,-0.3758717477321625,0.2217598706483841
1530,1629709022516,0.3368265628814697,-0.2940787374973297,-0.347816526889801,0.2546582221984863
1531,1629709022592,0.3338388800621032,-0.3419442474842071,-0.3263124525547027,0.2808082997798919
1532,1629709022664,0.3163321316242218,-0.3639266490936279,-0.307673692703247,0.2980580925941467
1533,1629709022766,0.3010770976543426,-0.3625880181789398,-0.2860585153102875,0.3055066466331482
1534,1629709022899,0.2981714606285095,-0.3490132391452789,-0.2583584189414978,0.3068936169147491
1535,1629709022976,0.3120266497135162,-0.3320924341678619,-0.2226252406835556,0.3099321722984314
1536,1629709023085,0.3393310904502868,-0.3152322769165039,-0.1806195229291916,0.3206159472465515
1537,1629709023222,0.3920399248600006,-0.3010540604591369,-0.1404185891151428,0.3607893884181976
1538,1629709023284,0.4122519195079803,-0.2928991317749023,-0.1086293458938598,0.3828339278697967
1539,1629709023413,0.4311999976634979,-0.2859608232975006,-0.0754295289516449,0.4046052694320678
1540,1629709023532,0.4476618468761444,-0.2431320250034332,0.002207268262282,0.4245276749134063
1541,1629709023663,0.4579071700572967,-0.1394191980361938,0.1368571370840072,0.436782568693161
1542,1629709023719,0.4567807614803314,-0.010986054316163,0.277370423078537,0.4386502206325531
1543,1629709023801,0.4435381889343261,0.0940097421407699,0.3786252737045288,0.4345650970935821
1544,1629709023892,0.4241537153720855,0.1605211794376373,0.4302638173103332,0.4304937422275543
1545,1629709023982,0.4134443700313568,0.1967341750860214,0.4472104907035827,0.4269821047782898
1546,1629709024125,0.4290278553962707,0.2206103354692459,0.4537001848220825,0.4204308688640594
1547,1629709024201,0.4740286469459533,0.241916999220848,0.4648074507713318,0.4162213206291199
1548,1629709024308,0.5340241193771362,0.2595392763614654,0.4794581532478332,0.4248288869857788
1549,1629709024416,0.5340241193771362,0.2693341970443725,0.4907564520835876,0.4248288869857788
1550,1629709024498,0.5340241193771362,0.2698445916175842,0.4948556125164032,0.4248288869857788
1551,1629709024591,0.5340241193771362,0.2637026906013489,0.4920269250869751,0.4248288869857788
1552,1629709024758,0.5340241193771362,0.2562564611434936,0.4856783151626587,0.4248288869857788
1553,1629709024860,0.6197958588600159,0.2525139451026916,0.4785377383232116,0.6255818009376526
1554,1629709024903,0.5874389410018921,0.2538781464099884,0.4683124125003814,0.6229121685028076
1555,1629709025031,0.5449644923210144,0.2489843517541885,0.4404944181442261,0.598547101020813
1556,1629709025101,0.4967025816440582,0.2212676852941513,0.3745912909507751,0.5587023496627808
1557,1629709025194,0.4492002129554748,0.1626174598932266,0.259520560503006,0.5114613771438599
1558,1629709025339,0.4095168113708496,0.0827625095844268,0.1091520264744758,0.4653124511241913
1559,1629709025433,0.3841746151447296,0.0043204678222537,-0.0244460403919219,0.4249257147312164
1560,1629709025543,0.3789087235927582,-0.0543721541762352,-0.093492217361927,0.391026884317398
1561,1629709025619,0.3920783102512359,-0.0992113351821899,-0.126292422413826,0.3636222183704376
1562,1629709025703,0.4154232144355774,-0.1405761986970901,-0.1714832484722137,0.3469602763652801
1563,1629709025821,0.4392862915992737,-0.1746063977479934,-0.234902024269104,0.3456679284572601
1564,1629709025966,0.4572687447071075,-0.1906021237373352,-0.2943109273910522,0.3561311364173889
1565,1629709026117,0.4505375027656555,-0.1856039762496948,-0.3326715230941772,0.3577452898025512
1566,1629709026202,0.4365055859088897,-0.1693070828914642,-0.3491418659687042,0.3350442051887512
1567,1629709026252,0.4210469722747803,-0.1556379050016403,-0.3524215519428253,0.2894077599048614
1568,1629709026345,0.4108615815639496,-0.1545644253492355,-0.3470996022224426,0.2363304644823074
1569,1629709026436,0.411112904548645,-0.1728601306676864,-0.3363635838031769,0.1952924281358719
1570,1629709026573,0.4244841933250427,-0.2103367745876312,-0.3260565400123596,0.1746063530445099
1571,1629709026670,0.4451214969158172,-0.2597179710865021,-0.3215255439281463,0.1711778938770294
1572,1629709026786,0.4694689810276031,-0.3061451613903045,-0.3216079175472259,0.1885623484849929
1573,1629709026860,0.495268702507019,-0.3337326347827911,-0.3198394775390625,0.2146559655666351
1574,1629709027002,0.5179871320724487,-0.3280704319477081,-0.2993693351745605,0.242703303694725
1575,1629709027043,0.5320716500282288,-0.2879162430763244,-0.2508656084537506,0.2708016335964203
1576,1629709027210,0.5336984992027283,-0.2336198985576629,-0.1911079436540603,0.2981075346469879
1577,1629709027259,0.5219656229019165,-0.1913839727640152,-0.1469933241605758,0.3172769546508789
1578,1629709027345,0.4996206760406494,-0.1760349422693252,-0.1315395236015319,0.3158524632453918
1579,1629709027483,0.4726051092147827,-0.1862139850854873,-0.1388147920370102,0.2861440479755401
1580,1629709027517,0.4506407678127289,-0.2102210074663162,-0.1499059051275253,0.2405990958213806
1581,1629709027614,0.4404997825622558,-0.2380442917346954,-0.1488658934831619,0.2077702134847641
1582,1629709027765,0.4423643052577972,-0.2656375169754028,-0.1342412382364273,0.2037431001663208
1583,1629709027892,0.4423643052577972,-0.291080117225647,-0.1127631440758705,0.2037431001663208
1584,1629709027968,0.4423643052577972,-0.309079498052597,-0.0878753438591957,0.2037431001663208
1585,1629709028092,0.4423643052577972,-0.3146219551563263,-0.0622321665287017,0.2037431001663208
1586,1629709028170,0.4423643052577972,-0.3063083589076996,-0.0388205759227275,0.2037431001663208
1587,1629709028233,0.4423643052577972,-0.2892408072948456,-0.0218269117176532,0.2037431001663208
1588,1629709028438,0.532986044883728,-0.2726230025291443,-0.012576688081026,0.4325433671474457
1589,1629709028495,0.5073754191398621,-0.2713033854961395,-0.0142690390348434,0.390888899564743
1590,1629709028607,0.478995531797409,-0.2963976562023163,-0.0321940556168556,0.3752167224884033
1591,1629709028670,0.4636984169483185,-0.3441557586193084,-0.0648076012730598,0.3841865956783294
1592,1629709028764,0.4649227261543274,-0.3919744193553924,-0.0989354774355888,0.4041933715343475
1593,1629709028873,0.4713588953018188,-0.4116136133670807,-0.118702657520771,0.4175567328929901
1594,1629709028998,0.4696018397808075,-0.3986371159553528,-0.1206808537244796,0.4138427972793579
1595,1629709029107,0.4565555453300476,-0.3731405735015869,-0.1149723306298255,0.3939554393291473
1596,1629709029201,0.4357826709747314,-0.3525384664535522,-0.1081394106149673,0.367519736289978
1597,1629709029310,0.4116320610046386,-0.3381540179252624,-0.1039230227470398,0.3441569209098816
1598,1629709029357,0.3877086341381073,-0.3243693709373474,-0.1085271760821342,0.3270948529243469
1599,1629709029498,0.3653217554092407,-0.3070816993713379,-0.1300359070301056,0.3134075701236725
1600,1629709029623,0.3333886861801147,-0.2890031635761261,-0.1674006134271621,0.2723851799964905
1601,1629709029732,0.2887215614318847,-0.2753721475601196,-0.2096803486347198,0.2377017587423324
1602,1629709029810,0.2366641759872436,-0.2661029398441314,-0.2431747019290924,0.218322679400444
1603,1629709029951,0.193016767501831,-0.2536787986755371,-0.2653897702693939,0.215912640094757
1604,1629709030032,0.1717721223831176,-0.2336841970682144,-0.2822447121143341,0.2175016850233078
1605,1629709030173,0.1674181520938873,-0.2115551829338073,-0.2955003082752228,0.2049415111541748
1606,1629709030204,0.1580135077238083,-0.1961324512958526,-0.3026426136493683,0.1701138317584991
1607,1629709030345,0.1284727454185485,-0.1900368779897689,-0.304412305355072,0.1214067265391349
1608,1629709030438,0.0863648280501365,-0.186536431312561,-0.3048328161239624,0.0847820490598678
1609,1629709030563,0.0551052205264568,-0.1791756302118301,-0.3082431554794311,0.0832648798823356
1610,1629709030657,0.0474783517420291,-0.1689962297677993,-0.3201633095741272,0.1099231764674186
1611,1629709030719,0.0588100329041481,-0.1604920774698257,-0.3502876162528991,0.1402911692857742
1612,1629709030860,0.0825176909565925,-0.1556263267993927,-0.4002605974674225,0.1590698361396789
1613,1629709030938,0.1105216592550277,-0.1531233638525009,-0.4458453953266144,0.1686331927776336
1614,1629709031016,0.1343208402395248,-0.1531896889209747,-0.4453068375587463,0.1743701100349426
1615,1629709031126,0.1480192095041275,-0.1578621417284011,-0.3929216861724853,0.178298994898796
1616,1629709031208,0.153727114200592,-0.1688185632228851,-0.3270749747753143,0.1769563406705856
1617,1629709031317,0.1540971845388412,-0.1886925101280212,-0.2794350087642669,0.1646586954593658
1618,1629709031426,0.1471939980983734,-0.2206156104803085,-0.2562372386455536,0.1414791196584701
1619,1629709031566,0.1263333261013031,-0.2647263705730438,-0.2507724463939667,0.1150015071034431
1620,1629709031660,0.0926849842071533,-0.3129872977733612,-0.2529354691505432,0.0972199067473411
1621,1629709031773,0.054555807262659,-0.3559342324733734,-0.249337151646614,0.0898236408829689
1622,1629709031820,0.0206487886607646,-0.3939473330974579,-0.2252117991447448,0.0808092802762985
1623,1629709031913,0.0087447399273514,-0.439484179019928,-0.1772595793008804,0.0693092048168182
1624,1629709032132,-0.0096355136483907,-0.4967745542526245,-0.1177911385893821,0.0350666791200637
1625,1629709032226,-0.0369005016982555,-0.5395088791847229,-0.0595526993274688,-0.0137323960661888
1626,1629709032257,-0.0718576833605766,-0.5240396857261658,-0.0057182731106877,-0.0634191334247589
1627,1629709032351,-0.122092492878437,-0.4582447707653045,0.04483013600111,-0.1053502783179283
1628,1629709032398,-0.1985939443111419,-0.3944718241691589,0.0882504060864448,-0.1516846567392349
1629,1629709032522,-0.3004181087017059,-0.3604978919029236,0.1188297197222709,-0.2113590538501739
1630,1629709032663,-0.3991536498069763,-0.3494178652763366,0.138654813170433,-0.2785134017467499
1631,1629709032757,-0.4733275175094604,-0.3412821888923645,0.1530109047889709,-0.3318615853786468
1632,1629709032900,-0.5131680369377136,-0.3226102590560913,0.165050059556961,-0.3447226285934448
1633,1629709032931,-0.5466783046722412,-0.2976914346218109,0.1728876531124115,-0.3166657090187073
1634,1629709033103,-0.5466783046722412,-0.2732118964195251,0.1753554046154022,-0.3166657090187073
1635,1629709033150,-0.5466783046722412,-0.2524741590023041,0.1737682819366455,-0.3166657090187073
1636,1629709033291,-0.5466783046722412,-0.2344235181808471,0.1674248576164245,-0.3166657090187073
1637,1629709033384,-0.5466783046722412,-0.2167619615793228,0.1522287428379058,-0.3166657090187073
1638,1629709033447,-0.5466783046722412,-0.2006132155656814,0.125356376171112,-0.3166657090187073
1639,1629709033587,0.2525953650474548,-0.1911198049783706,0.0885036140680313,0.3218446373939514
1640,1629709033665,0.244117721915245,-0.1973161101341247,0.0460983663797378,0.3198002278804779
1641,1629709033806,0.2363657802343368,-0.2293646335601806,-0.0016092907171696,0.3186529278755188
1642,1629709033872,0.2258630841970443,-0.2891790866851806,-0.0588757768273353,0.3133595585823059
1643,1629709033997,0.2110983431339264,-0.3612614572048187,-0.1291621178388595,0.3008579313755035
1644,1629709034091,0.1932448595762252,-0.4186611473560333,-0.2079467624425888,0.2822274565696716
1645,1629709034185,0.1739438325166702,-0.4468346238136291,-0.2907457947731018,0.2614416480064392
1646,1629709034310,0.155588611960411,-0.4588506519794464,-0.369586706161499,0.2415565848350525
1647,1629709034356,0.1396528035402298,-0.4761423468589782,-0.4275439977645874,0.2237092405557632
1648,1629709034497,0.1285910904407501,-0.5040237307548523,-0.4403518140316009,0.2087564170360565
1649,1629709034575,0.1229116842150688,-0.5374892950057983,-0.4110583364963531,0.1958528161048889
1650,1629709034685,0.1195781230926513,-0.5698111057281494,-0.3704546391963959,0.1827239245176315
1651,1629709034778,0.0962132140994072,-0.5987370014190674,-0.3427430391311645,0.1547527611255645
1652,1629709034872,0.0720899850130081,-0.6250184178352356,-0.3308281898498535,0.1188232377171516
1653,1629709034953,0.0472856797277927,-0.6402660608291626,-0.3271489143371582,0.0780568271875381
1654,1629709035109,0.0206369217485189,-0.633303165435791,-0.3218851387500763,0.0361436083912849
1655,1629709035219,-0.0072048394940793,-0.6048500537872314,-0.3095108866691589,-0.0062057450413703
1656,1629709035281,-0.0329972393810749,-0.5686332583427429,-0.2895644605159759,-0.0461698845028877
1657,1629709035390,-0.0531498566269874,-0.5382969975471497,-0.2673641443252563,-0.077012225985527
1658,1629709035484,-0.0655078962445259,-0.5170554518699646,-0.24679034948349,-0.1058391779661178
1659,1629709035593,-0.0724215507507324,-0.5008671879768372,-0.2267476171255111,-0.1259014457464218
1660,1629709035718,-0.0739515796303749,-0.475465714931488,-0.1880061030387878,-0.1392516195774078
1661,1629709035859,-0.0725359097123146,-0.4203376173973083,-0.0964350327849388,-0.1503409296274185
1662,1629709035906,-0.0707964673638343,-0.338177740573883,0.0387170426547527,-0.1624193340539932
1663,1629709035988,-0.0752935111522674,-0.2569537758827209,0.1661936193704605,-0.1802737861871719
1664,1629709036112,-0.0923592373728752,-0.2010978311300277,0.2524132430553436,-0.2051539868116378
1665,1629709036206,-0.1214365735650062,-0.1736187189817428,0.2942858040332794,-0.2302560955286026
1666,1629709036347,-0.1496302336454391,-0.1623594164848327,0.3075076937675476,-0.2371437102556228
1667,1629709036456,-0.1640110164880752,-0.1539500653743744,0.3106667101383209,-0.2169246822595596
1668,1629709036534,-0.1607368141412735,-0.1455045491456985,0.3129326999187469,-0.1750651895999908
1669,1629709036597,-0.1607368141412735,-0.140874370932579,0.3156969845294952,-0.1750651895999908
1670,1629709036690,-0.1607368141412735,-0.1407467275857925,0.3178602159023285,-0.1750651895999908
1671,1629709036784,-0.1607368141412735,-0.1408357322216034,0.3184888064861297,-0.1750651895999908
1672,1629709036925,-0.1607368141412735,-0.1358600705862045,0.3177811503410339,-0.1750651895999908
1673,1629709037021,-0.1607368141412735,-0.126954585313797,0.3167088031768799,-0.1750651895999908
1674,1629709037130,0.1576150357723236,-0.1201024204492569,0.3148476183414459,0.4607208669185638
1675,1629709037193,0.1576150357723236,-0.1239829435944557,0.3065361976623535,0.4607208669185638
1676,1629709037318,0.1576150357723236,-0.1495850831270218,0.2771629095077514,0.4607208669185638
1677,1629709037458,0.1576150357723236,-0.2006472945213318,0.2120277732610702,0.4607208669185638
1678,1629709037552,0.1576150357723236,-0.2601616084575653,0.1131392493844032,0.4607208669185638
1679,1629709037708,0.1576150357723236,-0.2882084250450134,0.0086470656096935,0.4607208669185638
1680,1629709037740,0.1576150357723236,-0.2642803490161896,-0.0599228292703628,0.4607208669185638
1681,1629709037865,0.1576150357723236,-0.2172372341156005,-0.0810267180204391,0.4607208669185638
1682,1629709037944,0.1576150357723236,-0.1799625009298324,-0.0804959833621978,0.4607208669185638
1683,1629709038055,0.1576150357723236,-0.1585977673530578,-0.0731297805905342,0.4607208669185638
1684,1629709038149,0.1576150357723236,-0.1458499580621719,-0.0605834238231182,0.4607208669185638
1685,1629709038227,0.1576150357723236,-0.1391392201185226,-0.0468317307531833,0.4607208669185638
1686,1629709038367,0.1576150357723236,-0.140946939587593,-0.0366804748773574,0.4607208669185638
1687,1629709038414,0.1576150357723236,-0.1493569314479828,-0.0314958468079566,0.4607208669185638
1688,1629709038524,0.1576150357723236,-0.1560533046722412,-0.0293204747140407,0.4607208669185638
1689,1629709038649,0.1576150357723236,-0.1564137041568756,-0.0269689429551363,0.4607208669185638
1690,1629709038758,0.1576150357723236,-0.1528269201517105,-0.0260531418025493,0.4607208669185638
1691,1629709038883,0.2428343147039413,-0.1481024622917175,-0.0294798146933317,0.183748260140419
1692,1629709038961,0.2325906604528427,-0.1419702768325805,-0.0369970723986625,0.2348343431949615
1693,1629709039027,0.2220479547977447,-0.1385315507650375,-0.0472567938268184,0.2937002778053283
1694,1629709039106,0.2150594294071197,-0.1492321342229843,-0.0566585101187229,0.3377774655818939
1695,1629709039230,0.2192441374063491,-0.1825128644704818,-0.0578940398991107,0.3589881360530853
1696,1629709039371,0.2404668182134628,-0.2350959926843643,-0.0495138801634311,0.3644651472568512
1697,1629709039449,0.2751300036907196,-0.2948383688926697,-0.0359413847327232,0.3708400428295135
1698,1629709039559,0.3099484741687774,-0.3522008955478668,-0.0245238970965147,0.3871246874332428
1699,1629709039668,0.334909588098526,-0.403702437877655,-0.0167477186769247,0.409625232219696
1700,1629709039746,0.3475256860256195,-0.4437077343463897,-0.0070821898989379,0.4285779297351837
1701,1629709039871,0.3491751253604889,-0.4640741348266601,0.005777676589787,0.4363196492195129
1702,1629709039996,0.3491751253604889,-0.4693028628826141,0.017620101571083,0.4363196492195129
1703,1629709040142,0.3592417538166046,-0.4705950915813446,0.0248210597783327,0.4544803500175476
1704,1629709040220,0.3663243353366852,-0.4694919884204864,0.0319959074258804,0.47175133228302
1705,1629709040251,0.3734990656375885,-0.4586827158927917,0.0523889288306236,0.4896633327007293
1706,1629709040376,0.3853543102741241,-0.4404322206974029,0.0880258753895759,0.5068714618682861
1707,1629709040485,0.4025594294071197,-0.4281910955905914,0.1269868463277816,0.5177463293075562
1708,1629709040563,0.4248415231704712,-0.4305144250392914,0.1547719091176986,0.519083559513092
1709,1629709040673,0.4514996707439422,-0.4358959496021271,0.1662510484457016,0.5165855884552002
1710,1629709040798,0.4778207540512085,-0.4287242889404297,0.1641924828290939,0.5217813849449158
1711,1629709040912,0.4948665797710418,-0.4019053876399994,0.1551228314638137,0.5416525602340698
1712,1629709040990,0.4927775859832763,-0.3653702735900879,0.1443714499473571,0.5666184425354004
1713,1629709041053,0.4927775859832763,-0.3294700980186462,0.1350667476654052,0.5666184425354004
1714,1629709041225,0.4927775859832763,-0.3008798658847809,0.1252292990684509,0.5666184425354004
1715,1629709041303,0.4927775859832763,-0.2827616930007934,0.111355111002922,0.5666184425354004
1716,1629709041412,0.4927775859832763,-0.2752657532691955,0.0954847484827041,0.5666184425354004
1717,1629709041459,0.3999801874160766,-0.2766132950782776,0.086284652352333,0.5666184425354004
1718,1629709041537,0.3392229974269867,-0.2857543528079986,0.0892548635601997,0.2806783616542816
1719,1629709041647,0.2867989838123321,-0.303687572479248,0.0958033353090286,0.355351984500885
1720,1629709041818,0.2498916536569595,-0.3315340876579284,0.0889181271195411,0.4279786646366119
1721,1629709041914,0.2274864763021469,-0.3655285537242889,0.0612468160688877,0.4936015605926513
1722,1629709042008,0.2166810780763626,-0.3950090408325195,0.018227120861411,0.5504326820373535
1723,1629709042102,0.2122629135847091,-0.4083830118179321,-0.0270294826477766,0.5895768404006958
1724,1629709042195,0.206089049577713,-0.4115390181541443,-0.0650556683540344,0.604668915271759
1725,1629709042305,0.1921680718660354,-0.4168127477169037,-0.0937527567148208,0.5983815789222717
1726,1629709042414,0.1709484755992889,-0.4349106550216675,-0.1131323650479316,0.5811644792556763
1727,1629709042508,0.1481120437383651,-0.462237536907196,-0.1209924593567848,0.5638130307197571
1728,1629709042649,0.1312801837921142,-0.4875885844230652,-0.114537589251995,0.5498615503311157
1729,1629709042680,0.0838801488280296,-0.4964173436164856,-0.0961051657795906,0.5498615503311157
1730,1629709042805,0.0398284308612346,-0.4810470938682556,-0.0744326561689376,0.5678310990333557
1731,1629709042883,0.0172746144235134,-0.4474172294139862,-0.0606697499752044,0.5875639915466309
1732,1629709043027,0.0255647841840982,-0.4064753651618957,-0.061558686196804,0.5830778479576111
1733,1629709043152,0.0540852844715118,-0.3685053884983063,-0.0770086124539375,0.5742830634117126
1734,1629709043214,0.083622433245182,-0.337851732969284,-0.1010248586535453,0.5574920773506165
1735,1629709043292,0.0982413291931152,-0.3137396574020386,-0.1288411021232605,0.5281978249549866
1736,1629709043433,0.0929620265960693,-0.2923135459423065,-0.159708559513092,0.4791933596134186
1737,1629709043511,0.0711878165602684,-0.2723745107650757,-0.1936603188514709,0.403687059879303
1738,1629709043652,0.0400649234652519,-0.2577622830867767,-0.2229500710964203,0.3070840835571289
1739,1629709043766,0.008923802524805,-0.2506751716136932,-0.2347513884305954,0.2138507515192031
1740,1629709043844,-0.0132052144035696,-0.2501284480094909,-0.2258162051439285,0.1531422138214111
1741,1629709043953,-0.0216488577425479,-0.2509019076824188,-0.2081956416368484,0.1281205713748932
1742,1629709044003,-0.019861202687025,-0.2512208819389343,-0.1981563568115234,0.1149813309311866
1743,1629709044128,-0.0172864105552434,-0.2531570494174957,-0.2109290361404419,0.0979050993919372
1744,1629709044253,-0.0178791098296642,-0.2580029368400574,-0.2497375756502151,0.0994490087032318
1745,1629709044362,-0.0224225502461195,-0.2617950439453125,-0.3001243472099304,0.0963015183806419
1746,1629709044440,-0.0258700754493474,-0.2612776756286621,-0.3307299017906189,0.0923549085855484
1747,1629709044534,-0.0313320942223072,-0.2608901262283325,-0.3222037851810455,0.088461197912693
1748,1629709044628,-0.0483729541301727,-0.2672295272350311,-0.2851531207561493,0.0801137536764144
1749,1629709044722,-0.078475683927536,-0.2790858745574951,-0.2360721081495285,0.0652954429388046
1750,1629709044848,-0.100610040128231,-0.2872685492038727,-0.1810079514980316,0.0557630993425846
1751,1629709044957,-0.0948147848248481,-0.2829269766807556,-0.1249838396906852,0.064642496407032
1752,1629709045051,-0.0606274157762527,-0.2665605843067169,-0.0782203078269958,0.0905853658914566
1753,1629709045145,-0.0142004899680614,-0.2458516955375671,-0.0494077280163764,0.1173290610313415
1754,1629709045239,0.0329223237931728,-0.2271742671728134,-0.0392799191176891,0.1308884024620056
1755,1629709045332,0.0743789970874786,-0.2148489207029342,-0.0405305214226245,0.1288143992424011
1756,1629709045442,0.1081533804535865,-0.2097223401069641,-0.0442849099636077,0.1169406622648239
1757,1629709045567,0.1363370269536972,-0.2115305364131927,-0.0459501333534717,0.1043833419680595
1758,1629709045660,0.1603664755821228,-0.2184970378875732,-0.0452420786023139,0.0953608304262161
1759,1629709045723,0.1771294623613357,-0.229178324341774,-0.0435466356575489,0.0889777317643165
1760,1629709045866,0.1818102896213531,-0.2465206831693649,-0.0424795150756835,0.0810366943478584
1761,1629709045990,0.1732866466045379,-0.2720826864242553,-0.0459743961691856,0.0694188475608825
1762,1629709046068,0.1631450802087783,-0.2991590499877929,-0.0594185404479503,0.0572781488299369
1763,1629709046193,0.1677716374397277,-0.3162994086742401,-0.0851849243044853,0.0485025011003017
1764,1629709046272,0.1919023543596267,-0.3217622637748718,-0.1241931393742561,0.0415950268507003
1765,1629709046365,0.226076990365982,-0.3288721740245819,-0.1769607961177826,0.0289678499102592
1766,1629709046475,0.2385711222887039,-0.3519761562347412,-0.2381635457277298,0.0081468289718031
1767,1629709046537,0.2450436502695083,-0.3922236561775207,-0.2809751033782959,-0.0217506550252437
1768,1629709046709,0.2456211894750595,-0.4321141839027405,-0.2588853538036346,-0.0503093786537647
1769,1629709046771,0.242417424917221,-0.4456391036510467,-0.1682251542806625,-0.0634435638785362
1770,1629709046899,0.2396386265754699,-0.4176229536533355,-0.0634563639760017,-0.0567450113594532
1771,1629709046993,0.2392269819974899,-0.3630232214927673,0.0132035240530967,-0.0426078960299491
1772,1629709047055,0.2381756603717804,-0.3067750930786133,0.0540401712059974,-0.0381210371851921
1773,1629709047180,0.233592540025711,-0.2647616267204284,0.0704581290483474,-0.0470561981201171
1774,1629709047290,0.2300736904144287,-0.2404727488756179,0.0763462334871292,-0.0585789754986763
1775,1629709047415,0.2438627481460571,-0.2288583219051361,0.0768731981515884,-0.050974290817976
1776,1629709047461,0.2867986857891083,-0.2228641659021377,0.0727793723344802,-0.0172123908996582
1777,1629709047680,0.2867986857891083,-0.2170004546642303,0.0676003992557525,-0.0172123908996582
1778,1629709047696,0.2867986857891083,-0.2056284844875335,0.0672392398118972,-0.0172123908996582
1779,1629709047789,0.2867986857891083,-0.1880118697881698,0.0800553783774375,-0.0172123908996582
1780,1629709047886,0.2867986857891083,-0.1665775179862976,0.1113422960042953,-0.0172123908996582
1781,1629709047995,0.1914814114570617,-0.1451765894889831,0.1534984558820724,0.5198525786399841
1782,1629709048104,0.2430659234523773,-0.1271266490221023,0.1867313981056213,0.5591338276863098
1783,1629709048198,0.3117042481899261,-0.1175683289766311,0.1917891651391983,0.5623510479927063
1784,1629709048326,0.4042223691940307,-0.1228682473301887,0.1614769101142883,0.5623510479927063
1785,1629709048436,0.4954734146595001,-0.146611213684082,0.1065166890621185,0.5623510479927063
1786,1629709048498,0.4954734146595001,-0.1829788386821746,0.0507970266044139,0.5623510479927063
1787,1629709048608,0.4954734146595001,-0.2135292738676071,0.0158055033534765,0.5623510479927063
1788,1629709048670,0.4954734146595001,-0.2198084890842437,0.0030660619959235,0.5623510479927063
1789,1629709048795,0.4954734146595001,-0.1988624930381775,0.000641243008431,0.5623510479927063
1790,1629709048873,0.4954734146595001,-0.1624618172645568,0.0013077917974442,0.5623510479927063
1791,1629709049001,0.4954734146595001,-0.12507264316082,0.0045741200447082,0.5623510479927063
1792,1629709049126,0.4954734146595001,-0.0968074724078178,0.0106408772990107,0.5623510479927063
1793,1629709049220,0.4912935495376587,-0.084290362894535,0.0170989595353603,0.5492328405380249
1794,1629709049298,0.5058733224868774,-0.0869076177477836,0.0170545056462287,0.5178202390670776
1795,1629709049407,0.5205663442611694,-0.0986189469695091,-0.0002494643267709,0.4410119354724884
1796,1629709049470,0.5225969552993774,-0.1124444305896759,-0.0404819101095199,0.3015038669109344
1797,1629709049595,0.5142459273338318,-0.1250343173742294,-0.0949354916810989,0.1115854680538177
1798,1629709049704,0.4893392920494079,-0.1345519125461578,-0.1423705369234085,-0.1159938648343086
1799,1629709049848,0.4300172328948974,-0.1377933174371719,-0.1680222898721695,-0.1066830903291702
1800,1629709049910,0.319749504327774,-0.1315554082393646,-0.1809538751840591,-0.0631157606840133
1801,1629709050003,0.3264826536178589,-0.1191427856683731,-0.1946677416563034,0.0045010545291006
1802,1629709050097,0.3258973062038421,-0.1107532382011413,-0.2091031521558761,0.0708241313695907
1803,1629709050222,0.3190070390701294,-0.1142035275697708,-0.216903880238533,0.1146279200911521
1804,1629709050347,0.3096955418586731,-0.1290914118289947,-0.2171594947576522,0.1334052979946136
1805,1629709050456,0.3048430383205414,-0.1492983847856521,-0.2137838304042816,0.1384416818618774
1806,1629709050550,0.3071797788143158,-0.1688092052936554,-0.2097327262163162,0.1420369744300842
1807,1629709050644,0.3131442070007324,-0.1863386332988739,-0.2086347341537475,0.1462339460849762
1808,1629709050691,0.3244301080703735,-0.2019731849431991,-0.2163996696472168,0.1595873236656189
1809,1629709050834,0.3239956200122833,-0.2129959911108017,-0.2394339144229889,0.1638224273920059
1810,1629709050943,0.3163963556289673,-0.2162777036428451,-0.2741471529006958,0.1639519333839416
1811,1629709051068,0.3108671009540558,-0.2124763280153274,-0.3057208359241485,0.1690073609352111
1812,1629709051115,0.310077428817749,-0.2063367366790771,-0.3220885694026947,0.1824675798416137
1813,1629709051271,0.3115329444408417,-0.202503353357315,-0.3292917609214782,0.20114666223526
1814,1629709051334,0.31094691157341,-0.2036735117435455,-0.3402585387229919,0.2177580893039703
1815,1629709051427,0.3091641068458557,-0.2093528658151626,-0.3592871427536011,0.2251183241605758
1816,1629709051568,0.3103673458099365,-0.2190109193325042,-0.3808912336826324,0.2178479582071304
1817,1629709051646,0.3180187940597534,-0.2314030677080154,-0.4014447331428528,0.1971507966518402
1818,1629709051755,0.3268143236637115,-0.2463984340429306,-0.4184033572673797,0.1704252511262893
1819,1629709051896,0.3291893601417541,-0.2648347020149231,-0.4292528927326202,0.1462871134281158
1820,1629709051943,0.3201503157615661,-0.2879241108894348,-0.434628814458847,0.1270549595355987
1821,1629709052005,0.3008418083190918,-0.313232958316803,-0.4405869543552398,0.1109830364584922
1822,1629709052162,0.2768897414207458,-0.3348624110221863,-0.4494100213050842,0.0992051139473915
1823,1629709052255,0.2568597197532654,-0.3465913832187652,-0.4552713334560394,0.0950546637177467
1824,1629709052349,0.2451038956642151,-0.3491816222667694,-0.4502427279949188,0.0993240550160408
1825,1629709052412,0.2406371980905532,-0.348652184009552,-0.4344140887260437,0.1059760525822639
1826,1629709052600,0.2392639070749282,-0.3477888107299804,-0.4136436283588409,0.110590286552906
1827,1629709052631,0.2392890304327011,-0.3432508111000061,-0.3904764056205749,0.1104995161294937
1828,1629709052787,0.2367154210805893,-0.3340340554714203,-0.3635963201522827,0.1023068875074386
1829,1629709052899,0.2275439202785492,-0.3228473663330078,-0.3352589011192322,0.0833545252680778
1830,1629709052961,0.2092157900333404,-0.3148837983608246,-0.3096780478954315,0.0547916069626808
1831,1629709053055,0.183599516749382,-0.3098877072334289,-0.2945570945739746,0.0257102362811565
1832,1629709053149,0.1510214805603027,-0.3046081364154815,-0.2905237674713135,0.011645670980215
1833,1629709053227,0.1208551004528999,-0.2937456369400024,-0.2953385412693023,0.0331894159317016
1834,1629709053368,0.1117165610194206,-0.2759304940700531,-0.3048666417598724,0.0989431291818618
1835,1629709053477,0.1363076120615005,-0.254698097705841,-0.3142108619213104,0.1885938942432403
1836,1629709053586,0.1847267895936966,-0.2361869663000106,-0.3206200301647186,0.2677073180675506
1837,1629709053648,0.233516126871109,-0.2207197695970535,-0.3191980719566345,0.3177638649940491
1838,1629709053789,0.2636958956718445,-0.2062712758779525,-0.3053519129753113,0.3410142660140991
1839,1629709053820,0.2719308733940124,-0.1944674700498581,-0.2825560271739959,0.3484093248844147
1840,1629709054011,0.2635899782180786,-0.1908087730407714,-0.2627589106559753,0.3501092493534088
1841,1629709054073,0.244882196187973,-0.2002404481172561,-0.2585639357566833,0.3466596901416778
1842,1629709054167,0.2201057821512222,-0.222334936261177,-0.2722841501235962,0.339020311832428
1843,1629709054307,0.1954284459352493,-0.2498129606246948,-0.29549440741539,0.3308988809585571
1844,1629709054401,0.1779330372810363,-0.2735707759857178,-0.3121339976787567,0.3252556622028351
1845,1629709054479,0.1740186065435409,-0.2898201942443847,-0.3098607957363128,0.3220548629760742
1846,1629709054651,0.1841890066862106,-0.3024262189865112,-0.2835699319839477,0.3173774778842926
1847,1629709054776,0.2087503969669342,-0.3171470761299133,-0.2440954893827438,0.3067105710506439
1848,1629709054807,0.2402428835630417,-0.3372579514980316,-0.2080956697463989,0.2830370962619781
1849,1629709054878,0.2625553905963897,-0.363398939371109,-0.184257224202156,0.2342841625213623
1850,1629709054982,0.2629311382770538,-0.3925922811031341,-0.1719362437725067,0.1501450836658477
1851,1629709055122,0.247017502784729,-0.4151946306228637,-0.1632064282894134,0.0403580516576767
1852,1629709055216,0.2333615571260452,-0.4253706932067871,-0.154983177781105,-0.0568708255887031
1853,1629709055294,0.2349812537431717,-0.4298253655433655,-0.1501995474100113,-0.1060801148414611
1854,1629709055435,0.2478105574846267,-0.437854140996933,-0.1523999124765396,-0.1098104119300842
1855,1629709055528,0.2666632235050201,-0.4478749632835388,-0.1616823077201843,-0.0932436883449554
1856,1629709055607,0.2928207516670227,-0.4500027894973755,-0.1733771860599517,-0.0634590536355972
1857,1629709055669,0.3223296999931335,-0.4412028193473816,-0.1797682642936706,-0.0311852935701608
1858,1629709055810,0.3468712568283081,-0.4300085008144378,-0.1716588139533996,0.0013745900942012
1859,1629709055917,0.3607784211635589,-0.4253534972667694,-0.1476762294769287,0.0466612130403518
1860,1629709056033,0.3659505546092987,-0.4260293543338775,-0.1151752844452858,0.1215026900172233
1861,1629709056095,0.3694261312484741,-0.4168683290481567,-0.0868413597345352,0.2217283397912979
1862,1629709056220,0.3744955360889435,-0.3816085755825043,-0.0700589418411254,0.3228188157081604
1863,1629709056283,0.3800866305828094,-0.3191196322441101,-0.062737189233303,0.4083917438983917
1864,1629709056455,0.3864188194274902,-0.2447337061166763,-0.0595814771950244,0.4765921831130981
1865,1629709056517,0.3942260146141052,-0.1757097393274307,-0.0582609213888645,0.533058226108551
1866,1629709056611,0.3975542783737182,-0.1247073411941528,-0.061674702912569,0.5778676867485046
1867,1629709056705,0.3906734883785248,-0.0955821126699447,-0.0727748200297355,0.6076371669769287
1868,1629709056814,0.3744350671768188,-0.0846314057707786,-0.0888924077153205,0.6224365830421448
1869,1629709056965,0.3579567968845367,-0.083325482904911,-0.1019517108798027,0.6291240453720093
1870,1629709057043,0.3451290428638458,-0.0855228975415229,-0.1047885939478874,0.6365078687667847
1871,1629709057152,0.3294486701488495,-0.0897526293992996,-0.0974261835217475,0.6471388339996338
1872,1629709057261,0.3087388277053833,-0.0961328521370887,-0.0889983773231506,0.6577970385551453
1873,1629709057371,0.2904470562934875,-0.1037486046552658,-0.0923318639397621,0.6647508144378662
1874,1629709057402,0.2889184355735779,-0.1118034794926643,-0.115610159933567,0.6659289002418518
1875,1629709057543,0.3109021186828613,-0.1207799464464187,-0.1592111736536026,0.6610366702079773
1876,1629709057636,0.3449004888534546,-0.1351649612188339,-0.2118670344352722,0.6527546048164368
1877,1629709057761,0.3717997670173645,-0.1592659801244735,-0.2572621703147888,0.648503839969635
1878,1629709057855,0.3814146816730499,-0.1967226713895797,-0.2850030064582824,0.6556018590927124
1879,1629709057964,0.3730151653289795,-0.2481207549571991,-0.297212153673172,0.6723771095275879
1880,1629709058029,0.3557126522064209,-0.3107165992259979,-0.3007076382637024,0.6907095313072205
1881,1629709058139,0.346635639667511,-0.3735504150390625,-0.297424852848053,0.7093507051467896
1882,1629709058264,0.3620123565196991,-0.4219115972518921,-0.2872589230537414,0.7327656745910645
1883,1629709058373,0.404233306646347,-0.4447093605995178,-0.2759633660316467,0.761397659778595
1884,1629709058436,0.4559075534343719,-0.4417948424816131,-0.274982750415802,0.7847729325294495
1885,1629709058514,0.5013140439987183,-0.4156626462936401,-0.2896721065044403,0.7948102355003357
1886,1629709058639,0.5350945591926575,-0.373036652803421,-0.3163165152072906,0.7923468947410583
1887,1629709058717,0.5630605816841125,-0.3262616991996765,-0.343999445438385,0.7858531475067139
1888,1629709058877,0.5877898335456848,-0.2849342823028564,-0.3579619824886322,0.7813910841941833
1889,1629709058971,0.604247510433197,-0.2531672418117523,-0.3480453193187713,0.7787118554115295
1890,1629709059049,0.6056353449821472,-0.2313866019248962,-0.3219531178474426,0.773262083530426
1891,1629709059174,0.5920783877372742,-0.2183436304330825,-0.2988843619823456,0.7603733539581299
1892,1629709059267,0.5729318261146545,-0.2151974290609359,-0.2911509871482849,0.7364213466644287
1893,1629709059424,0.559379518032074,-0.2220042496919632,-0.2980981767177582,0.6997855305671692
1894,1629709059517,0.5568518042564392,-0.2362313419580459,-0.3111881911754608,0.6548685431480408
1895,1629709059580,0.5602970719337463,-0.2513068914413452,-0.3226131498813629,0.6084913611412048
1896,1629709059658,0.5595148205757141,-0.2602125108242035,-0.3321674466133117,0.5603996515274048
1897,1629709059752,0.5455663204193115,-0.2606980502605438,-0.3373313248157501,0.5038618445396423
1898,1629709059848,0.5160238742828369,-0.2561244368553161,-0.3326303660869598,0.4369237720966339
1899,1629709059989,0.4777115881443023,-0.2513316869735718,-0.312564343214035,0.3822937905788421
1900,1629709060098,0.4401061534881592,-0.2494369745254516,-0.2817205190658569,0.3677766323089599
1901,1629709060192,0.4089517295360565,-0.25124192237854,-0.2511657774448395,0.3908311128616333
1902,1629709060301,0.3758730888366699,-0.2531192302703857,-0.2314631342887878,0.4196479618549347
1903,1629709060410,0.3366096019744873,-0.2502766847610473,-0.2296624481678009,0.4330733120441437
1904,1629709060442,0.3003242313861847,-0.240147516131401,-0.2474750578403473,0.4319406449794769
1905,1629709060582,0.2791462242603302,-0.2249078601598739,-0.2781935036182403,0.4260347783565521
1906,1629709060676,0.270366907119751,-0.2113404870033264,-0.3063095808029175,0.4240661263465881
1907,1629709060770,0.2614597380161285,-0.2037145495414734,-0.3117687404155731,0.4285189807415008
1908,1629709060991,0.247076004743576,-0.2012712806463241,-0.2883756160736084,0.4351218044757843
1909,1629709061022,0.2300318479537964,-0.2031061202287674,-0.2501021325588226,0.4342049956321716
1910,1629709061085,0.2166575789451599,-0.2108109295368194,-0.2148201316595077,0.4215080142021179
1911,1629709061163,0.2123382538557052,-0.2263035178184509,-0.1913450956344604,0.4044993221759796
1912,1629709061272,0.2220027893781662,-0.2459071427583694,-0.1810015738010406,0.3963524401187897
1913,1629709061366,0.2434573024511337,-0.2639123797416687,-0.1832986027002334,0.3996887505054474
1914,1629709061491,0.2666447460651397,-0.278541088104248,-0.1968789100646972,0.4026954174041748
1915,1629709061647,0.281487226486206,-0.2936386466026306,-0.216484248638153,0.3953071236610412
1916,1629709061678,0.2885743379592895,-0.312886506319046,-0.2326523661613464,0.3839512169361114
1917,1629709061772,0.2993533015251159,-0.3395195603370666,-0.235127568244934,0.384136438369751
1918,1629709061916,0.3181018829345703,-0.3771201372146606,-0.2211159020662307,0.4001838862895965
1919,1629709061994,0.3382340371608734,-0.4278128743171692,-0.1993569731712341,0.4190999269485473
1920,1629709062103,0.3493865728378296,-0.4872311949729919,-0.1824905574321746,0.4285033047199249
1921,1629709062181,0.3503904044628143,-0.5408089756965637,-0.1799444556236267,0.4256149232387543
1922,1629709062306,0.3482793271541595,-0.5761294364929199,-0.197024405002594,0.4145342707633972
1923,1629709062400,0.3532452285289764,-0.5938210487365723,-0.23394376039505,0.4048108160495758
1924,1629709062525,0.3702843487262726,-0.5994795560836792,-0.2843677401542663,0.4053027033805847
1925,1629709062650,0.3934262096881866,-0.5912106037139893,-0.3362078368663788,0.4147794544696808
1926,1629709062744,0.4107060432434082,-0.5681464076042175,-0.3755649924278259,0.4231691360473633
1927,1629709062821,0.4136613011360168,-0.5399205088615417,-0.3975716531276703,0.420417457818985
1928,1629709062915,0.404411107301712,-0.510666012763977,-0.4031009674072265,0.4073498547077179
1929,1629709062996,0.3918263912200928,-0.4782444536685943,-0.3974455893039703,0.3886930644512176
1930,1629709063137,0.3838240802288055,-0.439812034368515,-0.3864127993583679,0.3641930520534515
1931,1629709063230,0.3796359598636627,-0.3987031280994415,-0.3789021074771881,0.3290902972221374
1932,1629709063355,0.3682999610900879,-0.3633640706539154,-0.3850224614143371,0.2848153710365295
1933,1629709063418,0.3479236960411072,-0.3373033702373504,-0.4090728163719177,0.2516140937805176
1934,1629709063512,0.3345824182033539,-0.317013680934906,-0.4437494277954101,0.2635973691940307
1935,1629709063637,0.3537279069423675,-0.2963264286518097,-0.4664773344993591,0.3308219313621521
1936,1629709063730,0.4058108925819397,-0.2693100869655609,-0.4603527784347534,0.4202532172203064
1937,1629709063856,0.4637281596660614,-0.2354062497615814,-0.4334417283535003,0.4950766563415527
1938,1629709063933,0.5080845355987549,-0.2003367841243744,-0.4020090997219085,0.5425792932510376
1939,1629709064060,0.5351778268814087,-0.172056645154953,-0.3722983002662658,0.5692036747932434
1940,1629709064139,0.5492143630981445,-0.156542882323265,-0.3435200452804565,0.5857607126235962
1941,1629709064201,0.552271842956543,-0.1527068167924881,-0.3181312084197998,0.5965551137924194
1942,1629709064341,0.5469960570335388,-0.1562733948230743,-0.3014120757579803,0.6019630432128906
1943,1629709064435,0.5387279987335205,-0.1652024835348129,-0.2946559190750122,0.6047434210777283
1944,1629709064560,0.5321303606033325,-0.1810078024864196,-0.2926692962646484,0.6088277101516724
1945,1629709064654,0.5333743691444397,-0.2041763365268707,-0.2908243536949157,0.6157756447792053
1946,1629709064716,0.5451819896697998,-0.2301490902900695,-0.2871071398258209,0.6233067512512207
1947,1629709064857,0.5671101808547974,-0.251151829957962,-0.2812420725822449,0.6291202306747437
1948,1629709064950,0.5898770093917847,-0.2645775079727173,-0.2725062966346741,0.6283937096595764
1949,1629709065064,0.6007087230682373,-0.2752125859260559,-0.2589713335037231,0.6143390536308289
1950,1629709065158,0.5929470658302307,-0.2909677922725677,-0.2455642372369766,0.5819936394691467
1951,1629709065252,0.5744820833206177,-0.3176533281803131,-0.2385683804750442,0.5389012694358826
1952,1629709065330,0.5652399063110352,-0.3516767919063568,-0.2376991063356399,0.5073190331459045
1953,1629709065408,0.5733236074447632,-0.3834816217422485,-0.2390758693218231,0.4991796016693115
1954,1629709065564,0.5862956643104553,-0.404511421918869,-0.241850346326828,0.5002914071083069
1955,1629709065673,0.5919463634490967,-0.4135989546775818,-0.2499811351299286,0.4925739467144012
1956,1629709065752,0.5945492386817932,-0.4143158495426178,-0.2647019028663635,0.4772015511989593
1957,1629709065829,0.6036538481712341,-0.4055253267288208,-0.2823890745639801,0.4682563841342926
1958,1629709065990,0.6182828545570374,-0.3867344558238983,-0.3016225099563598,0.4684256315231323
1959,1629709066068,0.6328564882278442,-0.3639684617519378,-0.3240583837032318,0.4697172045707702
1960,1629709066209,0.641746461391449,-0.3469337522983551,-0.3480357229709625,0.4674891233444214
1961,1629709066271,0.6477239727973938,-0.3378226459026336,-0.3654438555240631,0.4686825275421142
1962,1629709066380,0.6561387181282043,-0.3315406739711761,-0.3692871034145355,0.4811004400253296
1963,1629709066505,0.668260931968689,-0.3211456537246704,-0.3651582598686218,0.503075361251831
1964,1629709066568,0.6793652772903442,-0.2986742556095123,-0.3660525381565094,0.5239376425743103
1965,1629709066615,0.6814327836036682,-0.2571030259132385,-0.3812680840492248,0.5342503190040588
1966,1629709066787,0.6671085357666016,-0.2015517204999923,-0.4078373908996582,0.529280960559845
1967,1629709066883,0.6334448456764221,-0.1522965431213379,-0.4356087744235992,0.5079625248908997
1968,1629709066992,0.5840942859649658,-0.1244717463850975,-0.4521295428276062,0.4760676622390747
1969,1629709067101,0.5318173766136169,-0.1168093383312225,-0.4446361064910888,0.4453655183315277
1970,1629709067195,0.4922348856925964,-0.1140499114990234,-0.4101175963878631,0.4324338734149933
1971,1629709067273,0.4706456959247589,-0.1044990867376327,-0.3615887463092804,0.4460153579711914
1972,1629709067383,0.4579872786998749,-0.0872791111469268,-0.3152158558368683,0.4753298163414001
1973,1629709067523,0.4446341395378113,-0.0669873282313346,-0.2774984836578369,0.5025495886802673
1974,1629709067602,0.4358506500720978,-0.0463692285120487,-0.2456105947494506,0.5163401365280151
1975,1629709067664,0.422806054353714,-0.0288562793284654,-0.2160152196884155,0.5179058313369751
1976,1629709067773,0.3973236978054046,-0.0190528612583875,-0.1880744099617004,0.5120822787284851
1977,1629709067867,0.3465804755687713,-0.018098397180438,-0.1612774729728698,0.5001684427261353
1978,1629709068011,0.2659271359443664,-0.0232429336756467,-0.1334173530340194,0.4854809045791626
1979,1629709068104,0.1691560745239257,-0.0354495272040367,-0.1063442677259445,0.4693039059638977
1980,1629709068213,0.0934474393725395,-0.059860486537218,-0.0828060358762741,0.4635605216026306
1981,1629709068307,0.1897835433483123,-0.0970034301280975,-0.0639559999108314,0.4673650562763214
1982,1629709068416,0.3592320382595062,-0.1327959448099136,-0.0466637276113033,0.5002716779708862
1983,1629709068463,0.5239107608795166,-0.1491352468729019,-0.02928102388978,0.5615553259849548
1984,1629709068651,0.6510924100875854,-0.1446752846240997,-0.0167058538645505,0.6304113864898682
1985,1629709068729,0.7335678339004517,-0.1392714232206344,-0.0155883682891726,0.6802529692649841
1987,1629709068822,0.7775171399116516,-0.1502666473388672,-0.0261789578944444,0.6965181231498718
1986,1629709068869,0.8006052374839783,-0.1826415657997131,-0.0405040197074413,0.6873409152030945
1988,1629709068979,0.823261559009552,-0.2318683266639709,-0.0472364947199821,0.6800954937934875
1989,1629709069104,0.8291055560112,-0.2885891497135162,-0.0380487516522407,0.7076892852783203
1990,1629709069244,0.8606417179107666,-0.3399127125740051,-0.0102140074595808,0.7718037366867065
1991,1629709069385,0.8981537818908691,-0.3752345144748688,0.0297972988337278,0.8409703969955444
1992,1629709069432,0.922027587890625,-0.395359605550766,0.0693848729133606,0.889236569404602
1993,1629709069510,0.9247995615005492,-0.4067347347736358,0.0988169535994529,0.8884662389755249
1994,1629709069603,0.9103718996047974,-0.4098504185676574,0.118168719112873,0.870949387550354
1995,1629709069713,0.8879736661911011,-0.4053189754486084,0.1347790509462356,0.8467258810997009
1996,1629709069838,0.8780465126037598,-0.4030247032642364,0.1549466550350189,0.8393799066543579
1997,1629709069932,0.8610610961914062,-0.4162604510784149,0.17630435526371,0.8248090744018555
1998,1629709070029,0.8391000032424927,-0.4465903341770172,0.1926942020654678,0.7990224957466125
1999,1629709070107,0.8163504600524902,-0.4822103977203369,0.2012499272823333,0.7655447721481323
2000,1629709070217,0.7976083159446716,-0.5069079399108887,0.2042469084262848,0.7346038222312927
2001,1629709070326,0.7867481708526611,-0.5137214660644531,0.2057999521493911,0.7166435122489929
2002,1629709070435,0.7824728488922119,-0.5089942216873169,0.206793799996376,0.7089121341705322
2003,1629709070544,0.7795200347900391,-0.4968730807304382,0.2034824341535568,0.6971936821937561
2004,1629709070669,0.7648150324821472,-0.4698024988174438,0.1909810453653335,0.6626676917076111
2005,1629709070701,0.7252269983291626,-0.4167194068431854,0.1650948375463485,0.5919308662414551
2006,1629709070876,0.6611042022705078,-0.3457301259040832,0.124370627105236,0.490401953458786
2007,1629709070954,0.5909843444824219,-0.2787977457046509,0.0724474415183067,0.3933763206005096
2008,1629709071079,0.5474996566772461,-0.2308170944452285,0.0170739907771348,0.3549825847148895
2009,1629709071204,0.5471698641777039,-0.2043288946151733,-0.0341397672891616,0.3836056590080261
2010,1629709071235,0.5738420486450195,-0.1946558356285095,-0.0791268348693847,0.439640611410141
2011,1629709071360,0.6134800314903259,-0.1955188363790512,-0.1212268322706222,0.5023455023765564
2012,1629709071443,0.6668063402175903,-0.2027337998151779,-0.16016885638237,0.5724773406982422
2013,1629709071504,0.7320184111595154,-0.2127748429775238,-0.1901750862598419,0.6466963291168213
2014,1629709071632,0.7952036261558533,-0.2200821638107299,-0.2047179490327835,0.7121263146400452
2015,1629709071732,0.8416621685028076,-0.2179348021745681,-0.203347772359848,0.7579954266548157
2016,1629709071838,0.8658246994018555,-0.2034092098474502,-0.1895799487829208,0.7831701636314392
2017,1629709071997,0.8716335892677307,-0.1811215281486511,-0.1673697084188461,0.7937869429588318
2018,1629709072050,0.8678284883499146,-0.1627457439899444,-0.1421854943037033,0.7985877990722656
2019,1629709072171,0.8660101294517517,-0.1606824249029159,-0.12415312230587,0.806763768196106
2020,1629709072255,0.8739979267120361,-0.1834554523229599,-0.1190045103430748,0.8223909139633179
2021,1629709072388,0.8884809613227844,-0.2311019450426101,-0.1223641261458396,0.8403103947639465
2022,1629709072470,0.9012573957443236,-0.2896275520324707,-0.1240559369325637,0.852406919002533
2023,1629709072557,0.9053112268447876,-0.3380281031131744,-0.1180574148893356,0.852687418460846
2024,1629709072624,0.8991245627403259,-0.3600679039955139,-0.1059974059462547,0.8415651321411133
2025,1629709072715,0.8858835697174072,-0.354189932346344,-0.0950859487056732,0.8222842812538147
2026,1629709072900,0.8677530884742737,-0.3312482833862304,-0.093040645122528,0.79623943567276
2027,1629709072999,0.8424855470657349,-0.3055125772953033,-0.1042417362332344,0.7624662518501282
2028,1629709073041,0.8068920969963074,-0.2814916670322418,-0.1269003301858902,0.7222973108291626
2029,1629709073176,0.7632337212562561,-0.2543657422065735,-0.1542328596115112,0.682157039642334
2030,1629709073281,0.7223812937736511,-0.2186163663864135,-0.1791976392269134,0.650942862033844
2031,1629709073338,0.6974174976348877,-0.1800583750009536,-0.202801913022995,0.6316549777984619
2032,1629709073456,0.6944113373756409,-0.1481790691614151,-0.2309539169073104,0.6233057379722595
2033,1629709073588,0.7071051001548767,-0.1265744715929031,-0.2635821402072906,0.6227922439575195
2035,1629709073720,0.7185946702957153,-0.11011703312397,-0.2914370000362396,0.621245265007019
2034,1629709073766,0.7147454023361206,-0.0904375910758972,-0.3083368837833404,0.6109136343002319
2036,1629709073858,0.6975694298744202,-0.0652808398008346,-0.3173222541809082,0.5948524475097656
2037,1629709073973,0.6776195168495178,-0.0387687981128692,-0.3266156017780304,0.5811219215393066
2038,1629709074078,0.6647390723228455,-0.0156081095337867,-0.339917927980423,0.576302170753479
2039,1629709074172,0.660953164100647,0.0014867666177451,-0.3580321669578552,0.5798668265342712
2040,1629709074276,0.6628090739250183,0.0126682836562395,-0.3808551132678985,0.587978184223175
2041,1629709074383,0.6641444563865662,0.0213716123253107,-0.4056014716625213,0.5935272574424744
2042,1629709074520,0.655462920665741,0.0322950184345245,-0.4270161688327789,0.5857035517692566
2043,1629709074567,0.6301513910293579,0.044046189635992,-0.4427939653396606,0.5562000274658203
2044,1629709074702,0.592888593673706,0.0485086813569068,-0.4534082412719726,0.5063555836677551
2045,1629709074849,0.5584079623222351,0.037038542330265,-0.4565238356590271,0.4509229958057403
2046,1629709074891,0.5428136587142944,0.0099348602816462,-0.4532629251480102,0.4116772413253784
2047,1629709074982,0.5536588430404663,-0.0245590340346097,-0.4484336078166961,0.4033617973327636
2048,1629709075088,0.5845625996589661,-0.0574536733329296,-0.4451548159122467,0.4246269166469574
2049,1629709075146,0.6199681162834167,-0.0851173922419548,-0.4404974579811096,0.4602746069431305
2050,1629709075389,0.6467967629432678,-0.1115710735321044,-0.4313298165798187,0.4926857352256775
2051,1629709075429,0.6590626835823059,-0.1406982839107513,-0.4217976927757263,0.5080233812332153
2052,1629709075474,0.6605991125106812,-0.1739368438720703,-0.4189779460430145,0.5031254291534424
2053,1629709075637,0.6583104729652405,-0.2109109610319137,-0.4244839251041412,0.4845545589923858
2054,1629709075690,0.6568717360496521,-0.2502517998218536,-0.4353702664375305,0.4623783826828003
2055,1629709075796,0.6561175584793091,-0.29073566198349,-0.4442283511161804,0.4438026845455169
2056,1629709075891,0.6532992720603943,-0.3297805190086365,-0.4362109303474426,0.4323796927928924
2057,1629709076016,0.6471559405326843,-0.3615208268165588,-0.3926694691181183,0.4302896857261657
2058,1629709076095,0.6380317807197571,-0.3798341751098633,-0.3166238367557525,0.4370492696762085
2059,1629709076213,0.6276900768280029,-0.3845041692256927,-0.2380049675703048,0.4481582343578338
2060,1629709076282,0.6182469725608826,-0.3783146739006042,-0.1844676285982132,0.4594928920269012
2061,1629709076379,0.6088062524795532,-0.3652767539024353,-0.1594321131706237,0.4688466489315033
2062,1629709076536,0.5910161137580872,-0.3438586890697479,-0.1511779725551605,0.471615195274353
2063,1629709076597,0.5548219084739685,-0.3123334348201751,-0.1462479084730148,0.4626529216766357
2064,1629709076725,0.5001716017723083,-0.277328759431839,-0.1396872252225875,0.4451918303966522
2065,1629709076799,0.4397438168525696,-0.2478082925081253,-0.130377784371376,0.427018404006958
2066,1629709076899,0.3934358656406402,-0.2245227396488189,-0.1116364225745201,0.4188993573188782
2067,1629709077007,0.3711372911930084,-0.1968190968036651,-0.0767950192093849,0.4275086522102356
2068,1629709077144,0.3811432123184204,-0.1544137001037597,-0.0308541879057884,0.4619012176990509
2069,1629709077219,0.4304965138435364,-0.0990966483950614,0.0135916834697127,0.5269015431404114
2070,1629709077354,0.506217360496521,-0.0428596660494804,0.0463184900581836,0.6054715514183044
2071,1629709077399,0.5794103145599365,0.0027609893586486,0.0616027824580669,0.6718787550926208
2072,1629709077523,0.6298699975013733,0.0312948636710643,0.0555447302758693,0.7106746435165405
2073,1629709077610,0.6581698060035706,0.0431967005133628,0.0255922507494688,0.7238970994949341
2074,1629709077727,0.6773055195808411,0.0454516969621181,-0.0220407266169786,0.726318359375
2075,1629709077830,0.702766478061676,0.046721938997507,-0.0702421963214874,0.7348089814186096
2076,1629709077934,0.7393268346786499,0.0523201301693916,-0.1041803285479545,0.7548444271087646
2077,1629709078013,0.7781075835227966,0.0607591159641742,-0.1229021102190017,0.778275728225708
2078,1629709078114,0.8070871233940125,0.0683770030736923,-0.1350430250167846,0.7919763326644897
2079,1629709078201,0.8212502002716064,0.0725808888673782,-0.1448967456817627,0.7892061471939087
2080,1629709078332,0.8264874815940857,0.0731945037841796,-0.1534295827150344,0.7750644087791443
2081,1629709078461,0.8323354721069336,0.0692939236760139,-0.1682848185300827,0.7602348923683167
2083,1629709078603,0.8473691344261169,0.0557714663445949,-0.2015829980373382,0.7563725113868713
2082,1629709078615,0.8687809109687805,0.0272322203963994,-0.2541599869728088,0.7642164826393127
2084,1629709078729,0.8847639560699463,-0.0145670110359787,-0.3038177192211151,0.7709299921989441
2085,1629709078831,0.8858041763305664,-0.0574692636728286,-0.3197449743747711,0.7645136117935181
2086,1629709078928,0.8720768094062805,-0.0828971713781356,-0.2985880076885223,0.7444943189620972
2087,1629709079072,0.8532806634902954,-0.0780041441321373,-0.2658304870128631,0.7224568724632263
2088,1629709079158,0.8402544260025024,-0.0501927733421325,-0.2365514934062957,0.7118573784828186
2089,1629709079257,0.8342833518981934,-0.0194449797272682,-0.2107592672109604,0.7128360867500305
2090,1629709079339,0.8297072052955627,-0.0004854734579566,-0.1874987035989761,0.7154980301856995
2091,1629709079433,0.8238899111747742,0.0020887334831058,-0.1678190380334854,0.7153308391571045
2092,1629709079572,0.8206655383110046,-0.0096714254468679,-0.1524827033281326,0.7168442010879517
2093,1629709079666,0.823929488658905,-0.0293058957904577,-0.1411420255899429,0.7262276411056519
2094,1629709079785,0.8343917727470398,-0.0466178767383098,-0.1346979141235351,0.7441387176513672
2095,1629709079864,0.846623957157135,-0.0537242107093334,-0.1327790915966034,0.7636250257492065
2096,1629709079964,0.8557143807411194,-0.0507262088358402,-0.1312936395406723,0.7793201804161072
2097,1629709080023,0.8553741574287415,-0.0417899116873741,-0.1268484592437744,0.7846686244010925
2098,1629709080173,0.8407112956047058,-0.0306790713220834,-0.123506911098957,0.7729347348213196
2099,1629709080319,0.8129882216453552,-0.0226659495383501,-0.1322002559900283,0.7448088526725769
2100,1629709080402,0.7813713550567627,-0.026083955541253,-0.1588149517774582,0.7110216021537781
2101,1629709080477,0.7564201354980469,-0.0498083569109439,-0.1951584070920944,0.6855369210243225
2102,1629709080584,0.7428534030914307,-0.0996480956673622,-0.2243242710828781,0.6747671961784363
2103,1629709080700,0.7355037927627563,-0.1729329228401184,-0.2334189414978027,0.6748437285423279
2104,1629709080818,0.7295522689819336,-0.256804496049881,-0.2224894911050796,0.6837239265441895
2105,1629709080879,0.7209899425506592,-0.3315727710723877,-0.2007098644971847,0.696701169013977
2106,1629709080987,0.7076409459114075,-0.3829176723957062,-0.1791175752878189,0.7059281468391418
2107,1629709081100,0.6866998076438904,-0.4104930758476257,-0.166384607553482,0.7037398815155029
2108,1629709081163,0.6605813503265381,-0.4281477630138397,-0.1636189073324203,0.6941201686859131
2109,1629709081253,0.6323837637901306,-0.4531770050525665,-0.1641556471586227,0.684303879737854
2110,1629709081400,0.6095161437988281,-0.4950078427791595,-0.1611504107713699,0.6788869500160217
2111,1629709081506,0.5962156653404236,-0.5491108298301697,-0.1549100130796432,0.673445999622345
2112,1629709081583,0.5928976535797119,-0.5997896194458008,-0.1461289823055267,0.6665103435516357
2113,1629709081688,0.5959415435791016,-0.6259862780570984,-0.132834792137146,0.6603689789772034
2114,1629709081807,0.6024354696273804,-0.6098778247833252,-0.1152217835187912,0.6575095057487488
2115,1629709081914,0.6090272068977356,-0.5511632561683655,-0.0976225137710571,0.6573575139045715
2116,1629709082020,0.61747145652771,-0.4778256416320801,-0.0850448384881019,0.6608654856681824
2117,1629709082108,0.6269542574882507,-0.4182085692882538,-0.0783604383468627,0.6699761152267456
2118,1629709082212,0.635816752910614,-0.38352170586586,-0.0764499306678772,0.683298647403717
2119,1629709082281,0.6397032141685486,-0.3692452311515808,-0.0813088938593864,0.6899008750915527
2120,1629709082371,0.6358009576797485,-0.3655582368373871,-0.0945438742637634,0.6813694834709167
2121,1629709082513,0.6190401911735535,-0.362498790025711,-0.1136900708079338,0.6554592847824097
2122,1629709082632,0.5877062678337097,-0.3514815270900726,-0.1323744654655456,0.6184772253036499
2123,1629709082705,0.5460600852966309,-0.3292935788631439,-0.1466656476259231,0.5774326324462891
2124,1629709082813,0.5066344738006592,-0.3008529841899872,-0.1592887341976165,0.538086473941803
2125,1629709082911,0.4749733805656433,-0.2735490202903747,-0.175218716263771,0.5035752058029175
2126,1629709083009,0.4442844688892364,-0.2517148554325104,-0.194420501589775,0.4781210422515869
2127,1629709083090,0.413081407546997,-0.2377073913812637,-0.2173582166433334,0.4653923809528351
2128,1629709083193,0.4082329571247101,-0.2338735908269882,-0.2474494576454162,0.4790641665458679
2129,1629709083351,0.4625454246997833,-0.2423064708709716,-0.2869260907173157,0.5296034216880798
2130,1629709083416,0.5591573715209961,-0.2593660056591034,-0.3333300650119781,0.6019424796104431
2131,1629709083513,0.6493459343910217,-0.2708104252815246,-0.3806769847869873,0.6659461259841919
2132,1629709083615,0.7057198286056519,-0.2598585188388824,-0.4267085790634155,0.7026103734970093
2133,1629709083749,0.7281398773193359,-0.2234854996204376,-0.4756560027599334,0.7098517417907715
2134,1629709083846,0.7300014495849609,-0.1770657300949096,-0.525093138217926,0.6989222168922424
2135,1629709083914,0.7255971431732178,-0.136665865778923,-0.5562437176704407,0.6846100091934204
2136,1629709084062,0.7209596037864685,-0.1098701059818267,-0.5479872226715088,0.6762433648109436
2137,1629709084176,0.7171081900596619,-0.0984222516417503,-0.5044306516647339,0.6750910878181458
2138,1629709084228,0.7135933041572571,-0.100741371512413,-0.4512627422809601,0.6753573417663574
2139,1629709084323,0.7103845477104187,-0.1126859635114669,-0.4053713381290436,0.6734381914138794
2140,1629709084437,0.707761824131012,-0.12811379134655,-0.3643350899219513,0.6719683408737183
2141,1629709084547,0.7057446241378784,-0.1418416500091552,-0.3254733681678772,0.6745375990867615
2142,1629709084623,0.7007735967636108,-0.1517430245876312,-0.2930706441402435,0.6776438355445862
2143,1629709084715,0.6826210618019104,-0.1592087894678115,-0.2723499834537506,0.6680722832679749
2144,1629709084819,0.6396656632423401,-0.167371779680252,-0.2580290734767914,0.6313024163246155
2145,1629709084917,0.5760621428489685,-0.1778043508529663,-0.2388285398483276,0.5674008131027222
2146,1629709085038,0.5150805711746216,-0.1888492703437805,-0.2110491693019867,0.4963902235031128
2147,1629709085170,0.4869741797447204,-0.2012130916118621,-0.1814413070678711,0.4519073367118835
2148,1629709085258,0.4939227104187011,-0.2210972309112548,-0.1581997126340866,0.4524020850658417
2149,1629709085352,0.5151044726371765,-0.2542579472064972,-0.1445107012987136,0.4824093878269195
2150,1629709085459,0.5320303440093994,-0.2997530996799469,-0.1397756487131118,0.5167770981788635
2151,1629709085529,0.5420047640800476,-0.3471461832523346,-0.1421467959880828,0.5438739061355591
2152,1629709085705,0.5509848594665527,-0.3822941780090332,-0.148874282836914,0.5664739012718201
2153,1629709085784,0.5738253593444824,-0.3970212638378143,-0.1567999571561813,0.5988993048667908
2154,1629709085886,0.6229039430618286,-0.3931349813938141,-0.1624205410480499,0.650739312171936
2155,1629709085915,0.6886162757873535,-0.3782571852207184,-0.1684180200099945,0.7101294994354248
2156,1629709086032,0.7477317452430725,-0.3541546463966369,-0.1783635467290878,0.7558397650718689
2157,1629709086134,0.7862025499343872,-0.3160492777824402,-0.1902181208133697,0.7783094048500061
2158,1629709086266,0.8018420934677124,-0.2668246626853943,-0.1976813673973083,0.7813501358032227
2159,1629709086367,0.7983071208000183,-0.2220605164766311,-0.2009741514921188,0.7754265069961548
2160,1629709086471,0.7777405381202698,-0.1964064687490463,-0.2045506238937378,0.7667218446731567
2161,1629709086613,0.7438080906867981,-0.1951075047254562,-0.2085951864719391,0.7558996677398682
2162,1629709086667,0.7067438960075378,-0.2103511393070221,-0.2041388899087906,0.7426660656929016
2163,1629709086737,0.6796211004257202,-0.2268156260251999,-0.1857851892709732,0.7274213433265686
2164,1629709086935,0.6688529849052429,-0.2317992150783538,-0.1573193669319152,0.7128317356109619
2165,1629709086983,0.6749013662338257,-0.2251472622156143,-0.1251464784145355,0.7057225108146667
2166,1629709087096,0.697165310382843,-0.2167404592037201,-0.0884690657258033,0.7141851782798767
2167,1629709087168,0.728007435798645,-0.214315578341484,-0.0456817299127578,0.7342758178710938
2168,1629709087254,0.7484544515609741,-0.2153580486774444,-0.0017222282476723,0.7470683455467224
2169,1629709087368,0.7419444918632507,-0.211847722530365,0.0317755974829196,0.7366646528244019
2170,1629709087509,0.71058189868927,-0.2009639143943786,0.0482008829712867,0.7093201875686646
2171,1629709087595,0.6755731701850891,-0.1904082745313644,0.0491720177233219,0.6906766891479492
2172,1629709087695,0.6562523245811462,-0.1887231171131134,0.042085513472557,0.6965841054916382
2173,1629709087821,0.654344379901886,-0.1941844373941421,0.0344492569565773,0.7159326672554016
2174,1629709087860,0.6587265729904175,-0.1946844309568405,0.0294351372867822,0.7291039228439331
2175,1629709087984,0.6632953882217407,-0.1841002106666565,0.0268370732665061,0.730823814868927
2176,1629709088172,0.6682068705558777,-0.1688367873430252,0.0251355487853288,0.7270433902740479
2177,1629709088218,0.6716197729110718,-0.1604537367820739,0.0203589629381895,0.7223195433616638
2178,1629709088312,0.6707970499992371,-0.1637978851795196,0.0093891294673085,0.7167133092880249
2179,1629709088390,0.6661580204963684,-0.1751956641674041,-0.0102349193766713,0.7113659381866455
2180,1629709088453,0.6553544402122498,-0.1865710318088531,-0.036233689635992,0.703855574131012
2181,1629709088593,0.6312856674194336,-0.1909814924001693,-0.0626824274659156,0.685986340045929
2182,1629709088718,0.5897456407546997,-0.1874743998050689,-0.0832301974296569,0.6530088782310486
2183,1629709088781,0.5417418479919434,-0.1839103698730468,-0.0959336683154106,0.6125566959381104
2184,1629709088940,0.5120012164115906,-0.1891701966524124,-0.100039318203926,0.5835524797439575
2185,1629709089033,0.5107266306877136,-0.2074005305767059,-0.0909359157085418,0.572221577167511
2186,1629709089064,0.5202741622924805,-0.2368857413530349,-0.0653800219297409,0.5669170618057251
2187,1629709089174,0.5223901271820068,-0.2761234641075134,-0.0308966971933841,0.5570815801620483
2188,1629709089346,0.5189288854598999,-0.3263098001480102,-0.0016274024965241,0.5465970039367676
2189,1629709089439,0.518422544002533,-0.3870415985584259,0.0164243541657924,0.5362473726272583
2190,1629709089486,0.5246639847755432,-0.4512249231338501,0.0257800128310918,0.5450254082679749
2191,1629709089627,0.5314582586288452,-0.5077700614929199,0.0310193598270416,0.5620923042297363
2192,1629709089721,0.5339615941047668,-0.5495755672454834,0.0348771326243877,0.5798715353012085
2193,1629709089845,0.5317461490631104,-0.5729223489761353,0.0376125238835811,0.5973945260047913
2194,1629709089958,0.5253411531448364,-0.5785350799560547,0.0437963269650936,0.5804319381713867
2195,1629709090067,0.519051730632782,-0.5765698552131653,0.0571944341063499,0.5592414736747742
2196,1629709090161,0.5193136930465698,-0.5788264870643616,0.0734794214367866,0.5406669974327087
2197,1629709090239,0.5353931188583374,-0.5895055532455444,0.0816522613167762,0.5394534468650818
2198,1629709090332,0.5620627999305725,-0.5983811020851135,0.0771927535533905,0.5572381019592285
2199,1629709090410,0.578890323638916,-0.5957599878311157,0.0644278451800346,0.5732586979866028
2200,1629709090520,0.569821298122406,-0.5801877379417419,0.0478278622031211,0.5520720481872559
2201,1629709090629,0.5389392971992493,-0.5541698932647705,0.0264534689486026,0.4850499331951141
2202,1629709090738,0.5055277347564697,-0.5212578177452087,0.0002472991473041,0.3812943994998932
2203,1629709090848,0.4809772670269012,-0.4863793551921844,-0.022283136844635,0.262274295091629
2204,1629709090929,0.4628501832485199,-0.4575802087783813,-0.0331913568079471,0.2324811816215515
2205,1629709091038,0.4403337836265564,-0.4372255504131317,-0.0359931923449039,0.2085243314504623
2206,1629709091194,0.4113929569721222,-0.418169766664505,-0.0411459952592849,0.1887776404619217
2207,1629709091257,0.3842665553092956,-0.3923343122005462,-0.0518436729907989,0.1731008291244506
2208,1629709091398,0.3666958808898926,-0.3622773289680481,-0.0606884360313415,0.162298709154129
2209,1629709091476,0.356724739074707,-0.337430328130722,-0.0644421204924583,0.1596329510211944
2210,1629709091554,0.3441644310951233,-0.320880264043808,-0.073008544743061,0.1547342985868454
2211,1629709091647,0.3218166828155517,-0.3109131455421448,-0.097857654094696,0.1466821134090423
2212,1629709091741,0.2890434861183166,-0.3059573173522949,-0.1359623223543167,0.1300565153360366
2213,1629709091882,0.2640120685100555,-0.3073630332946777,-0.171605959534645,0.1099914908409118
2214,1629709091979,0.2687735855579376,-0.314501404762268,-0.1908459067344665,0.1485188007354736
2215,1629709092166,0.3027940094470978,-0.3238576650619507,-0.194472998380661,0.1614048182964325
2216,1629709092182,0.3377152979373932,-0.331515908241272,-0.192586749792099,0.1864530742168426
2217,1629709092260,0.3526870310306549,-0.3381187319755554,-0.1936294436454773,0.2112484574317932
2218,1629709092354,0.3534371852874756,-0.347282350063324,-0.2015179097652435,0.2327969521284103
2219,1629709092525,0.3528675734996795,-0.3601264655590057,-0.2157667726278305,0.2517844438552856
2220,1629709092603,0.3555091917514801,-0.3750954270362854,-0.2322196364402771,0.2649305462837219
2221,1629709092635,0.3592636585235595,-0.3952182531356811,-0.2431337684392929,0.2753472626209259
2222,1629709092775,0.3602762818336487,-0.4244814217090606,-0.2437313199043274,0.2892042994499206
2223,1629709092853,0.3572401106357574,-0.4625464081764221,-0.2358344495296478,0.3074789345264435
2224,1629709093027,0.3518363535404205,-0.4994459450244903,-0.2244559675455093,0.3259091377258301
2225,1629709093090,0.3445934057235718,-0.5244457721710205,-0.2135741114616394,0.3392657339572906
2226,1629709093184,0.3364334106445312,-0.5299832820892334,-0.2079123556613922,0.3499006330966949
2227,1629709093262,0.3272571265697479,-0.5151333212852478,-0.2118234634399414,0.3673124313354492
2228,1629709093387,0.322192370891571,-0.4858864247798919,-0.2248960137367248,0.4084551930427551
2229,1629709093465,0.3309017419815063,-0.454435795545578,-0.2406987100839615,0.4772527515888214
2230,1629709093574,0.3567163050174713,-0.4252943098545074,-0.2507014274597168,0.5526789426803589
2231,1629709093715,0.3914266526699066,-0.3911647796630859,-0.247520238161087,0.6095812320709229
2232,1629709093809,0.430555522441864,-0.3397404253482818,-0.2297163605690002,0.6388989686965942
2233,1629709093902,0.471920371055603,-0.2725016474723816,-0.2042979300022125,0.6464481353759766
2234,1629709093965,0.5274591445922852,-0.2049490958452224,-0.1813594549894333,0.6473278999328613
2235,1629709094090,0.6034421324729919,-0.1511070132255554,-0.1683448255062103,0.6532917618751526
2236,1629709094215,0.6864324808120728,-0.1136895269155502,-0.1685318648815155,0.6649741530418396
2237,1629709094308,0.7535146474838257,-0.0896908342838287,-0.1822842806577682,0.6748720407485962
2238,1629709094387,0.7950725555419922,-0.0747856348752975,-0.208263024687767,0.6772976517677307
2239,1629709094511,0.8151248097419739,-0.0668863728642463,-0.2385009527206421,0.6732569336891174
2240,1629709094605,0.8260576128959656,-0.0646087527275085,-0.2550485134124756,0.6692333817481995
2241,1629709094715,0.8348684906959534,-0.0667564123868942,-0.2430318146944046,0.6686915755271912
2242,1629709094871,0.8406678438186646,-0.0707435384392738,-0.2102481871843338,0.6659623384475708
2243,1629709094933,0.8398982286453247,-0.0687175318598747,-0.1811558902263641,0.645585834980011
2244,1629709095027,0.829713761806488,-0.0510014221072196,-0.1723069995641708,0.593229353427887
2245,1629709095121,0.8115254640579224,-0.0200747195631265,-0.1842683106660843,0.5089884996414185
2246,1629709095214,0.7913005352020264,0.0075490768067538,-0.2078439146280288,0.4174947440624237
2247,1629709095293,0.7725327014923096,0.0155375031754374,-0.233027309179306,0.356937050819397
2248,1629709095418,0.753180205821991,-0.0015451628714799,-0.2526099979877472,0.341502845287323
2249,1629709095527,0.7223974466323853,-0.0372739993035793,-0.263760507106781,0.3451049029827118
2250,1629709095621,0.6677256226539612,-0.0785388126969337,-0.2641920149326324,0.3413454890251159
2251,1629709095746,0.5850875377655029,-0.1143968924880027,-0.253771036863327,0.3247172236442566
2252,1629709095839,0.4926623404026031,-0.1403983682394027,-0.2381616830825805,0.3045786321163177
2253,1629709095902,0.4241687953472137,-0.1576372236013412,-0.2249525487422943,0.2927403151988983
2254,1629709096027,0.3976379930973053,-0.1690927892923355,-0.2219607979059219,0.2887640297412872
2255,1629709096183,0.390815794467926,-0.1778367608785629,-0.23436239361763,0.2801135182380676
2257,1629709096277,0.3805479407310486,-0.1872361302375793,-0.2630291283130646,0.2562706470489502
2256,1629709096339,0.361875981092453,-0.2012687921524047,-0.3005242645740509,0.2173144817352295
2258,1629709096417,0.3321986496448517,-0.2276792824268341,-0.3330422937870025,0.172615110874176
2259,1629709096495,0.2903110682964325,-0.2744799554347992,-0.3441137075424194,0.1355181187391281
2260,1629709096667,0.2405356764793396,-0.342066079378128,-0.3242137432098388,0.116936445236206
2261,1629709096730,0.1938916444778442,-0.4175869822502136,-0.2757006883621216,0.1172109767794609
2262,1629709096823,0.1622737348079681,-0.4777357876300812,-0.2145042866468429,0.1280726790428161
2263,1629709096949,0.1570173799991607,-0.4960987865924835,-0.1593702435493469,0.1420847773551941
2264,1629709097044,0.1814450025558471,-0.4677143394947052,-0.1198448836803436,0.1619531512260437
2265,1629709097154,0.2280220687389373,-0.4143359363079071,-0.0959048196673393,0.1962477713823318
2266,1629709097263,0.2779160141944885,-0.363321989774704,-0.0837040618062019,0.2404180169105529
2267,1629709097372,0.3126090764999389,-0.3273448944091797,-0.0781859010457992,0.2797768414020538
2268,1629709097466,0.323953241109848,-0.3056119382381439,-0.0769357606768608,0.3030786514282226
2269,1629709097528,0.3169342875480652,-0.2919631600379944,-0.0774850845336914,0.3122938871383667
2270,1629709097607,0.305568516254425,-0.2817175090312958,-0.079652115702629,0.3161749839782715
2271,1629709097700,0.3096831440925598,-0.2700143754482269,-0.0804680734872818,0.3257825076580047
2272,1629709097861,0.341244488954544,-0.2528601288795471,-0.0741937682032585,0.3487149775028229
2273,1629709097970,0.4013208448886871,-0.2321859300136566,-0.0571007132530212,0.3918404579162597
2274,1629709098080,0.4765122234821319,-0.216490238904953,-0.0353896915912628,0.4552156627178192
2275,1629709098204,0.5482621788978577,-0.211847573518753,-0.0215365067124366,0.5265309810638428
2276,1629709098283,0.6051723957061768,-0.2172465920448303,-0.027297269552946,0.5917134284973145
2277,1629709098361,0.6442552208900452,-0.2269036471843719,-0.0560628063976764,0.6408398747444153
2278,1629709098470,0.6657860279083252,-0.2412826120853424,-0.1009923741221427,0.6697344779968262
2279,1629709098611,0.6716197729110718,-0.2655442655086517,-0.145776018500328,0.6781003475189209
2280,1629709098689,0.6643670797348022,-0.3014290928840637,-0.1735112816095352,0.6693471074104309
2281,1629709098795,0.6522469520568848,-0.3391985595226288,-0.1737893968820572,0.654462456703186
2282,1629709098832,0.6451733112335205,-0.364381194114685,-0.1478462070226669,0.6469605565071106
2283,1629709098926,0.6477277874946594,-0.3697986304759979,-0.1074899137020111,0.6522297263145447
2284,1629709099082,0.6572714447975159,-0.3588081002235412,-0.0685227736830711,0.6631179451942444
2285,1629709099145,0.6691603064537048,-0.3400872945785522,-0.0401346459984779,0.6705302000045776
2286,1629709099285,0.6769523620605469,-0.3252170383930206,-0.025243729352951,0.6690759658813477
2287,1629709099395,0.6751977205276489,-0.3238774836063385,-0.0227451864629983,0.6584147810935974
2288,1629709099473,0.6587256789207458,-0.3380849063396454,-0.0306525211781263,0.6359021663665771
2289,1629709099551,0.6296171545982361,-0.3611819446086883,-0.0447294674813747,0.5979587435722351
2290,1629709099723,0.5962794423103333,-0.384761780500412,-0.0600697919726371,0.543414831161499
2291,1629709099769,0.5671363472938538,-0.4045152366161346,-0.0726890861988067,0.4730042219161987
2292,1629709099897,0.5464028120040894,-0.4216457009315491,-0.0794385150074958,0.3924623429775238
2293,1629709099959,0.5325655937194824,-0.435517817735672,-0.07688470184803,0.3170888423919678
2294,1629709100069,0.5254707336425781,-0.4423858523368835,-0.0653430074453353,0.2704977691173553
2295,1629709100131,0.5270430445671082,-0.4420545995235443,-0.0523616038262844,0.2640572488307953
2296,1629709100319,0.5317457318305969,-0.4421209990978241,-0.0502792820334434,0.2755954265594482
2297,1629709100366,0.5307468175888062,-0.4504518806934356,-0.0686343610286712,0.2757866382598877
2298,1629709100459,0.5206421613693237,-0.4702809453010559,-0.107266865670681,0.2566781342029571
2299,1629709100585,0.5037767291069031,-0.4992867112159729,-0.1555726379156112,0.232604295015335
2300,1629709100647,0.4849912226200104,-0.5288177728652954,-0.1987570077180862,0.2211710661649704
2301,1629709100837,0.4683471024036407,-0.5397861003875732,-0.2280015796422958,0.2270188182592392
2302,1629709100946,0.4577344059944153,-0.5194929838180542,-0.2445321381092071,0.2423592954874038
2303,1629709101040,0.4557413458824157,-0.4768896400928497,-0.2538699507713318,0.2626532912254333
2304,1629709101087,0.4571060240268707,-0.4344630241394043,-0.26078000664711,0.2860191166400909
2305,1629709101212,0.4528797268867492,-0.4070288240909576,-0.2672892212867737,0.3070520162582397
2306,1629709101274,0.438446581363678,-0.3948871195316314,-0.2729887068271637,0.3217713534832001
2307,1629709101399,0.4143661856651306,-0.3900957703590393,-0.2785272896289825,0.3291917741298675
2308,1629709101508,0.3880461156368255,-0.3879017531871795,-0.2880584001541137,0.3301098346710205
2309,1629709101602,0.3626840710639953,-0.3872980773448944,-0.3086570501327514,0.3240168988704681
2310,1629709101743,0.3357907235622406,-0.3879253566265106,-0.3429419994354248,0.3089287579059601
2311,1629709101822,0.3051637411117553,-0.389147400856018,-0.3842598497867584,0.2838609218597412
2312,1629709101870,0.2738872170448303,-0.3931234180927276,-0.4159550368785858,0.2549298703670501
2313,1629709101995,0.2501127123832702,-0.4020313322544098,-0.4203934073448181,0.2341945171356201
2314,1629709102120,0.2413678765296936,-0.4147467315196991,-0.3973631858825683,0.2385064512491226
2315,1629709102276,0.25171959400177,-0.4295459389686584,-0.3646951019763946,0.2819957137107849
2316,1629709102370,0.2845877408981323,-0.4540576934814453,-0.3411243855953216,0.3610570430755615
2317,1629709102417,0.339770644903183,-0.497791975736618,-0.3350322246551513,0.4543566703796386
2318,1629709102511,0.4094533026218414,-0.5628927946090698,-0.3393737375736236,0.5382683873176575
2319,1629709102589,0.4770236611366272,-0.6375683546066284,-0.3396368622779846,0.5969862341880798
2320,1629709102761,0.5330504179000854,-0.6960005164146423,-0.3246938586235046,0.6321113109588623
2321,1629709102854,0.5758579969406128,-0.7160101532936096,-0.2953334152698517,0.6543755531311035
2322,1629709102935,0.6093257665634155,-0.693060576915741,-0.263005793094635,0.6739547848701477
2323,1629709103029,0.637429416179657,-0.6148171424865723,-0.2411268949508667,0.6929625272750854
2324,1629709103107,0.6645182967185974,-0.4703590869903564,-0.2334891259670257,0.7085172533988953
2325,1629709103263,0.6931391954421997,-0.2906930148601532,-0.2315012961626052,0.7185273170471191
2326,1629709103357,0.7253690958023071,-0.1280995011329651,-0.22535240650177,0.7258173823356628
2327,1629709103482,0.7595975399017334,-0.0092295790091156,-0.2165333330631256,0.7318478226661682
2328,1629709103544,0.7910140156745911,0.0631200969219207,-0.2169287949800491,0.7347657680511475
2329,1629709103654,0.8139347434043884,0.0993191227316856,-0.2345449477434158,0.7299616932868958
2330,1629709103763,0.8243884444236755,0.114102192223072,-0.2656875252723694,0.7132640480995178
2331,1629709103779,0.820618748664856,0.1208154410123825,-0.2991434037685394,0.6832661628723145
2332,1629709103985,0.8015493750572205,0.127656802535057,-0.3248438835144043,0.6409174203872681
2333,1629709104032,0.7672733068466187,0.1369895786046981,-0.3415251672267914,0.589102029800415
2334,1629709104157,0.7244139909744263,0.1487597674131393,-0.3555475175380707,0.5352200865745544
2335,1629709104251,0.6897984147071838,0.1638673096895218,-0.3694844841957092,0.4920549094676971
2336,1629709104360,0.6821975708007812,0.1823912113904953,-0.3833253383636474,0.4700159132480621
2337,1629709104470,0.7004388570785522,0.1999554932117462,-0.3973744511604309,0.4675891995429992
2338,1629709104611,0.7236270308494568,0.2064705640077591,-0.4119226932525635,0.4722076952457428
2339,1629709104641,0.7326678037643433,0.189775750041008,-0.4272359907627105,0.4732462465763092
2340,1629709104782,0.7217215299606323,0.140432134270668,-0.4452358484268188,0.4677021205425262
2341,1629709104860,0.6952284574508667,0.0583214536309242,-0.4637774229049682,0.4566806256771087
2342,1629709104923,0.6608310341835022,-0.0437807664275169,-0.4732496440410614,0.4435657560825348
2343,1629709105048,0.626448929309845,-0.1391245275735855,-0.4540742039680481,0.4338459372520447
2344,1629709105188,0.6022870540618896,-0.2026061862707138,-0.3975937068462372,0.4353862106800079
2345,1629709105297,0.5936761498451233,-0.2323228865861892,-0.3210952281951904,0.4463526606559753
2346,1629709105391,0.5969235897064209,-0.2414111942052841,-0.2511402666568756,0.4546062648296356
2347,1629709105469,0.6060848832130432,-0.2409212440252304,-0.2031985223293304,0.4501996636390686
2348,1629709105563,0.6187719106674194,-0.2380692064762115,-0.1788167357444763,0.4374913573265075
2349,1629709105657,0.6326537132263184,-0.2425039112567901,-0.1692823767662048,0.4311584234237671
2350,1629709105782,0.6352404356002808,-0.2671059072017669,-0.1629648804664611,0.4310186803340912
2351,1629709105875,0.6114006042480469,-0.3207848668098449,-0.1527644395828247,0.422463595867157
2352,1629709105969,0.5573785305023193,-0.3987807333469391,-0.1365860849618911,0.3974598050117492
2353,1629709106079,0.4915101528167724,-0.4763778448104858,-0.1184897422790527,0.3662601113319397
2354,1629709106172,0.4447515904903412,-0.5206195116043091,-0.1035178899765014,0.3453136682510376
2355,1629709106250,0.4382424056529999,-0.5203433036804199,-0.0946670696139335,0.3436240255832672
2356,1629709106453,0.4588302671909332,-0.4973947405815124,-0.0904639139771461,0.3553768396377563
2357,1629709106485,0.4844253063201904,-0.4752377271652221,-0.0879541262984275,0.3718306124210357
2358,1629709106578,0.5032378435134888,-0.4631226658821106,-0.0875477865338325,0.3853893280029297
2359,1629709106688,0.5108982920646667,-0.4596665799617767,-0.0943702757358551,0.3881222605705261
2360,1629709106828,0.5089012384414673,-0.4584407806396484,-0.1122456938028335,0.3787851631641388
2361,1629709106875,0.5022807121276855,-0.4557411670684814,-0.1359210461378097,0.3636620342731476
2362,1629709106985,0.5003269910812378,-0.4499452710151672,-0.1538010686635971,0.3573727607727051
2363,1629709107156,0.514301598072052,-0.4369870722293854,-0.1583231687545776,0.3815126121044159
2364,1629709107203,0.5488768815994263,-0.4121999740600586,-0.1531971096992492,0.4515714049339294
2365,1629709107281,0.598846435546875,-0.3775690495967865,-0.1499573439359665,0.5509227514266968
2366,1629709107422,0.6530008912086487,-0.341090053319931,-0.1586144417524337,0.6454157829284668
2367,1629709107485,0.7042917609214783,-0.3105448186397552,-0.181117907166481,0.713288426399231
2368,1629709107641,0.7480023503303528,-0.2912195920944214,-0.2095475047826767,0.7533125877380371
2369,1629709107703,0.7803058624267578,-0.2864203453063965,-0.2335985153913498,0.7743446230888367
2370,1629709107828,0.7975780367851257,-0.2959824800491333,-0.2474869638681411,0.7842016220092773
2371,1629709107909,0.8013829588890076,-0.3129464089870453,-0.2536232769489288,0.7866122126579285
2372,1629709108018,0.7962311506271362,-0.3276869654655456,-0.2574460208415985,0.7836143970489502
2373,1629709108081,0.7870967388153076,-0.3334101736545563,-0.2656579315662384,0.7778851985931396
2374,1629709108221,0.7778834104537964,-0.3297239243984222,-0.2806217968463897,0.7719853520393372
2375,1629709108315,0.7706596255302429,-0.3242789208889007,-0.2945440113544464,0.7671306133270264
2376,1629709108440,0.7671265602111816,-0.3269082903861999,-0.2932541072368622,0.7641341686248779
2377,1629709108502,0.7649286985397339,-0.3424548804759979,-0.2703967094421386,0.7607982754707336
2378,1629709108643,0.7575830817222595,-0.3658920228481293,-0.2360731810331344,0.7490668892860413
2379,1629709108721,0.7423418760299683,-0.3815042376518249,-0.205914095044136,0.7191122770309448
2380,1629709108830,0.7232955694198608,-0.3742267489433288,-0.1905930936336517,0.6696110367774963
2381,1629709108942,0.7045106291770935,-0.3474795222282409,-0.1895524859428405,0.6112500429153442
2382,1629709109005,0.6819884777069092,-0.3197522759437561,-0.1973274797201156,0.5588244199752808
2383,1629709109177,0.6479244828224182,-0.3048990964889526,-0.2064144760370254,0.5175977945327759
2384,1629709109224,0.6042181253433228,-0.3002039194107055,-0.2120635360479354,0.4846394658088684
2385,1629709109317,0.5656017661094666,-0.2881915271282196,-0.2155986875295639,0.4609562158584595
2386,1629709109474,0.545852780342102,-0.2526540160179138,-0.2221196293830871,0.4525636732578277
2387,1629709109520,0.5469680428504944,-0.1977530568838119,-0.2350740432739257,0.462079256772995
2388,1629709109661,0.5599591732025146,-0.1441128849983215,-0.2513399720191955,0.4829548895359039
2389,1629709109724,0.5750579237937927,-0.1081176400184631,-0.2657302916049957,0.5067389607429504
2390,1629709109817,0.588420569896698,-0.0913765653967857,-0.2810836434364319,0.5315414667129517
2391,1629709109895,0.5978047847747803,-0.0837827250361442,-0.3095075190067291,0.5583925247192383
2392,1629709110071,0.6026135683059692,-0.0742550119757652,-0.3619372546672821,0.5876951217651367
2393,1629709110150,0.6007819175720215,-0.0625906735658645,-0.4382716715335846,0.6146863698959351
2394,1629709110259,0.5865374207496643,-0.0572528801858425,-0.5263493657112122,0.6284746527671814
2395,1629709110337,0.553572952747345,-0.0638299137353897,-0.6055346131324768,0.6188246011734009
2396,1629709110462,0.5045375823974609,-0.0749843046069145,-0.6546986103057861,0.5856543183326721
2397,1629709110493,0.4574135243892669,-0.0765493065118789,-0.6650187373161316,0.5410371422767639
2398,1629709110634,0.4351955354213714,-0.0639278143644332,-0.6500300168991089,0.5042844414710999
2399,1629709110743,0.4390971064567566,-0.048092670738697,-0.6310339570045471,0.4837331175804138
2400,1629709110852,0.4467715919017792,-0.0425273105502128,-0.6195144057273865,0.4718468189239502
2401,1629709110915,0.4418728947639465,-0.0523877590894699,-0.6133689880371094,0.4581387341022491
2402,1629709111059,0.4245561361312866,-0.0728498995304107,-0.602537989616394,0.4374082386493683
2403,1629709111137,0.4055602252483368,-0.0946259796619415,-0.5848212838172913,0.4106340110301971
2404,1629709111246,0.39445760846138,-0.1104404032230377,-0.56723552942276,0.3819053769111633
2405,1629709111355,0.3890908658504486,-0.1178895160555839,-0.5564064383506775,0.3509731888771057
2406,1629709111449,0.3829886019229889,-0.1213811114430427,-0.5535067915916443,0.3128339350223541
2407,1629709111527,0.3707636892795563,-0.1269450783729553,-0.5536132454872131,0.2611795365810394
2408,1629709111637,0.3535351455211639,-0.1367907971143722,-0.5519218444824219,0.1961297690868377
2409,1629709111746,0.3328326642513275,-0.1485481113195419,-0.5468834042549133,0.1270988583564758
2410,1629709111934,0.3118585646152496,-0.1592438071966171,-0.5387466549873352,0.0707936733961105
2411,1629709111965,0.2963573932647705,-0.1724141389131546,-0.5286756753921509,0.0367104783654212
2412,1629709112074,0.2892966568470001,-0.1906665712594986,-0.5154491662979126,0.0265170037746429
2413,1629709112183,0.2923026978969574,-0.203791856765747,-0.4933523833751678,0.0298384968191385
2414,1629709112277,0.3011648058891296,-0.1990761756896972,-0.4581755399703979,0.041576649993658
2415,1629709112355,0.3132294714450836,-0.1794680505990982,-0.4067088365554809,0.0618346706032753
2416,1629709112465,0.329270452260971,-0.163909912109375,-0.3434999585151672,0.098396748304367
2417,1629709112590,0.3547889590263366,-0.1652802377939224,-0.28568035364151,0.1565837115049362
2418,1629709112668,0.3912075161933899,-0.1789809614419937,-0.2467308789491653,0.2355540692806244
2419,1629709112746,0.4302309453487396,-0.1923034936189651,-0.2298586517572403,0.3193970918655395
2420,1629709112858,0.4601131975650787,-0.2003797888755798,-0.2247031331062317,0.3874996900558471
2421,1629709112952,0.4774594008922577,-0.2057864367961883,-0.2171801030635833,0.4304080009460449
2422,1629709113139,0.4852045476436615,-0.2154713124036789,-0.2021630704402923,0.4511362612247467
2423,1629709113171,0.4885928928852081,-0.2297727465629577,-0.1856746226549148,0.4589948952198028
2424,1629709113311,0.4916251599788666,-0.2421000301837921,-0.1760811507701873,0.4619138836860657
2426,1629709113421,0.4954272508621216,-0.2447364777326584,-0.1777232885360717,0.4641913175582886
2425,1629709113452,0.4981826245784759,-0.2367931753396988,-0.1890642791986465,0.470827579498291
2427,1629709113592,0.4971583783626556,-0.2297883480787277,-0.205902874469757,0.4855396449565887
2428,1629709113686,0.4903046488761902,-0.2406350821256637,-0.2259663939476013,0.5056447386741638
2429,1629709113796,0.4830701947212219,-0.2736209630966186,-0.249331384897232,0.5224857926368713
2430,1629709113892,0.4822879135608673,-0.3178371787071228,-0.2790965735912323,0.5299766659736633
2431,1629709113985,0.4842866063117981,-0.3544773757457733,-0.3182808458805084,0.5265215635299683
2432,1629709114079,0.4787464737892151,-0.3738409280776977,-0.3584242463111877,0.5150071382522583
2433,1629709114189,0.458874374628067,-0.3759951293468475,-0.3836520612239837,0.4979701936244964
2434,1629709114313,0.4301799535751343,-0.3596523702144623,-0.3849406242370605,0.4763884544372558
2435,1629709114438,0.4156113564968109,-0.3233093321323395,-0.3753012120723724,0.454636663198471
2436,1629709114532,0.4322331845760345,-0.2787786722183227,-0.3655464351177215,0.4418795704841614
2437,1629709114595,0.4774311780929565,-0.2391091883182525,-0.3459956347942352,0.4531954228878021
2438,1629709114720,0.5308663845062256,-0.2110694050788879,-0.3017670214176178,0.4969252049922943
2439,1629709114813,0.5754809975624084,-0.1941842287778854,-0.2397804260253906,0.5590022802352905
2440,1629709114910,0.6029262542724609,-0.1885062456130981,-0.1827409714460373,0.613869845867157
2441,1629709115003,0.615450918674469,-0.1913732290267944,-0.143047034740448,0.648160457611084
2442,1629709115113,0.6194133162498474,-0.1930733025074005,-0.1178797706961631,0.6651549339294434
2443,1629709115207,0.6243844032287598,-0.1825550198554992,-0.0972196757793426,0.6818224191665649
2444,1629709115285,0.6321567296981812,-0.1613077372312545,-0.0773046016693115,0.7092301249504089
2445,1629709115425,0.6383930444717407,-0.1415248662233352,-0.0614872202277183,0.742797315120697
2446,1629709115519,0.6397464275360107,-0.1319772452116012,-0.0543491281569004,0.7700668573379517
2447,1629709115644,0.6355199217796326,-0.1327182203531265,-0.0585202500224113,0.7835228443145752
2448,1629709115706,0.6253290772438049,-0.1430665850639343,-0.0726437866687774,0.7824491858482361
2449,1629709115847,0.6095244884490967,-0.1647766530513763,-0.0916462913155555,0.771874189376831
2450,1629709115909,0.5835821032524109,-0.1968673169612884,-0.110207475721836,0.7570604085922241
2451,1629709116008,0.5438276529312134,-0.2334843128919601,-0.1300746351480484,0.7407938838005066
2452,1629709116180,0.4882918894290924,-0.2677641212940216,-0.1625251173973083,0.7183098793029785
2453,1629709116258,0.4200771450996399,-0.297299712896347,-0.219824343919754,0.6802232265472412
2454,1629709116351,0.3495224714279175,-0.3269523978233337,-0.3038424253463745,0.6236234307289124
2455,1629709116476,0.2972894608974457,-0.3603381514549255,-0.3945859372615814,0.5622779130935669
2456,1629709116523,0.2937312722206116,-0.3981968462467193,-0.4572128653526306,0.5226938724517822
2457,1629709116617,0.3519371151924133,-0.4428105652332306,-0.4753166735172272,0.5218629240989685
2458,1629709116773,0.4340144693851471,-0.4947119951248169,-0.4739800691604614,0.5409656763076782
2459,1629709116867,0.4990058243274688,-0.5439966320991516,-0.4813909828662872,0.5534452199935913
2460,1629709116929,0.5350491404533386,-0.5750426054000854,-0.5027927160263062,0.5504488945007324
2461,1629709117042,0.5531530380249023,-0.5809216499328613,-0.5261503458023071,0.5399186015129089
2462,1629709117120,0.5661135315895081,-0.5686402916908264,-0.5308254957199097,0.5303751230239868
2463,1629709117261,0.5771946310997009,-0.5484248995780945,-0.5082610845565796,0.5235278606414795
2464,1629709117386,0.5846678018569946,-0.5272247195243835,-0.4677881300449371,0.5188011527061462
2465,1629709117480,0.5889520645141602,-0.5139114260673523,-0.419610857963562,0.5183064341545105
2466,1629709117558,0.5910001993179321,-0.5107284784317017,-0.3636821508407593,0.5232180953025818
2467,1629709117683,0.5922653675079346,-0.510006844997406,-0.2950395345687866,0.5333237051963806
2468,1629709117761,0.5967007279396057,-0.501281201839447,-0.2206668853759765,0.5470996499061584
2469,1629709117855,0.6088541746139526,-0.4819248616695404,-0.1567128002643585,0.5635426640510559
2470,1629709117980,0.6269366145133972,-0.4589144885540008,-0.1161942258477211,0.5797491073608398
2471,1629709118124,0.6349321603775024,-0.4404276013374328,-0.1026342287659645,0.5873833894729614
2472,1629709118171,0.6143230199813843,-0.4252002537250519,-0.1110601499676704,0.5771391987800598
2473,1629709118218,0.5590620636940002,-0.4070719182491302,-0.1312658190727234,0.5478421449661255
2474,1629709118374,0.4840982556343078,-0.387431263923645,-0.1510659158229828,0.5095484256744385
2475,1629709118484,0.4219749867916107,-0.374409407377243,-0.1606703400611877,0.4777811169624328
2476,1629709118562,0.4018769562244415,-0.3722894787788391,-0.1555283814668655,0.4616325497627258
2477,1629709118702,0.4231233894824981,-0.3783806562423706,-0.1391098350286483,0.4606102108955383
2478,1629709118765,0.4641562402248382,-0.3858292996883392,-0.1189269050955772,0.4701807796955108
2479,1629709118878,0.5030163526535034,-0.3913346827030182,-0.1029007807374,0.4845262765884399
2480,1629709118956,0.5347064137458801,-0.3946117162704468,-0.0981282815337181,0.5017703771591187
2481,1629709119034,0.5698878765106201,-0.3966059684753418,-0.1095442399382591,0.5300238132476807
2482,1629709119190,0.6160479187965393,-0.3969340026378631,-0.1411502659320831,0.5718852877616882
2483,1629709119299,0.6644658446311951,-0.388512909412384,-0.1914206147193908,0.6190643310546875
2484,1629709119393,0.70257967710495,-0.3556075096130371,-0.2503771781921386,0.6580660343170166
2485,1629709119456,0.7286686301231384,-0.2953965067863464,-0.2961125373840332,0.684818685054779
2486,1629709119549,0.751703679561615,-0.2274091839790344,-0.3027516901493072,0.7040241956710815
2487,1629709119659,0.7838118672370911,-0.1763167977333068,-0.26267009973526,0.7243343591690063
2488,1629709119819,0.8282453417778015,-0.1544827222824096,-0.1948441863059997,0.7481895685195923
2489,1629709119898,0.8744417428970337,-0.1584954857826233,-0.126749575138092,0.7706426978111267
2490,1629709120023,0.9084816575050354,-0.1745709776878357,-0.0789371877908706,0.7848455309867859
2491,1629709120117,0.9205566048622132,-0.1894900202751159,-0.0575505159795284,0.7872944474220276
2493,1629709120241,0.911447048187256,-0.1978768408298492,-0.0590340793132782,0.7803347706794739
2492,1629709120273,0.8911669850349426,-0.2028764933347702,-0.0749069675803184,0.7696955800056458
2494,1629709120429,0.8705871105194092,-0.2081086039543151,-0.0963305309414863,0.7583619356155396
2495,1629709120491,0.8539857864379883,-0.213308647274971,-0.1140938848257064,0.7460938692092896
2496,1629709120570,0.8380805253982544,-0.2139569967985153,-0.1217734366655349,0.7304697632789612
2497,1629709120679,0.8209289312362671,-0.2072812914848327,-0.1161904484033584,0.7170103192329407
2498,1629709120773,0.8070263862609863,-0.1997577995061874,-0.096016377210617,0.7167434096336365
2499,1629709120900,0.7992686629295349,-0.2076483815908432,-0.0628204569220542,0.7327960729598999
2500,1629709121025,0.7912911176681519,-0.2435032725334167,-0.0278063025325536,0.7513027787208557
2501,1629709121119,0.7729016542434692,-0.3049451410770416,-0.0084511497989296,0.755123496055603
2502,1629709121213,0.7352418899536133,-0.3714052736759186,-0.0166625455021858,0.7351941466331482
2503,1629709121291,0.6752947568893433,-0.4154573082923889,-0.052445001900196,0.6951128244400024
2504,1629709121400,0.6025175452232361,-0.4266242384910583,-0.105069562792778,0.6474609375
2505,1629709121478,0.5446273684501648,-0.4173557460308075,-0.1554001271724701,0.6116020083427429
2506,1629709121666,0.5344525575637817,-0.4062419235706329,-0.1884485930204391,0.6037619709968567
2507,1629709121713,0.5671249628067017,-0.4015261232852936,-0.2011290192604065,0.6198011636734009
2508,1629709121822,0.6069292426109314,-0.3972795903682709,-0.1968685388565063,0.6415221095085144
2509,1629709121900,0.6333435773849487,-0.3848223686218261,-0.178585410118103,0.6564621329307556
2510,1629709122056,0.6455027461051941,-0.3667629063129425,-0.1517727226018905,0.6620143055915833
2511,1629709122119,0.6484975814819336,-0.3566857278347015,-0.1253271102905273,0.656841516494751
2512,1629709122259,0.6389964818954468,-0.364083856344223,-0.1080769822001457,0.6328147649765015
2513,1629709122337,0.6100448966026306,-0.3857116997241974,-0.1049333810806274,0.5831072330474854
2514,1629709122416,0.5640307664871216,-0.4067059755325317,-0.1130425333976745,0.5192492604255676
2515,1629709122541,0.5168306827545166,-0.4097245335578918,-0.1229893565177917,0.470615029335022
2516,1629709122603,0.488450825214386,-0.3921242356300354,-0.1262461692094802,0.4599978625774383
2517,1629709122697,0.4858178794384002,-0.3646503090858459,-0.1216747611761093,0.4795052111148834
2518,1629709122837,0.500137984752655,-0.3386399447917938,-0.1092982664704322,0.5116628408432007
2519,1629709122962,0.5177623629570007,-0.3161902725696563,-0.0869656652212143,0.5472453832626343
2520,1629709123076,0.5226653814315796,-0.2947165071964264,-0.0553790107369422,0.576686441898346
2521,1629709123123,0.5011823773384094,-0.2721921801567077,-0.0220561306923627,0.587925910949707
2522,1629709123216,0.4548542499542236,-0.2521755993366241,0.0043498110026121,0.5795819759368896
2523,1629709123294,0.3986473977565765,-0.240562155842781,0.0204516742378473,0.5600541830062866
2524,1629709123466,0.3514813184738159,-0.2401594370603561,0.0276610422879457,0.5432497262954712
2525,1629709123560,0.3211956322193146,-0.2465199381113052,0.0278783030807971,0.5378718376159668
2526,1629709123685,0.3039381504058838,-0.251720517873764,0.0212201550602912,0.544737696647644
2527,1629709123716,0.2970797717571258,-0.2521807849407196,0.0070580565370619,0.5581606030464172
2528,1629709123841,0.2984367609024048,-0.2516815364360809,-0.0134925320744514,0.5663941502571106
2529,1629709123966,0.3013886511325836,-0.2574075162410736,-0.0383562222123146,0.5555558204650879
2530,1629709124078,0.3014075756072998,-0.2757697105407715,-0.0648433566093444,0.5225026607513428
2531,1629709124172,0.2976267039775848,-0.3084486722946167,-0.0879252031445503,0.478154569864273
2532,1629709124266,0.2917985618114471,-0.3534782230854034,-0.102870263159275,0.4401803314685821
2533,1629709124359,0.2856810092926025,-0.4062163531780243,-0.1126026064157486,0.4170059561729431
2534,1629709124453,0.2893301546573639,-0.4638375341892242,-0.1236182302236557,0.4134440422058105
2535,1629709124578,0.311570942401886,-0.5217336416244507,-0.1404889822006225,0.4325334131717682
2536,1629709124703,0.3518146574497223,-0.5621019601821899,-0.164130613207817,0.4682143330574035
2537,1629709124832,0.4030508697032928,-0.5587728023529053,-0.1945100277662277,0.5037808418273926
2538,1629709124895,0.4654595851898193,-0.5123701095581055,-0.2328294664621353,0.5287065505981445
2539,1629709124942,0.5301910638809204,-0.4549017548561096,-0.2783441543579101,0.5417084097862244
2540,1629709125069,0.5842171907424927,-0.4148837924003601,-0.3215026259422302,0.5482407212257385
2541,1629709125148,0.6154996752738953,-0.399505615234375,-0.3444387912750244,0.5512131452560425
