,timestamp,TP9,AF7,AF8,TP10
1299,1629708999040,0.4000583589076996,0.0966479182243347,0.0301084909588098,0.3206119537353515
1300,1629708999181,0.4046717286109924,0.0819641649723053,0.0711014941334724,0.3495023250579834
1301,1629708999259,0.4124166369438171,0.0774678364396095,0.1158898100256919,0.4049498438835144
1302,1629708999353,0.4593493640422821,0.0769337341189384,0.1242811605334281,0.4872029721736908
1303,1629708999462,0.4926297962665558,0.1325779259204864,0.1206973493099212,0.5353855490684509
1304,1629708999587,0.5288062691688538,0.1735787987709045,0.1293509304523468,0.571945071220398
1305,1629708999665,0.5288062691688538,0.1834188997745514,0.1293509304523468,0.571945071220398
1306,1629708999775,0.5288062691688538,0.1901902854442596,0.1293509304523468,0.571945071220398
1307,1629708999900,0.5283334851264954,0.2209435850381851,0.1565998643636703,0.5418868660926819
1308,1629708999962,0.5034106373786926,0.2617191672325134,0.2437415421009063,0.512466311454773
1309,1629709000028,0.4633011519908905,0.3070888221263885,0.3194153308868408,0.5104284882545471
1310,1629709000153,0.4477757811546325,0.3455281853675842,0.3357056379318237,0.5104284882545471
1311,1629709000215,0.4368064105510711,0.3549813330173492,0.3357530236244201,0.5104284882545471
1312,1629709000387,0.4319927096366882,0.3579514622688293,0.3398787677288055,0.5104284882545471
1313,1629709000449,0.4319927096366882,0.3579514622688293,0.3506296873092651,0.5104284882545471
1314,1629709000559,0.4319927096366882,0.3579514622688293,0.3536854386329651,0.5104284882545471
1315,1629709000668,0.428455650806427,0.3579514622688293,0.3473872244358063,0.5104284882545471
1316,1629709000762,0.428455650806427,0.3579514622688293,0.328206866979599,0.5104284882545471
1317,1629709000871,0.428455650806427,0.3546634912490845,0.3253494799137115,0.5104284882545471
1319,1629709001030,0.428455650806427,0.3453457653522491,0.3334474861621856,0.5104284882545471
1318,1629709001061,0.428455650806427,0.3505917191505432,0.348809152841568,0.5104284882545471
1320,1629709001139,0.428455650806427,0.3596049845218658,0.367470234632492,0.5104284882545471
1321,1629709001280,0.428455650806427,0.3637406527996063,0.3689797222614288,0.5104284882545471
1322,1629709001389,0.428455650806427,0.3767313063144684,0.3689797222614288,0.5104284882545471
1323,1629709001483,0.428455650806427,0.375380665063858,0.3689797222614288,0.5104284882545471
1324,1629709001592,0.428455650806427,0.3628447353839874,0.3689797222614288,0.5104284882545471
1325,1629709001702,0.428455650806427,0.3337076604366302,0.3689797222614288,0.5104284882545471
1326,1629709001827,0.428455650806427,0.2729398906230926,0.3706001937389374,0.5104284882545471
1327,1629709001873,0.428455650806427,0.219583123922348,0.3723516762256622,0.5104284882545471
1328,1629709002014,0.428455650806427,0.2605932056903839,0.3675023913383484,0.5104284882545471
1329,1629709002045,0.428455650806427,0.3170333504676819,0.3624089360237121,0.5104284882545471
1330,1629709002253,0.428455650806427,0.347072958946228,0.3377043008804321,0.5104284882545471
1331,1629709002346,0.428455650806427,0.3522204458713531,0.3254470825195312,0.5104284882545471
1332,1629709002393,0.428455650806427,0.3522204458713531,0.3254470825195312,0.5104284882545471
1333,1629709002471,0.428455650806427,0.3522204458713531,0.3254470825195312,0.5104284882545471
1334,1629709002596,0.428455650806427,0.3522204458713531,0.321604311466217,0.5104284882545471
1335,1629709002690,0.428455650806427,0.3389982879161834,0.2965506315231323,0.5104284882545471
1336,1629709002840,0.428455650806427,0.2941136062145233,0.2688736021518707,0.5104284882545471
1337,1629709002927,0.428455650806427,0.2445349395275116,0.265207976102829,0.5104284882545471
1338,1629709003020,0.428455650806427,0.1954012066125869,0.2802488803863525,0.5104284882545471
1339,1629709003099,0.428455650806427,0.1697198301553726,0.2802488803863525,0.5104284882545471
1340,1629709003208,0.428455650806427,0.1603190749883651,0.2802488803863525,0.5104284882545471
1341,1629709003286,0.428455650806427,0.1529648900032043,0.2802488803863525,0.5104284882545471
1342,1629709003458,0.428455650806427,0.1518623083829879,0.2688564956188202,0.5104284882545471
1343,1629709003489,0.428455650806427,0.1518623083829879,0.2548041641712188,0.5104284882545471
1344,1629709003645,0.428455650806427,0.1518623083829879,0.2398366183042526,0.5104284882545471
1345,1629709003723,0.428455650806427,0.1180381923913955,0.2424405068159103,0.5104284882545471
1346,1629709003817,0.428455650806427,0.0717122182250022,0.2495967298746109,0.5104284882545471
1347,1629709003913,0.428455650806427,0.1773490905761718,0.25888392329216,0.5104284882545471
1348,1629709004022,0.428455650806427,0.3327255547046661,0.2917090356349945,0.5104284882545471
1349,1629709004116,0.428455650806427,0.407189667224884,0.3033615946769714,0.5104284882545471
1350,1629709004194,0.428455650806427,0.4133334457874298,0.280618667602539,0.5104284882545471
1351,1629709004366,0.428455650806427,0.4165878295898437,0.2715084850788116,0.5104284882545471
1352,1629709004397,0.428455650806427,0.4224521815776825,0.2566552460193634,0.5104284882545471
1353,1629709004459,0.428455650806427,0.4309983551502228,0.2265207469463348,0.5104284882545471
1354,1629709004663,0.428455650806427,0.4387377798557281,0.2265207469463348,0.5104284882545471
1355,1629709004772,0.428455650806427,0.4524736404418945,0.2265207469463348,0.5104284882545471
1356,1629709004819,0.428455650806427,0.4545365869998932,0.2265207469463348,0.5104284882545471
1357,1629709004898,0.428455650806427,0.4549689292907715,0.2265207469463348,0.5104284882545471
1358,1629709005009,0.428455650806427,0.4549689292907715,0.2265207469463348,0.5104284882545471
1359,1629709005118,0.428455650806427,0.4552794694900512,0.2265207469463348,0.5104284882545471
1360,1629709005274,0.428455650806427,0.4560106992721557,0.2265207469463348,0.5104284882545471
1361,1629709005384,0.428455650806427,0.4560318291187286,0.2149140685796737,0.5104284882545471
1362,1629709005462,0.428455650806427,0.4560318291187286,0.190148651599884,0.5104284882545471
1363,1629709005524,0.428455650806427,0.4560318291187286,0.1772779673337936,0.5104284882545471
1364,1629709005649,0.428455650806427,0.4008969962596893,0.1233239024877548,0.5104284882545471
1365,1629709005759,0.428455650806427,0.2772105634212494,-0.005214748904109,0.5104284882545471
1366,1629709005837,0.6011943221092224,0.2235315889120102,-0.0836372151970863,0.8008678555488586
1367,1629709005948,0.697402834892273,0.2130753993988037,-0.0836764276027679,0.9383470416069032
1368,1629709006043,0.7827308773994446,0.2065327763557434,-0.0063802488148212,1.0664069652557373
1370,1629709006199,0.8544167876243591,0.1908923834562301,0.0475304424762725,1.1541613340377808
1369,1629709006277,0.8787904381752014,0.16934135556221,0.0949526205658912,1.2084895372390747
1371,1629709006340,0.8827124834060669,0.1153376251459121,0.1123818233609199,1.2221709489822388
1372,1629709006465,0.8865416646003723,0.0536799058318138,0.1128417029976844,1.2270174026489258
1373,1629709006559,0.8865607380867004,0.0032197562977671,0.1128417029976844,1.2347378730773926
1374,1629709006668,0.8865607380867004,-0.0355117470026016,0.1128417029976844,1.2369335889816284
1375,1629709006762,0.8865607380867004,-0.0728756338357925,0.1128417029976844,1.2369335889816284
1376,1629709006824,0.8865607380867004,-0.0865673422813415,0.1128417029976844,1.2369335889816284
1377,1629709006921,0.8865607380867004,-0.0865673422813415,0.1156912297010421,1.2369335889816284
1378,1629709007109,0.8818786144256592,-0.0853003859519958,0.145035833120346,1.2348594665527344
1379,1629709007140,0.8731749653816223,-0.0904574692249298,0.1746407449245453,1.2285970449447632
1380,1629709007249,0.8709962368011475,-0.0940324664115905,0.1746407449245453,1.221474289894104
1381,1629709007362,0.8678732514381409,-0.0888207927346229,0.1746407449245453,1.2154974937438965
1382,1629709007471,0.86100172996521,-0.0817798897624015,0.1746407449245453,1.2148308753967283
1383,1629709007549,0.8366233706474304,-0.0987373515963554,0.1665970087051391,1.2007437944412231
1384,1629709007674,0.821038544178009,-0.1227548420429229,0.162651315331459,1.183452010154724
1385,1629709007786,0.7684087753295898,-0.1304473131895065,0.127628207206726,1.1624923944473269
1386,1629709007880,0.6737977862358093,-0.1237532421946525,0.0577528141438961,1.0914136171340942
1387,1629709008005,0.6207252740859985,-0.0717755928635597,0.039512775838375,0.9499180912971495
1388,1629709008036,0.778066098690033,-0.0025960090570151,0.0135403303429484,0.8039799928665161
1389,1629709008161,1.0554949045181274,0.065128818154335,-0.0105760665610432,0.708886444568634
1390,1629709008286,1.218198537826538,0.1049136519432067,-0.0262815821915864,0.7490373253822327
1391,1629709008395,1.2627661228179932,0.1565292924642563,-0.0389439091086387,0.8067457675933838
1392,1629709008489,1.2639391422271729,0.225669726729393,-0.0445564091205596,0.8067457675933838
1393,1629709008583,1.2639391422271729,0.2595320641994476,-0.0498279891908168,0.8067457675933838
1394,1629709008676,1.2639391422271729,0.2641835510730743,-0.0664362534880638,0.8067457675933838
1395,1629709008754,1.2639391422271729,0.2660748362541199,-0.1117965579032898,0.8067457675933838
1396,1629709008929,1.2639391422271729,0.2660748362541199,-0.1060949191451072,0.8067457675933838
1397,1629709009054,1.2639391422271729,0.2660748362541199,-0.0628704354166984,0.8067457675933838
1398,1629709009132,1.2639391422271729,0.2660748362541199,-0.0196655243635177,0.8067457675933838
1399,1629709009257,1.2639391422271729,0.2660748362541199,-0.0027633535210043,0.8067457675933838
1400,1629709009273,1.2639391422271729,0.2660748362541199,0.0110020460560917,0.8067457675933838
1401,1629709009413,1.2639391422271729,0.2660748362541199,0.0104747172445058,0.8067457675933838
1402,1629709009507,1.2639391422271729,0.2660748362541199,-0.0221286639571189,0.8067457675933838
1403,1629709009585,1.2621238231658936,0.2660748362541199,-0.0360005088150501,0.8067457675933838
1404,1629709009679,1.253572702407837,0.2619182467460632,-0.0360005088150501,0.7971219420433044
1405,1629709009788,1.235653042793274,0.2252211719751358,-0.0342782028019428,0.753017008304596
1406,1629709009885,1.142589449882507,0.199218675494194,-0.0224755033850669,0.6802197694778442
1407,1629709009994,0.9640909433364868,0.1717281490564346,-0.007460709195584,0.5741504430770874
1408,1629709010103,0.7952206134796143,0.1023930460214614,-0.0057409810833632,0.5741504430770874
1409,1629709010244,0.7952206134796143,-0.0241225995123386,-0.0057409810833632,0.5741504430770874
1410,1629709010338,0.7952206134796143,-0.1224323436617851,-0.0002476123336236,0.5741504430770874
1411,1629709010431,0.7952206134796143,-0.1762938797473907,0.0100450590252876,0.5741504430770874
1412,1629709010525,0.7952206134796143,-0.15496626496315,0.0113001493737101,0.5741504430770874
1413,1629709010587,0.7952206134796143,-0.1362602114677429,0.006849673576653,0.5741504430770874
1414,1629709010744,0.7952206134796143,-0.1350978463888168,0.0100695006549358,0.5741504430770874
1415,1629709010854,0.7952206134796143,-0.1381979584693908,0.0212249979376792,0.3590043783187866
1416,1629709010933,0.3572309911251068,-0.1339333951473236,0.019608749076724,0.3590043783187866
1417,1629709011027,0.3572309911251068,-0.1096156910061836,0.0059419451281428,0.3590043783187866
1418,1629709011152,0.3572309911251068,-0.0972620546817779,0.0062403306365013,0.3590043783187866
1419,1629709011246,0.3572309911251068,-0.0987557843327522,0.0165351741015911,0.3590043783187866
1420,1629709011395,0.3572309911251068,-0.1102850586175918,0.0212648008018732,0.3590043783187866
1421,1629709011492,0.3572309911251068,-0.1102850586175918,0.0284245088696479,0.3590043783187866
1422,1629709011584,0.3572309911251068,-0.1102850586175918,0.0322158224880695,0.3590043783187866
1423,1629709011653,0.3572309911251068,-0.1102850586175918,0.0648045763373375,0.3590043783187866
1424,1629709011687,0.3572309911251068,-0.1102850586175918,0.1631817519664764,0.3590043783187866
1425,1629709011816,0.3572309911251068,-0.1102850586175918,0.2867851257324219,0.3590043783187866
1426,1629709011970,0.3572309911251068,-0.1102850586175918,0.3571784198284149,0.3590043783187866
1427,1629709012037,0.3572309911251068,-0.1129235997796058,0.3642531037330627,0.338873416185379
1428,1629709012110,0.3572309911251068,-0.126261830329895,0.3642531037330627,0.338873416185379
1429,1629709012209,0.3572309911251068,-0.0811966881155967,0.3656426668167114,0.338873416185379
1430,1629709012331,0.3572309911251068,-0.0163541417568922,0.3656426668167114,0.338873416185379
1431,1629709012454,0.3572309911251068,0.0289050936698913,0.3644715249538421,0.338873416185379
1432,1629709012573,0.3572309911251068,0.0500622391700744,0.3622010946273803,0.338873416185379
1433,1629709012654,1.314554214477539,0.0296902749687433,0.3622010946273803,1.3567761182785034
1434,1629709012787,1.3148508071899414,0.0285443421453237,0.3622010946273803,1.4231826066970823
1435,1629709012827,1.3148508071899414,0.0477111190557479,0.3622010946273803,1.4760230779647827
1436,1629709012914,1.3148508071899414,0.0588460899889469,0.3622010946273803,1.4894392490386963
1437,1629709012995,1.3170757293701172,0.0854291543364524,0.3614416122436523,1.4894392490386963
1438,1629709013193,1.3251612186431885,0.0976459980010986,0.3603030443191528,1.4894392490386963
1439,1629709013234,1.3347853422164917,0.0976459980010986,0.3603030443191528,1.4894392490386963
1440,1629709013367,1.337513446807861,0.0976459980010986,0.3603030443191528,1.4894392490386963
1441,1629709013439,1.3377068042755127,0.0976459980010986,0.3324739336967468,1.4894392490386963
1442,1629709013543,1.3377068042755127,0.1002321317791938,0.2107049971818924,1.4894392490386963
1443,1629709013618,1.338479995727539,0.1294683367013931,0.0984848216176033,1.4894392490386963
1444,1629709013785,1.3391739130020142,0.1474348902702331,0.1024364829063415,1.4894392490386963
1445,1629709013890,1.303196907043457,0.1469355076551437,0.0949408784508705,1.4728631973266602
1446,1629709013990,1.231409192085266,0.1452085375785827,0.0949408784508705,1.4431334733963013
1447,1629709014049,1.1023389101028442,0.1438285708427429,0.0949408784508705,1.4321762323379517
1448,1629709014149,0.9460681676864624,0.1448738873004913,0.073785200715065,1.4063044786453247
1449,1629709014262,0.8327409029006958,0.1448738873004913,0.0544305630028247,1.374237298965454
1450,1629709014350,0.792845606803894,0.1343511044979095,0.0411437824368476,1.3582929372787476
1451,1629709014434,0.7932434678077698,0.1033385545015335,0.0293404683470726,1.285310983657837
1452,1629709014568,0.8008533716201782,0.0715614333748817,-0.0246339105069637,1.0921462774276731
1453,1629709014673,0.805121123790741,0.0154985645785927,-0.0307258907705545,0.8312814831733704
1454,1629709014741,0.7988443970680237,-0.0453935712575912,-0.0281386151909828,0.7475187182426453
1455,1629709014867,0.7720324993133545,-0.0763479471206665,-0.0281386151909828,0.7471942901611328
1456,1629709015007,0.7735174298286438,-0.0683799758553505,-0.0281386151909828,0.8154025673866272
1457,1629709015077,0.8590139150619507,-0.0498957782983779,-0.0281386151909828,0.9221034049987792
1458,1629709015211,0.9491864442825316,-0.0486430972814559,-0.0281386151909828,1.039693832397461
1459,1629709015248,1.014324426651001,-0.0505720414221286,-0.047003224492073,1.1428967714309692
1460,1629709015337,1.0255714654922483,-0.057433471083641,-0.0311237089335918,1.245781660079956
1461,1629709015442,1.0564135313034058,-0.0652860179543495,0.0297963581979274,1.365762710571289
1462,1629709015584,1.1747170686721802,-0.0661454647779464,0.0812219232320785,1.46862530708313
1463,1629709015688,1.288585186004639,-0.0393566638231277,0.0918743088841438,1.5087007284164429
1464,1629709015795,1.3282859325408936,-0.00725326128304,0.0770998895168304,1.508873462677002
1465,1629709015879,1.3282859325408936,0.0048983041197061,0.0725342258810997,1.5089184045791626
1466,1629709016025,1.3282859325408936,0.013258489780128,0.060144867748022,1.5089184045791626
1467,1629709016086,1.3282859325408936,0.014980025589466,0.0064730183221399,1.5089184045791626
1468,1629709016217,1.3282859325408936,0.014980025589466,-0.0407747104763984,1.5089184045791626
1469,1629709016302,1.3282859325408936,0.0125305829569697,-0.0741692706942558,1.5089184045791626
1470,1629709016382,1.3282859325408936,0.0137061839923262,-0.0703246593475341,1.5089184045791626
1471,1629709016489,1.3282859325408936,0.0108467740938067,-0.0712348148226738,1.5089184045791626
1472,1629709016552,1.3282859325408936,-0.0010015476727858,-0.0712348148226738,1.5069494247436523
1473,1629709016647,1.3222219944000244,-0.0349085591733455,-0.0754989758133888,1.4920992851257324
1474,1629709016832,1.3017953634262085,-0.0499858073890209,-0.0773918032646179,1.4778623580932615
1475,1629709016909,1.2600663900375366,-0.0387482456862926,-0.0773918032646179,1.4624313116073608
1476,1629709016999,1.239603042602539,-0.026403060182929,-0.0773918032646179,1.4438936710357666
1477,1629709017090,1.2323909997940063,-0.0281083565205335,-0.0773918032646179,1.4158029556274414
1478,1629709017218,1.2186357975006104,-0.0223567765206098,-0.1209912598133087,1.3267245292663574
1479,1629709017304,1.144643783569336,-0.0223567765206098,-0.195783719420433,1.1216484308242798
1480,1629709017411,0.9701296091079712,-0.0252780057489871,-0.2941963970661163,0.8526726365089417
1481,1629709017501,0.7705168128013611,-0.0317814089357852,-0.3540732264518738,0.6207129955291748
1482,1629709017595,0.7008055448532104,-0.0401538349688053,-0.3878091275691986,0.5386441946029663
1483,1629709017689,0.6802423596382141,-0.0365395732223987,-0.2640924751758575,0.5194693803787231
1484,1629709017792,0.6701504588127136,-0.0337480269372463,-0.1695827841758728,0.5132051706314087
1485,1629709017908,0.6539958119392395,-0.003198648802936,-0.1106599867343902,0.5132051706314087
1486,1629709018005,0.6528963446617126,-0.003198648802936,-0.0634502246975898,0.5132051706314087
1487,1629709018137,0.6528963446617126,-0.003198648802936,-0.0160240102559328,0.5025777816772461
1488,1629709018212,0.6528963446617126,-0.003198648802936,0.0538416467607021,0.4698635041713714
1489,1629709018323,0.6528963446617126,0.0444914251565933,0.1768842488527298,0.4419077336788177
1490,1629709018422,0.6241180300712585,0.0460111796855926,0.2260713130235672,0.4230729043483734
1491,1629709018564,0.5049809813499451,0.0460111796855926,0.2306591868400573,0.4127373993396759
1492,1629709018617,0.5049809813499451,0.034632783383131,0.2306591868400573,0.4127373993396759
1493,1629709018746,0.5049809813499451,0.0261209458112716,0.2306591868400573,0.4127373993396759
1494,1629709018819,0.5049809813499451,0.0569353476166725,0.2389566153287887,0.4127373993396759
1495,1629709018914,0.5049809813499451,0.1006397902965545,0.2934211492538452,0.4127373993396759
1496,1629709019060,0.5049809813499451,0.1334076821804046,0.3550066351890564,0.4127373993396759
1497,1629709019117,0.5049809813499451,0.149058312177658,0.4171678423881531,0.4127373993396759
1498,1629709019238,0.5049809813499451,0.1638510972261428,0.4511653184890747,0.8803150653839111
1499,1629709019329,0.5049809813499451,0.1642774492502212,0.4628095328807831,0.8845435380935669
1500,1629709019451,0.5049809813499451,0.1642774492502212,0.4628095328807831,0.8845435380935669
1501,1629709019614,0.5049809813499451,0.1642774492502212,0.4628095328807831,0.8845435380935669
1502,1629709019668,0.5049809813499451,0.1642774492502212,0.4628095328807831,0.8845435380935669
1503,1629709019734,0.5049809813499451,0.1642774492502212,0.4628095328807831,0.8845435380935669
1504,1629709019888,0.5049809813499451,0.1523088365793228,0.4562633633613586,0.8927187919616699
1505,1629709019932,0.5049809813499451,0.1247246861457824,0.4562633633613586,0.9435043931007384
1506,1629709020122,0.9368374347686768,0.1221718117594719,0.4468697905540466,0.974402666091919
1507,1629709020219,0.9376227259635924,0.1295150518417358,0.4458920061588287,0.974556803703308
1508,1629709020285,0.9376227259635924,0.1295929700136184,0.4457226097583771,0.974556803703308
1509,1629709020331,0.9376227259635924,0.1270498186349868,0.4457226097583771,0.974556803703308
1510,1629709020452,0.9376227259635924,0.1255269199609756,0.4425198137760162,0.9508646130561828
1511,1629709020608,0.9376227259635924,0.1093420982360839,0.4188681542873382,0.9241418838500975
1512,1629709020668,0.9376227259635924,0.056785013526678,0.3991330862045288,0.8937378525733948
1513,1629709020754,0.8709061145782471,0.0101992823183536,0.3639573752880096,0.8937378525733948
1514,1629709020899,0.4884217083454132,-0.0015278224600479,0.298440545797348,0.8937378525733948
1515,1629709020962,0.4884217083454132,-0.007455475628376,0.2156092673540115,0.8937378525733948
1516,1629709021113,0.4884217083454132,-0.0024410961195826,0.1779565513134002,0.8937378525733948
1517,1629709021170,0.4884217083454132,-0.0062036211602389,0.1740598678588867,0.8937378525733948
1518,1629709021287,0.4884217083454132,-0.0224919263273477,0.1750472486019134,0.8937378525733948
1519,1629709021391,0.4884217083454132,-0.033318568021059,0.1750472486019134,0.8937378525733948
1520,1629709021433,0.4884217083454132,-0.0282402485609054,0.1601456701755523,0.8933352828025818
1521,1629709021541,0.4884217083454132,-0.0087132938206195,0.1010348424315452,0.8933352828025818
1522,1629709021692,0.4884217083454132,0.0251903086900711,-0.0295933410525321,0.8933352828025818
1523,1629709021756,0.4884217083454132,0.0207085348665714,-0.1013936623930931,0.8933352828025818
1524,1629709021887,0.4884217083454132,0.0132394470274448,-0.1370390951633453,0.8933352828025818
1525,1629709021996,0.2275401949882507,0.0111552644520998,-0.1729676872491836,0.3733204305171966
1526,1629709022093,0.2281006872653961,0.0111552644520998,-0.2053756266832351,0.3855401873588562
1527,1629709022220,0.2287989109754562,0.0111552644520998,-0.239515870809555,0.3900884687900543
1528,1629709022290,0.2290120869874954,-0.0035692132078111,-0.2294086515903473,0.3915073871612549
1529,1629709022393,0.2336685508489608,-0.0431123673915863,-0.2276947200298309,0.3917894065380096
1530,1629709022516,0.239830881357193,-0.0802136436104774,-0.2149357348680496,0.3917894065380096
1531,1629709022593,0.2456332445144653,-0.0802136436104774,-0.2178071588277816,0.3917894065380096
1532,1629709022662,0.2473511844873428,-0.0740440338850021,-0.1693075001239776,0.3917894065380096
1533,1629709022766,0.2525765895843506,-0.0379338525235652,-0.1346857696771621,0.4153420329093933
1534,1629709022898,0.3111501932144165,-0.0101675642654299,-0.068742848932743,0.4647939801216125
1535,1629709022974,0.3790504336357116,-0.0043361196294426,-0.0233538746833801,0.4809678494930267
1536,1629709023085,0.3991467952728271,-0.0042203613556921,0.0209966395050287,0.4809678494930267
1537,1629709023220,0.4134328365325928,-0.0200046580284833,0.0435904189944267,0.4809678494930267
1538,1629709023283,0.4026305079460144,-0.0724928304553031,0.0524852313101291,0.4809678494930267
1539,1629709023413,0.4026305079460144,-0.0909849852323532,0.0667521730065345,0.4695767760276794
1540,1629709023533,0.4026305079460144,-0.0651747286319732,0.1161705255508422,0.442431628704071
1541,1629709023660,0.4026305079460144,-0.0466669090092182,0.3080717921257019,0.3750461935997009
1542,1629709023719,0.4026305079460144,-0.0198081005364656,0.3955163061618805,0.3095453381538391
1543,1629709023801,0.4026305079460144,0.0266574788838624,0.397146999835968,0.2985188066959381
1544,1629709023892,0.4026305079460144,0.0395599044859409,0.397146999835968,0.2985188066959381
1545,1629709023982,0.4026305079460144,0.0395599044859409,0.397146999835968,0.2985188066959381
1546,1629709024124,0.4026305079460144,0.0395599044859409,0.397146999835968,0.2985188066959381
1547,1629709024201,0.4026305079460144,0.0395599044859409,0.397146999835968,0.2985188066959381
1548,1629709024308,0.4026305079460144,0.0395599044859409,0.3947948217391968,0.2985188066959381
1549,1629709024415,0.4026305079460144,0.0388054028153419,0.3893519937992096,0.2985188066959381
1550,1629709024497,0.4026305079460144,0.0241865999996662,0.3885729908943176,0.2985188066959381
1551,1629709024590,0.4026305079460144,0.0513799749314785,0.3885729908943176,0.2985188066959381
1552,1629709024757,0.4026305079460144,0.0677138045430183,0.3830400705337524,0.2985188066959381
1553,1629709024860,0.2131977379322052,0.0751370042562484,0.3792320787906647,0.3784986734390259
1554,1629709024903,0.2344583868980407,0.0870051011443138,0.3776052594184875,0.4019870162010193
1555,1629709025031,0.2344583868980407,0.0823787748813629,0.3776052594184875,0.4483368694782257
1556,1629709025102,0.3119179904460907,0.0799547880887985,0.3745253980159759,0.4915066361427307
1557,1629709025192,0.4867603182792663,0.0764899551868438,0.319472461938858,0.5348914265632629
1558,1629709025339,0.6695911884307861,0.0666117817163467,0.1535767763853073,0.5537881255149841
1559,1629709025433,0.8186364769935608,0.0447520948946476,-0.0833117663860321,0.5537881255149841
1560,1629709025543,0.9000822901725769,0.0245034638792276,-0.1392320543527603,0.5537881255149841
1561,1629709025619,0.9336910247802734,0.0303448233753442,-0.1291068196296692,0.5592086911201477
1562,1629709025702,0.937131941318512,0.0331267975270748,-0.1065594777464866,0.5670163035392761
1563,1629709025821,0.9415377378463744,0.0399155654013156,-0.0831360295414924,0.5862924456596375
1564,1629709025966,0.948123037815094,0.0464074462652206,-0.0818573236465454,0.6180271506309509
1565,1629709026115,0.9498570561408995,0.0499314852058887,-0.065350703895092,0.6349277496337891
1566,1629709026193,0.9498570561408995,0.0469451360404491,-0.0187848713248968,0.638716459274292
1567,1629709026252,0.9498570561408995,0.0161032695323228,0.013922550715506,0.6436519026756287
1568,1629709026344,0.948739767074585,-0.0503403134644031,0.0368263721466064,0.6360808610916138
1569,1629709026436,0.9485174417495728,-0.1270941793918609,0.0677845105528831,0.6262264847755432
1570,1629709026573,0.9485174417495728,-0.1489980071783065,0.1349364519119262,0.6159673929214478
1571,1629709026670,0.9485174417495728,-0.1534510105848312,0.1935678720474243,0.6120544672012329
1572,1629709026783,0.9485174417495728,-0.1466863304376602,0.1975965350866317,0.6051175594329834
1573,1629709026866,0.9485174417495728,-0.1229927986860275,0.1983791142702102,0.5725038647651672
1574,1629709027003,0.9365578889846802,-0.0997131317853927,0.1996510326862335,0.5213744640350342
1575,1629709027043,0.9086176753044128,-0.037586148828268,0.2080832868814468,0.4954893290996551
1576,1629709027207,0.8766072988510132,0.0761231258511543,0.2130653113126754,0.4945302903652191
1577,1629709027258,0.7975237965583801,0.1477593332529068,0.2136178612709045,0.4945302903652191
1578,1629709027344,0.6829723119735718,0.161002516746521,0.2136178612709045,0.4945302903652191
1579,1629709027483,0.5706732869148254,0.1654166132211685,0.2095561027526855,0.4936696887016296
1580,1629709027514,0.5136237740516663,0.1655587404966354,0.202048659324646,0.4634779691696167
1581,1629709027613,0.4600616693496704,0.1655587404966354,0.1946194916963577,0.3914523422718048
1582,1629709027764,0.4412999749183655,0.1655587404966354,0.1880850195884704,0.311128705739975
1583,1629709027894,0.4412999749183655,0.1655587404966354,0.180437222123146,0.311128705739975
1584,1629709027968,0.4412999749183655,0.1655587404966354,0.1976155191659927,0.311128705739975
1585,1629709028092,0.4412999749183655,0.1655587404966354,0.2156197279691696,0.311128705739975
1586,1629709028170,0.4412999749183655,0.1655587404966354,0.2094776332378387,0.311128705739975
1587,1629709028233,0.4412999749183655,0.1655587404966354,0.171862319111824,0.311128705739975
1588,1629709028438,0.2917836308479309,0.1655587404966354,0.1617458760738372,0.4462392628192901
1589,1629709028495,0.4472964704036712,0.1638409793376922,0.1617458760738372,0.4757616221904754
1590,1629709028607,0.5709214806556702,0.1506357491016388,0.1508522778749466,0.5044825077056885
1591,1629709028670,0.6362136006355286,0.1166948825120925,0.1296178251504898,0.534833550453186
1592,1629709028764,0.6560075283050537,0.0610711090266704,0.1042176634073257,0.5606975555419922
1593,1629709028873,0.6698221564292908,-0.0754131376743316,0.0828305929899215,0.5790764093399048
1594,1629709028982,0.6810449957847595,-0.0976109951734542,0.0718081146478653,0.59617018699646
1595,1629709029107,0.6873260736465454,-0.0578603819012641,0.0704583898186683,0.6218462586402893
1596,1629709029201,0.6919101476669312,-0.0283304285258054,0.0709844902157783,0.6661086678504944
1597,1629709029310,0.7331213355064392,-0.0127452705055475,0.088552288711071,0.7315000295639038
1598,1629709029357,0.7825772762298584,-0.0065693501383066,0.1022037416696548,0.7587292194366455
1599,1629709029498,0.7827592492103577,0.0108333276584744,0.1088141947984695,0.7587292194366455
1600,1629709029623,0.7827592492103577,0.021223496645689,0.0816391482949256,0.7550867795944214
1601,1629709029732,0.7866072654724121,0.0225353147834539,0.0577848963439464,0.7550867795944214
1602,1629709029810,0.7873921394348145,0.0255337581038475,0.0448248460888862,0.7550867795944214
1603,1629709029951,0.787029504776001,0.0276600439101457,0.0416998155415058,0.7550867795944214
1604,1629709030016,0.787029504776001,0.025159515440464,0.0416998155415058,0.7547408938407898
1605,1629709030173,0.787029504776001,0.025159515440464,0.0416998155415058,0.7490344643592834
1606,1629709030219,0.7746471166610718,0.025159515440464,0.0416998155415058,0.7369728684425354
1607,1629709030360,0.7496370077133179,0.025159515440464,0.0416998155415058,0.7219938635826111
1608,1629709030454,0.7174184322357178,0.025159515440464,0.0416998155415058,0.6979636549949646
1609,1629709030563,0.6792617440223694,0.025159515440464,0.0416998155415058,0.678356945514679
1610,1629709030657,0.6593858003616333,-0.0048905219882726,0.0416998155415058,0.678356945514679
1611,1629709030735,0.6636345386505127,-0.0142610752955079,0.0416998155415058,0.677314043045044
1612,1629709030876,0.6813323497772217,-0.0285467486828565,0.0343889631330966,0.6483597159385681
1613,1629709030938,0.6667222380638123,-0.0342392958700656,-0.0049342522397637,0.5656660199165344
1614,1629709031032,0.5732582211494446,-0.043003786355257,0.0167827904224395,0.423528254032135
1615,1629709031126,0.4813840687274933,-0.026468351483345,0.0609652362763881,0.324134886264801
1616,1629709031223,0.4505871534347534,-0.0138115836307406,0.0811118856072425,0.2865074276924133
1617,1629709031317,0.4177850186824798,-0.0120136644691228,0.1039170622825622,0.3172852993011474
1618,1629709031426,0.3956759572029114,-0.020099414512515,0.1291435360908508,0.4375329315662384
1619,1629709031551,0.4119928777217865,-0.031162641942501,0.1291435360908508,0.6089300513267517
1620,1629709031660,0.4310808777809143,-0.0424152687191963,0.1356028616428375,0.7423383593559265
1621,1629709031788,0.4310808777809143,-0.0486207343637943,0.2073816210031509,0.7800718545913696
1622,1629709031836,0.4336337745189667,-0.0486207343637943,0.2752619087696075,0.7847212553024292
1623,1629709031913,0.4336337745189667,-0.0486207343637943,0.2891631126403808,0.7814420461654663
1624,1629709032132,0.4336337745189667,-0.0486207343637943,0.2919773161411285,0.7785621881484985
1625,1629709032210,0.4336337745189667,-0.0343396216630935,0.2919773161411285,0.7785621881484985
1626,1629709032257,0.4336337745189667,-0.0138425529003143,0.2919773161411285,0.7785621881484985
1628,1629709032335,0.4336337745189667,-0.0125621575862169,0.2919773161411285,0.7785621881484985
1627,1629709032398,0.4242439866065979,-0.0142350392416119,0.2919773161411285,0.7785621881484985
1629,1629709032507,0.3742308616638183,-0.0239960048347711,0.3002909719944,0.7785621881484985
1630,1629709032663,0.2948318123817444,-0.0181963648647069,0.3253571391105652,0.7711236476898193
1631,1629709032741,0.2080238312482834,-0.0193725265562534,0.3251356780529022,0.7657525539398193
1633,1629709032900,0.1489683985710144,-0.0451487973332405,0.3256105482578277,0.7653138637542725
1632,1629709032931,0.1153956651687622,-0.0841499492526054,0.3265639543533325,0.7653138637542725
1634,1629709033088,0.1153956651687622,-0.1098463907837867,0.32705157995224,0.7653138637542725
1635,1629709033150,0.1153956651687622,-0.1187278032302856,0.3360479772090912,0.7653138637542725
1636,1629709033291,0.1153956651687622,-0.122902899980545,0.3423291742801666,0.7653138637542725
1637,1629709033384,0.1153956651687622,-0.123017780482769,0.3430159389972687,0.7653138637542725
1638,1629709033447,0.1153956651687622,-0.123017780482769,0.3393629789352417,0.7653138637542725
1639,1629709033587,0.5698919296264648,-0.11928391456604,0.3393629789352417,0.3138211071491241
1640,1629709033665,0.6416692733764648,-0.1154234930872917,0.3393629789352417,0.3442613780498504
1641,1629709033790,0.6884331703186035,-0.1151052638888359,0.3433903455734253,0.3503771722316742
1642,1629709033872,0.6965280175209045,-0.1247619092464447,0.3433903455734253,0.3701459169387817
1643,1629709033997,0.6966376304626465,-0.1268218159675598,0.3480141460895538,0.3752890527248382
1644,1629709034107,0.6966376304626465,-0.130585104227066,0.3574959337711334,0.3802398443222046
1645,1629709034169,0.6966376304626465,-0.1589570492506027,0.361054003238678,0.3811884224414825
1646,1629709034325,0.6966376304626465,-0.2055595517158508,0.3495476543903351,0.3811884224414825
1647,1629709034341,0.6966376304626465,-0.2621268630027771,0.27612966299057,0.3811884224414825
1648,1629709034497,0.6966376304626465,-0.2762271761894226,0.1692199409008026,0.3811884224414825
1649,1629709034575,0.6966376304626465,-0.2950334250926971,0.1438087970018386,0.3879923522472381
1650,1629709034685,0.6966376304626465,-0.2969521582126617,0.1712294369935989,0.4000332355499267
1651,1629709034794,0.6966376304626465,-0.2969521582126617,0.1743488013744354,0.3993406593799591
1652,1629709034872,0.6921879649162292,-0.3158419132232666,0.1743488013744354,0.3973565697669983
1653,1629709034953,0.6879620552062988,-0.3304048478603363,0.1743488013744354,0.3958615362644195
1654,1629709035094,0.683414876461029,-0.329301118850708,0.1767860203981399,0.392089694738388
1655,1629709035234,0.6516826152801514,-0.3052218854427337,0.1795617192983627,0.3928692638874054
1656,1629709035281,0.6393554210662842,-0.2632537484169006,0.1765791326761245,0.4173292219638824
1657,1629709035390,0.5758575201034546,-0.256748229265213,0.1685006022453308,0.4374007284641266
1658,1629709035468,0.4743863344192505,-0.2411318123340606,0.1603215485811233,0.4364136755466461
1659,1629709035578,0.4446653127670288,-0.2411318123340606,0.1468869596719741,0.4364136755466461
1660,1629709035718,0.4414481520652771,-0.2411318123340606,0.1093915402889251,0.4328540563583374
1661,1629709035875,0.4414481520652771,-0.2261382788419723,0.0580407343804836,0.4259516596794128
1662,1629709035906,0.4414481520652771,-0.1916116327047348,0.0422297492623329,0.4199874103069305
1663,1629709035988,0.4414481520652771,-0.1916116327047348,0.109366625547409,0.4186511635780334
1664,1629709036097,0.4414481520652771,-0.1916116327047348,0.1197024807333946,0.4186511635780334
1665,1629709036206,0.4414481520652771,-0.1916116327047348,0.1145579516887664,0.4129993021488189
1666,1629709036347,0.4393573999404907,-0.1848298460245132,0.1061189249157905,0.4023829698562622
1667,1629709036456,0.431328535079956,-0.1739611476659774,0.0893194749951362,0.3912742137908935
1668,1629709036534,0.4231974184513092,-0.1399333626031875,0.0759564936161041,0.390093982219696
1669,1629709036597,0.4231974184513092,-0.1092433854937553,0.0759564936161041,0.390093982219696
1670,1629709036690,0.4231974184513092,-0.103468544781208,0.073909044265747,0.390093982219696
1671,1629709036784,0.4231974184513092,-0.0977912098169326,0.0643104240298271,0.390093982219696
1672,1629709036925,0.4231974184513092,-0.0904297530651092,0.0574355758726596,0.390093982219696
1673,1629709037021,0.4231974184513092,-0.0889623910188674,0.0583289563655853,0.390093982219696
1674,1629709037146,-0.0095222713425755,-0.1023540645837783,0.0603057071566581,0.3183423280715942
1675,1629709037193,-0.0095222713425755,-0.104693979024887,0.0556379221379756,0.3183423280715942
1676,1629709037302,-0.0095222713425755,-0.1061150953173637,0.0507651977241039,0.3183423280715942
1677,1629709037443,-0.0095222713425755,-0.1217129603028297,0.0547937862575054,0.3183423280715942
1678,1629709037537,-0.0095222713425755,-0.1571294516324997,0.0525971502065658,0.3183423280715942
1679,1629709037708,-0.0095222713425755,-0.1682904511690139,0.0652420595288276,0.3183423280715942
1680,1629709037740,-0.0095222713425755,-0.1663320809602737,0.1703346222639084,0.3183423280715942
1681,1629709037865,-0.0095222713425755,-0.1404052376747131,0.2426759898662567,0.3183423280715942
1682,1629709037943,-0.0095222713425755,-0.1182152777910232,0.2539122104644775,0.3183423280715942
1683,1629709038055,-0.0095222713425755,-0.1087374687194824,0.2625518143177032,0.3183423280715942
1684,1629709038149,-0.0095222713425755,-0.1109505593776702,0.2745256125926971,0.3183423280715942
1685,1629709038242,-0.0095222713425755,-0.1282414346933365,0.2742919623851776,0.3183423280715942
1686,1629709038367,-0.0095222713425755,-0.1283916682004928,0.2736326158046722,0.3183423280715942
1687,1629709038399,-0.0095222713425755,-0.11367729306221,0.2816024124622345,0.3183423280715942
1688,1629709038539,-0.0095222713425755,-0.1049244478344917,0.2898066639900207,0.3183423280715942
1689,1629709038649,-0.0095222713425755,-0.1075928807258606,0.2989602982997894,0.3183423280715942
1690,1629709038773,-0.0095222713425755,-0.136545330286026,0.3005923926830292,0.3183423280715942
1691,1629709038883,0.7269116044044495,-0.1601165980100631,0.3011634349822998,0.683046817779541
1692,1629709038961,0.7627583146095276,-0.174845352768898,0.301362544298172,0.6853892207145691
1693,1629709039027,0.7854095697402954,-0.1841503977775573,0.301362544298172,0.6889535188674927
1694,1629709039090,0.8004021048545837,-0.1934093236923217,0.301362544298172,0.6966118812561035
1695,1629709039230,0.8004021048545837,-0.1797762513160705,0.302016407251358,0.7200472950935364
1696,1629709039387,0.8053408265113831,-0.1747631579637527,0.2872252166271209,0.7449662685394287
1697,1629709039434,0.828864574432373,-0.1766866445541381,0.2644386291503906,0.7707973122596741
1698,1629709039574,0.8677012324333191,-0.1796855479478836,0.2814298570156097,0.800754189491272
1699,1629709039652,0.8957300186157227,-0.1715821176767349,0.3109336495399475,0.8213038444519043
1700,1629709039762,0.8957300186157227,-0.1539409607648849,0.3414170444011688,0.8213038444519043
1701,1629709039871,0.8957300186157227,-0.1245928853750228,0.3405543863773346,0.8213038444519043
1702,1629709039996,0.8957300186157227,-0.1284621655941009,0.3405543863773346,0.8213038444519043
1703,1629709040142,0.8957300186157227,-0.1306352913379669,0.3419266939163208,0.8213038444519043
1704,1629709040204,0.8957300186157227,-0.164866954088211,0.3483193218708038,0.8083229064941406
1705,1629709040267,0.8957300186157227,-0.1874796748161316,0.359283447265625,0.7958702445030212
1706,1629709040376,0.8939912915229797,-0.1742283999919891,0.38072469830513,0.7883505821228027
1707,1629709040485,0.8734742999076843,-0.1593403220176696,0.3967039883136749,0.7778457403182983
1708,1629709040579,0.8436527848243713,-0.1443296819925308,0.4049217998981476,0.7617027759552002
1709,1629709040673,0.7991515398025513,-0.1021153777837753,0.4032748341560364,0.7544339299201965
1710,1629709040798,0.7552401423454285,-0.0618239231407642,0.4012736976146698,0.7218530178070068
1711,1629709040912,0.7510185837745667,-0.0615109652280807,0.397885113954544,0.6859238147735596
1712,1629709040975,0.7510185837745667,-0.0570846870541572,0.397885113954544,0.6786784529685974
1713,1629709041069,0.7510185837745667,-0.0294295717030763,0.397885113954544,0.6786784529685974
1714,1629709041209,0.7510185837745667,-0.0013696366222575,0.397885113954544,0.6786784529685974
1715,1629709041318,0.7510185837745667,0.0095502268522977,0.3957787156105041,0.6786784529685974
1716,1629709041412,0.7510185837745667,0.0079576838761568,0.3750162124633789,0.6786784529685974
1717,1629709041475,0.3821443021297455,0.0079007493332028,0.3614518046379089,0.6786784529685974
1718,1629709041553,0.4264504015445709,0.0079007493332028,0.3661451339721679,0.5385393500328064
1719,1629709041631,0.5682063698768616,0.0265672262758016,0.3707323372364044,0.854922354221344
1720,1629709041803,0.7191488146781921,0.0506630167365074,0.378420889377594,1.076957941055298
1721,1629709041899,0.7921590209007263,0.0497393533587455,0.3755751848220825,1.1724200248718262
1722,1629709041992,0.8079461455345154,0.0573018714785575,0.3326233923435211,1.189975619316101
1723,1629709042102,0.8079461455345154,0.1133292466402053,0.2338278293609619,1.1943438053131104
1724,1629709042211,0.8079461455345154,0.1627831310033798,0.1136866584420204,1.1943438053131104
1725,1629709042305,0.8079461455345154,0.1772831380367279,0.0574463568627834,1.1943438053131104
1726,1629709042414,0.8079461455345154,0.153413638472557,0.0350422300398349,1.1943438053131104
1727,1629709042493,0.8079461455345154,0.123038649559021,0.03130704164505,1.1943438053131104
1728,1629709042633,0.8079461455345154,0.1212392002344131,0.0298692751675844,1.1943438053131104
1729,1629709042695,0.8079461455345154,0.1207923665642738,0.0247052814811468,1.1943438053131104
1730,1629709042805,0.8031474351882935,0.1203469783067703,0.0211493857204914,1.1943438053131104
1731,1629709042883,0.7859470248222351,0.127399206161499,0.0134335048496723,1.1943438053131104
1732,1629709043042,0.7863029837608337,0.1489066034555435,0.0134335048496723,1.1943438053131104
1733,1629709043152,0.7863029837608337,0.172042042016983,0.0134335048496723,1.1943438053131104
1734,1629709043214,0.7882949709892273,0.172042042016983,0.0122080398723483,1.1943438053131104
1735,1629709043308,0.784297525882721,0.1711322516202926,0.0031591311562806,1.1923731565475464
1736,1629709043417,0.7703550457954407,0.1634452790021896,-0.0318282395601272,1.1386204957962036
1737,1629709043511,0.7105628252029419,0.1634452790021896,-0.112169362604618,0.9628781080245972
1738,1629709043652,0.6167923808097839,0.1567308753728866,-0.2084777951240539,0.6956651210784912
1739,1629709043750,0.5786566734313965,0.1232685148715972,-0.234513372182846,0.4766007959842682
1740,1629709043844,0.5749773979187012,0.11459930986166,-0.234513372182846,0.4444411396980285
1741,1629709043953,0.5749773979187012,0.1065805256366729,-0.234513372182846,0.4453892409801483
1742,1629709044003,0.5749773979187012,0.0892261862754821,-0.2309721261262893,0.4453892409801483
1743,1629709044128,0.5749773979187012,0.0925325900316238,-0.2152942717075348,0.4448611438274383
1744,1629709044253,0.5749773979187012,0.0911763682961463,-0.1905558407306671,0.4448611438274383
1745,1629709044347,0.5789598226547241,0.1072675809264183,-0.1620421409606933,0.4448611438274383
1746,1629709044440,0.6076160073280334,0.1316962391138076,-0.1294284462928772,0.4448611438274383
1747,1629709044534,0.6264535784721375,0.1452012062072754,-0.1098928749561309,0.4458164274692535
1748,1629709044628,0.6209147572517395,0.1343556195497512,-0.1075053885579109,0.4335797131061554
1749,1629709044722,0.5723984241485596,0.1064251437783241,-0.1175367981195449,0.3867747485637665
1750,1629709044833,0.5500437617301941,0.0832947045564651,-0.1394670158624649,0.3321242332458496
1751,1629709044957,0.5499387383460999,0.0828322321176529,-0.1472679376602172,0.2946804165840149
1752,1629709045051,0.5583218336105347,0.088030070066452,-0.1325646787881851,0.277513712644577
1753,1629709045161,0.5917547345161438,0.100014291703701,-0.1081301942467689,0.2765541970729828
1754,1629709045239,0.6474523544311523,0.1024878323078155,-0.0284722559154033,0.2765541970729828
1755,1629709045332,0.6909011602401733,0.0940231531858444,0.0471060909330844,0.2679614424705505
1756,1629709045442,0.7117252349853516,0.0778044015169143,0.085724763572216,0.2523617446422577
1757,1629709045567,0.7114861607551575,0.0535540059208869,0.0878070220351219,0.2492881268262863
1758,1629709045676,0.7086213231086731,0.0438598617911338,0.0914857015013694,0.2536303400993347
1759,1629709045723,0.6846386790275574,-0.0043814643286168,0.0945334434509277,0.2684745192527771
1760,1629709045850,0.6637076139450073,-0.0132004795596003,0.0945334434509277,0.2823876738548279
1761,1629709045975,0.6637076139450073,0.0150675717741251,0.0898087695240974,0.2785731554031372
1762,1629709046053,0.6674896478652954,0.0487815104424953,0.0754545032978057,0.2572892904281616
1763,1629709046178,0.6619544625282288,0.0888249725103378,0.0658758282661438,0.2540115416049957
1764,1629709046272,0.6569938659667969,0.1059779971837997,0.0619854144752025,0.2711977958679199
1765,1629709046365,0.6569938659667969,0.1059779971837997,0.0608789250254631,0.2811754643917084
1766,1629709046475,0.6569938659667969,0.1059779971837997,0.0608789250254631,0.2804976105690002
1767,1629709046521,0.6569938659667969,0.1059779971837997,0.0608789250254631,0.263955682516098
1768,1629709046709,0.6569938659667969,0.1059779971837997,0.0608789250254631,0.2520999312400818
1769,1629709046771,0.6550400257110596,0.0857204049825668,0.0714417397975921,0.24175725877285
1770,1629709046883,0.6406742334365845,0.0580899715423584,0.0888340771198272,0.2317237108945846
1771,1629709047008,0.6081076860427856,0.0343204885721206,0.0755922421813011,0.2167541831731796
1772,1629709047055,0.5492595434188843,0.0261368695646524,0.0122814262285828,0.2150923460721969
1773,1629709047180,0.4815805852413177,0.0274114925414323,0.0042631481774151,0.2150923460721969
1774,1629709047290,0.4167021214962005,0.0173924472182989,-0.0002891562471631,0.2150923460721969
1775,1629709047415,0.4021424353122711,0.0139023531228303,-0.0075155096128582,0.1986746788024902
1776,1629709047461,0.3995539247989654,0.0155376652255654,-0.0110118146985769,0.1486760228872299
1777,1629709047696,0.3995539247989654,0.0246001072227954,-0.017759945243597,0.1486760228872299
1778,1629709047696,0.3995539247989654,0.0191615503281354,-0.0154672479256987,0.1486760228872299
1779,1629709047789,0.3995539247989654,0.0010279787238687,-0.0165137015283107,0.1486760228872299
1780,1629709047884,0.3995539247989654,-0.041354950517416,0.0007293463568203,0.1486760228872299
1781,1629709048011,0.4053106307983398,-0.0504536777734756,0.0098676942288875,0.5070084929466248
1782,1629709048089,0.5125459432601929,-0.0464392267167568,0.0077258544042706,0.5723513960838318
1783,1629709048198,0.631752610206604,-0.0400011129677295,0.0015435123350471,0.6217823624610901
1784,1629709048326,0.6789294481277466,-0.0400011129677295,0.0015435123350471,0.6217823624610901
1785,1629709048451,0.6838153004646301,-0.0400011129677295,0.0037914535496383,0.6217823624610901
1786,1629709048498,0.6838153004646301,-0.0400011129677295,-0.0370409339666366,0.6217823624610901
1787,1629709048623,0.6838153004646301,-0.0411586128175258,-0.1022121086716651,0.6217823624610901
1788,1629709048670,0.6838153004646301,-0.0492396540939807,-0.1245572119951248,0.6217823624610901
1789,1629709048779,0.6838153004646301,-0.0532936379313468,-0.1623682826757431,0.6217823624610901
1790,1629709048889,0.6838153004646301,-0.0532936379313468,-0.2166590541601181,0.6217823624610901
1791,1629709049001,0.6838153004646301,-0.0684465914964675,-0.1709420382976532,0.6217823624610901
1792,1629709049126,0.6838153004646301,-0.0835979431867599,-0.1183747723698616,0.6217823624610901
1793,1629709049220,0.7037491798400879,-0.0950682982802391,-0.0826612561941146,0.622689962387085
1794,1629709049282,0.7037491798400879,-0.1324257999658584,-0.0550945810973644,0.6095020771026611
1795,1629709049392,0.7037491798400879,-0.1565525233745575,-0.0349584594368934,0.598177969455719
1796,1629709049470,0.7037491798400879,-0.1640782356262207,-0.0224009566009044,0.5768975615501404
1797,1629709049579,0.6972111463546753,-0.1640782356262207,-0.0241996049880981,0.5549862384796143
1798,1629709049704,0.664213240146637,-0.1713064610958099,-0.0284347627311944,0.212314173579216
1799,1629709049848,0.5976584553718567,-0.1713064610958099,-0.0284347627311944,0.2471865266561508
1800,1629709049910,0.3821597397327423,-0.1767448335886001,-0.029535649344325,0.251900851726532
1801,1629709050003,0.4058422744274139,-0.2042229175567627,-0.037417896091938,0.2641260325908661
1802,1629709050097,0.4101619124412536,-0.2725199162960052,-0.037417896091938,0.28302001953125
1803,1629709050222,0.4101619124412536,-0.2925831973552704,-0.037417896091938,0.3105428218841553
1804,1629709050363,0.4166961908340454,-0.2400998473167419,-0.037417896091938,0.3289877474308014
1805,1629709050456,0.4279707968235016,-0.1720373481512069,-0.037417896091938,0.3327316641807556
1806,1629709050535,0.4506139457225799,-0.1592175960540771,-0.0446829386055469,0.3327316641807556
1807,1629709050644,0.4511962532997131,-0.15935879945755,-0.0665863305330276,0.3327316641807556
1808,1629709050691,0.3882096409797668,-0.1552844494581222,-0.1036521717905998,0.276926189661026
1809,1629709050818,0.3389766216278076,-0.1492730230093002,-0.1667965203523636,0.264340877532959
1810,1629709050959,0.3122014999389648,-0.1463303416967392,-0.2570056915283203,0.2673003077507019
1811,1629709051068,0.300057053565979,-0.1421056687831878,-0.2600126564502716,0.3142130076885223
1812,1629709051115,0.3560644686222076,-0.1419743448495865,-0.2351510673761367,0.3942997753620147
1813,1629709051271,0.4888922870159149,-0.1356110870838165,-0.2476595193147659,0.4900597631931305
1814,1629709051334,0.5978301167488098,-0.1274936497211456,-0.2012155950069427,0.6025199294090271
1815,1629709051412,0.6213259696960449,-0.1193730756640434,-0.1337600946426391,0.6339561343193054
1816,1629709051568,0.6226930618286133,-0.1124269813299179,-0.1017345264554023,0.635540246963501
1817,1629709051662,0.6183395385742188,-0.1124269813299179,-0.0696641877293586,0.635540246963501
1818,1629709051755,0.6183395385742188,-0.1160366088151931,-0.050702653825283,0.635540246963501
1819,1629709051881,0.6183395385742188,-0.1249409615993499,-0.0351000800728797,0.6348890662193298
1820,1629709051943,0.6183395385742188,-0.1362911611795425,0.0054083215072751,0.6306962370872498
1821,1629709051990,0.6139819622039795,-0.1930048465728759,0.0369085147976875,0.622567355632782
1822,1629709052162,0.6008308529853821,-0.2481660544872284,0.0595477521419525,0.6161308288574219
1823,1629709052255,0.6029248237609863,-0.273697018623352,0.1022250205278396,0.6161308288574219
1824,1629709052349,0.6120553612709045,-0.2096776217222213,0.1546234935522079,0.6275812387466431
1825,1629709052412,0.6293795108795166,-0.1017905175685882,0.1691073179244995,0.6537953615188599
1826,1629709052600,0.6629518866539001,0.0021554988343268,0.1691073179244995,0.6709545850753784
1827,1629709052631,0.7099447846412659,0.0470159351825714,0.1689071506261825,0.6799594759941101
1828,1629709052787,0.7225225567817688,0.0516259372234344,0.1596011072397232,0.6767098307609558
1829,1629709052899,0.7195107936859131,0.0399834066629409,0.15945665538311,0.6535762548446655
1830,1629709052961,0.663496196269989,0.035812072455883,0.1585557609796524,0.5879814624786377
1831,1629709053039,0.586511492729187,0.0274953711777925,0.155520349740982,0.7255894541740417
1832,1629709053149,0.520077109336853,0.0113095035776495,0.1522325724363327,1.0001682043075562
1833,1629709053227,0.5069000720977783,0.0038247359916567,0.1757865697145462,1.2057138681411743
1834,1629709053383,0.5085270404815674,-0.009289083071053,0.2202925533056259,1.2990460395812988
1835,1629709053477,0.5399665832519531,-0.0272272508591413,0.21765998005867,1.306737184524536
1836,1629709053586,0.5526430606842041,-0.0410092659294605,0.2202614992856979,1.307282328605652
1837,1629709053664,0.5626857280731201,-0.0425761900842189,0.2283573746681213,1.3138967752456665
1838,1629709053789,0.5745273232460022,-0.0425761900842189,0.2331040948629379,1.3176158666610718
1839,1629709053820,0.5965805649757385,-0.0425761900842189,0.2337896525859832,1.3185428380966189
1840,1629709054011,0.628020167350769,-0.0425761900842189,0.215567484498024,1.318642020225525
1841,1629709054073,0.6587534546852112,-0.0397387184202671,0.205688402056694,1.3194377422332764
1842,1629709054182,0.6744638681411743,-0.0915684401988983,0.205688402056694,1.3194377422332764
1843,1629709054292,0.651936411857605,-0.1393344104290008,0.2060572355985641,1.3195446729660034
1844,1629709054417,0.6498401761054993,-0.1573762446641922,0.2060572355985641,1.319567322731018
1845,1629709054479,0.6498401761054993,-0.1683703064918518,0.2060572355985641,1.319567322731018
1846,1629709054636,0.6498401761054993,-0.1591180264949798,0.2060572355985641,1.319567322731018
1847,1629709054776,0.6409743428230286,-0.1560496389865875,0.2060572355985641,1.319567322731018
1848,1629709054823,0.6253046989440918,-0.1395613402128219,0.2055902481079101,1.3177752494812012
1849,1629709054873,0.6052750945091248,-0.1132722645998001,0.1630348265171051,1.278487205505371
1850,1629709054982,0.6022608280181885,-0.0876639708876609,0.0629389062523841,1.1220927238464355
1851,1629709055122,0.5986064076423645,-0.0720531344413757,-0.0037026668433099,0.8743390440940857
1852,1629709055232,0.5739462375640869,-0.0782099440693855,-0.0235683750361204,0.6574686765670776
1853,1629709055278,0.5565300583839417,-0.0799867287278175,-0.037665594369173,0.6649198532104492
1854,1629709055419,0.5487774014472961,-0.0801789909601211,-0.0658405870199203,0.7164586782455444
1855,1629709055513,0.5488183498382568,-0.0875603854656219,-0.0757498741149902,0.7542011141777039
1856,1629709055622,0.5305142998695374,-0.0927567183971405,-0.0757498741149902,0.7832207679748535
1857,1629709055685,0.481806606054306,-0.0935226678848266,-0.0757498741149902,0.8014240264892578
1858,1629709055810,0.4068332612514496,-0.0935226678848266,-0.0757498741149902,0.7796277403831482
1859,1629709055922,0.3683036863803863,-0.0959401652216911,-0.0757498741149902,0.7540757656097412
1860,1629709056033,0.3598862886428833,-0.1015626639127731,-0.0757498741149902,0.7496097087860107
1861,1629709056095,0.3613893389701843,-0.1106263399124145,-0.0653565004467964,0.7496097087860107
1862,1629709056205,0.3862686455249786,-0.1182546019554138,-0.0494845435023307,0.7537208795547485
1863,1629709056283,0.4161710739135742,-0.1194110736250877,-0.0070284963585436,0.7792180776596069
1865,1629709056455,0.4280901849269867,-0.1121594458818435,0.0136190922930836,0.8157379627227783
1864,1629709056501,0.435545414686203,-0.0968344509601593,0.0152963902801275,0.8415146470069885
1866,1629709056611,0.4421440660953522,-0.1128632202744484,0.021061822772026,0.8610153794288635
1867,1629709056705,0.4647072255611419,-0.1567403376102447,0.0353092513978481,0.8679800033569336
1868,1629709056798,0.5578797459602356,-0.1460271626710891,0.047485239803791,0.872778594493866
1869,1629709056961,0.7012858390808105,-0.1460271626710891,0.039170354604721,0.8701622486114502
1870,1629709057027,0.8422241806983948,-0.1483727246522903,0.0277580264955759,0.8713115453720093
1871,1629709057168,0.91969633102417,-0.1622103899717331,0.0217197649180889,0.8665275573730469
1872,1629709057246,0.9253301620483398,-0.2031862735748291,0.0188391245901584,0.855037271976471
1873,1629709057371,0.930503785610199,-0.224723145365715,0.0165903344750404,0.839876115322113
1874,1629709057402,0.9359729290008544,-0.1967717707157135,0.0163537263870239,0.8544220328330994
1875,1629709057543,0.9615422487258912,-0.1290100216865539,0.0401464886963367,0.8890080451965332
1876,1629709057621,0.9935890436172484,-0.0374140627682209,0.0534722991287708,0.9388090372085572
1877,1629709057746,1.0164369344711304,0.0389545373618602,0.051124732941389,0.9869547486305236
1878,1629709057855,1.019019365310669,0.0746755078434944,0.0479959398508071,1.0108418464660645
1879,1629709057949,1.019019365310669,0.0785866603255271,0.0410514064133167,1.0208638906478882
1880,1629709058029,1.019019365310669,0.0798922628164291,0.0410514064133167,1.0183814764022827
1881,1629709058139,1.019019365310669,0.0934371128678321,0.0410514064133167,1.016181230545044
1882,1629709058264,1.019019365310669,0.0921640545129776,0.0410514064133167,1.0114219188690186
1883,1629709058389,1.019019365310669,0.0912754982709884,0.0349957346916198,1.006306290626526
1884,1629709058436,1.017295002937317,0.0916149392724037,0.0210291314870119,0.9994045495986938
1885,1629709058529,1.0169968605041504,0.0916149392724037,0.0130740273743867,0.9948159456253052
1886,1629709058654,1.007332444190979,0.0916149392724037,0.0050291214138269,0.988271951675415
1887,1629709058701,0.9370366930961608,0.0916149392724037,0.0050291214138269,0.9720584750175476
1888,1629709058892,0.872155487537384,0.1043430045247078,0.0050291214138269,0.9745287895202636
1889,1629709058971,0.9013142585754396,0.1178151443600654,0.0052700322121381,0.9810399413108826
1890,1629709059049,0.9922261238098145,0.1336035430431366,-0.0026275059208273,0.9798992276191713
1891,1629709059189,1.02587628364563,0.1412923485040664,0.0023153193760663,0.9661486148834229
1892,1629709059252,1.022688388824463,0.1347022056579589,0.0135173127055168,0.96205472946167
1893,1629709059408,0.9763569831848145,0.117917314171791,0.0002098335098708,0.940583884716034
1894,1629709059533,0.9332051873207092,0.1078277304768562,-0.0100160678848624,0.8941451907157898
1895,1629709059580,0.9371606707572936,0.1003443449735641,0.0006701435777358,0.8232394456863403
1896,1629709059658,0.941860556602478,0.1258802413940429,0.0006701435777358,0.7487602829933167
1897,1629709059752,0.943025529384613,0.1500057280063629,0.0006701435777358,0.7117604613304138
1898,1629709059832,0.957216501235962,0.1490488797426223,0.0006701435777358,0.7205072641372681
1899,1629709059989,0.9701095819473268,0.1340227425098419,0.0006701435777358,0.7274027466773987
1900,1629709060098,0.9713058471679688,0.1199058964848518,0.0006701435777358,0.7323106527328491
1901,1629709060192,0.9761797189712524,0.1194102764129638,0.0006701435777358,0.7401742339134216
1902,1629709060285,0.9814143776893616,0.1200931221246719,0.0006701435777358,0.7470341920852661
1903,1629709060410,0.9852699637413024,0.1209413781762123,0.0006701435777358,0.7489894032478333
1904,1629709060442,1.0041941404342651,0.1209413781762123,0.000883889850229,0.7507070302963257
1905,1629709060582,1.055680513381958,0.1203242540359497,0.005403475370258,0.7403160929679871
1906,1629709060692,1.0999197959899902,0.1068267449736595,0.006478298921138,0.7326679229736328
1907,1629709060770,1.1065782308578491,0.0632233247160911,0.0003447684575803,0.7266952395439148
1908,1629709060991,1.114166259765625,0.0417430102825164,-0.0607908628880977,0.721156895160675
1909,1629709061022,1.1182483434677124,0.0417430102825164,-0.1631567776203155,0.6934886574745178
1910,1629709061085,1.1182483434677124,0.0425995923578739,-0.2073989808559417,0.6658371686935425
1911,1629709061178,1.111202359199524,0.043819535523653,-0.2442945837974548,0.7214974164962769
1912,1629709061272,1.1092945337295532,0.043819535523653,-0.2476761043071746,0.7672803997993469
1913,1629709061366,1.1092945337295532,0.0423381775617599,-0.2151800394058227,0.7745398283004761
1914,1629709061506,1.1058504581451416,0.0305434260517358,-0.1656218320131302,0.776959240436554
1915,1629709061647,1.0910919904708862,0.0300607718527317,-0.137264534831047,0.7727097868919373
1916,1629709061678,1.078525185585022,0.0300607718527317,-0.1325948238372802,0.7715467810630798
1917,1629709061756,1.074784755706787,0.024137407541275,-0.1346106678247451,0.7786657214164734
1918,1629709061916,1.071755051612854,0.0030753656756132,-0.1409579366445541,0.7844633460044861
1919,1629709061994,1.0700753927230835,-0.0546113438904285,-0.1131752207875251,0.7841863036155701
1920,1629709062103,1.0609592199325562,-0.1258430182933807,-0.0669250935316085,0.7808488607406616
1921,1629709062181,1.051913857460022,-0.1645402759313583,-0.0173799823969602,0.780509889125824
1922,1629709062322,0.9839258193969728,-0.1460945010185241,0.0350422002375125,0.7879077792167664
1923,1629709062400,0.8777620196342468,-0.1108491271734237,0.0615953840315341,0.7939406633377075
1924,1629709062509,0.8524290919303894,-0.1090607419610023,0.06398206949234,0.7939406633377075
1925,1629709062634,0.8171472549438477,-0.1033091023564338,0.0710723921656608,0.7939406633377075
1926,1629709062728,0.8132696747779846,-0.0614173486828804,0.0746757164597511,0.7939252853393555
1927,1629709062821,0.8199759721755981,-0.0136011540889739,0.0696450024843216,0.7795742154121399
1928,1629709062900,0.8199759721755981,0.0102410269901156,0.0730068311095237,0.7380518913269043
1929,1629709063012,0.8381134867668152,0.013103062286973,0.0730068311095237,0.6768694519996643
1930,1629709063121,0.8921862244606018,0.0031760642305016,0.065936230123043,0.6363955140113831
1931,1629709063230,0.9582979083061218,-0.0133054433390498,0.0534508824348449,0.6497501730918884
1932,1629709063340,1.0130342245101929,-0.032480027526617,0.0428684093058109,0.6847813129425049
1933,1629709063418,1.0175765752792358,-0.0407042801380157,0.037734780460596,0.7133319973945618
1934,1629709063496,1.025256872177124,-0.0458817519247531,0.022047784179449,0.730413019657135
1935,1629709063637,1.043203592300415,-0.0458817519247531,0.0169822964817285,0.7785865664482117
1936,1629709063730,1.051256775856018,-0.0458817519247531,0.0156238554045557,0.8137317895889282
1937,1629709063856,1.042971134185791,-0.0458817519247531,0.0139263579621911,0.808659553527832
1938,1629709063933,1.0375311374664309,-0.0295368079096078,0.0129122696816921,0.8084523677825928
1939,1629709064044,1.0375311374664309,0.0749987587332725,0.0255505237728357,0.8088098168373108
1940,1629709064169,1.0375311374664309,0.2042803019285202,0.0246369019150733,0.811527669429779
1941,1629709064216,1.0375311374664309,0.2597784399986267,0.0143801541998982,0.8183755874633789
1942,1629709064357,1.0385267734527588,0.2601771056652069,-0.0128776356577873,0.8250636458396912
1943,1629709064451,1.0385267734527588,0.2611873149871826,-0.051886111497879,0.8505465388298035
1944,1629709064544,1.0490412712097168,0.270982414484024,-0.0557476989924907,0.8656938076019287
1945,1629709064654,1.0706117153167725,0.2854205667972564,-0.0392921082675457,0.8769685626029968
1946,1629709064716,1.0712970495224,0.295055091381073,0.036438163369894,0.881716787815094
1947,1629709064857,1.055506706237793,0.2974903583526611,0.1235533058643341,0.881716787815094
1948,1629709064966,1.019258975982666,0.2971948087215423,0.1502238512039184,0.881716787815094
1949,1629709065080,1.018891215324402,0.2971948087215423,0.1502238512039184,0.8812692165374756
1950,1629709065142,1.0253008604049685,0.3002749979496002,0.1508658528327942,0.864739716053009
1951,1629709065236,1.0528312921524048,0.3244177997112274,0.1518606841564178,0.8149334192276001
1952,1629709065345,1.079717755317688,0.3470494747161865,0.1563545018434524,0.8123225569725037
1953,1629709065408,1.0850341320037842,0.3470494747161865,0.1667790859937667,0.8278382420539856
1954,1629709065564,1.0850341320037842,0.3389554917812347,0.1695850193500518,0.8278382420539856
1955,1629709065689,1.0850341320037842,0.3268120884895324,0.1606887429952621,0.8278382420539856
1956,1629709065752,1.0850341320037842,0.285701036453247,0.1517770290374755,0.8278382420539856
1957,1629709065824,1.0850341320037842,0.1800041645765304,0.1498842388391494,0.8278382420539856
1958,1629709065990,1.0750175714492798,0.1550197005271911,0.1480729877948761,0.8264688849449158
1959,1629709066068,1.0555027723312378,0.1521336585283279,0.1480729877948761,0.8415740728378296
1960,1629709066209,1.0284457206726074,0.1497337520122528,0.1480729877948761,0.8180608153343201
1961,1629709066271,0.976979911327362,0.1482632756233215,0.1500700414180755,0.7995452880859375
1962,1629709066380,0.93111652135849,0.1472162008285522,0.1262892335653305,0.7949425578117371
1963,1629709066505,0.9071817398071288,0.1410904228687286,0.0796669721603393,0.7933693528175354
1964,1629709066568,0.8957339525222778,0.1336289495229721,0.0638032406568527,0.7915565967559814
1965,1629709066615,0.8790344595909119,0.1326252073049545,0.0638032406568527,0.789365291595459
1966,1629709066771,0.8441017270088196,0.1277964413166046,0.0638032406568527,0.7936096787452698
1967,1629709066883,0.8276535272598267,0.1037461385130882,0.0638032406568527,0.7953199744224548
1968,1629709067008,0.7927345633506775,0.0335449129343032,0.0628122985363006,0.8132436871528625
1969,1629709067101,0.7931289672851562,-0.0291761215776205,0.0401037521660327,0.8502522706985474
1970,1629709067195,0.8365582823753357,-0.0398106649518013,0.0100263925269246,0.9021270871162416
1971,1629709067258,0.8570853471755981,-0.0397366471588611,-0.0063730310648679,0.9236714243888856
1972,1629709067398,0.8651319742202759,-0.0463001392781734,-0.0216651335358619,0.9337867498397828
1973,1629709067523,0.8793152570724487,-0.0697962939739227,-0.0548177883028984,0.9441547393798828
1974,1629709067586,0.8641488552093506,-0.1120835989713668,-0.0766403973102569,0.9441547393798828
1975,1629709067664,0.830906867980957,-0.1218013316392898,-0.0843277722597122,0.9441547393798828
1976,1629709067773,0.8080974817276001,-0.1192950904369354,-0.0922660231590271,0.9424784779548644
1977,1629709067867,0.7995482087135315,-0.1122569292783737,-0.0941837802529335,0.941050112247467
1978,1629709067995,0.7957040071487427,-0.110351912677288,-0.1103906705975532,0.941050112247467
1979,1629709068104,0.7954574227333069,-0.1079373583197593,-0.1325030773878097,0.939455509185791
1980,1629709068229,0.7929071187973022,-0.079400822520256,-0.129649817943573,0.9386258721351624
1981,1629709068323,1.0260508060455322,-0.0325538776814937,-0.1202599629759788,0.9396012425422668
1982,1629709068416,1.145472288131714,0.0444412864744663,-0.1214035376906395,0.9533733129501344
1983,1629709068447,1.1654680967330933,0.1079625710844993,-0.1278414577245712,0.9568790793418884
1984,1629709068651,1.1708275079727173,0.1400074660778045,-0.1311565488576889,0.9501701593399048
1985,1629709068729,1.1716687679290771,0.1513414084911346,-0.1316533535718917,0.9160889387130736
1986,1629709068822,1.1716687679290771,0.149147093296051,-0.1329053193330764,0.8812628388404846
1987,1629709068869,1.17418372631073,0.1385167688131332,-0.1613158881664276,0.8267770409584045
1988,1629709068979,1.1810468435287476,0.1385167688131332,-0.176703467965126,0.7643481492996216
1989,1629709069104,1.1864700317382812,0.1385167688131332,-0.2080615311861038,0.7640236616134644
1990,1629709069244,1.191253662109375,0.1385167688131332,-0.2118769884109497,0.7640236616134644
1991,1629709069369,1.2010117769241333,0.1385167688131332,-0.152105763554573,0.7640236616134644
1992,1629709069416,1.2249975204467771,0.1385167688131332,-0.0818367674946785,0.7652457356452942
1993,1629709069510,1.2443526983261108,0.1385167688131332,-0.0310172624886035,0.7823704481124878
1994,1629709069603,1.24898099899292,0.1398022025823593,-0.0198505688458681,0.8007474541664124
1995,1629709069697,1.24898099899292,0.1398022025823593,-0.0198505688458681,0.8194292783737183
1996,1629709069838,1.24898099899292,0.1398022025823593,-0.0247955601662397,0.8336638808250427
1997,1629709069932,1.2304924726486206,0.1332911700010299,-0.0276594590395689,0.8517313003540039
1998,1629709070029,1.1399524211883545,0.0885154604911804,-0.0355274900794029,0.8660591244697571
1999,1629709070123,1.0383063554763794,0.0273325014859437,-0.0374492779374122,0.8699438571929932
2000,1629709070217,1.0131604671478271,-0.011429039761424,-0.0306389480829238,0.888348400592804
2001,1629709070326,1.014678120613098,-0.0411033742129802,-0.0244689118117094,0.8997570276260376
2002,1629709070419,1.0170879364013672,-0.0707186982035636,-0.0288934782147407,0.9379026889801024
2003,1629709070544,1.0203027725219729,-0.0988433361053466,-0.0310753192752599,1.0058757066726685
2004,1629709070654,1.0332343578338623,-0.1038556769490242,-0.0310753192752599,1.042416214942932
2005,1629709070701,1.0356545448303225,-0.0240331478416919,-0.0307670757174491,1.0476171970367432
2006,1629709070876,1.0199934244155884,0.0837093740701675,-0.0294969584792852,1.0435905456542969
2007,1629709070954,1.0200536251068115,0.1251032501459121,-0.0383677147328853,1.043500542640686
2008,1629709071063,1.026320457458496,0.1443486362695694,-0.0728414356708526,1.043500542640686
2009,1629709071204,1.009682059288025,0.1423034965991974,-0.1363185942173004,1.0459873676300049
2010,1629709071235,0.975520133972168,0.11897574365139,-0.1339481920003891,1.0557866096496582
2011,1629709071344,0.9860857129096984,0.0845969766378402,-0.0982885137200355,1.069265842437744
2012,1629709071435,1.068456530570984,0.0734565928578376,-0.0572788529098033,1.1039559841156006
2013,1629709071501,1.161378026008606,0.072957307100296,-0.0616188757121562,1.1453638076782229
2014,1629709071630,1.17231285572052,0.0697056427597999,-0.060431744903326,1.144569993019104
2015,1629709071725,1.169856071472168,0.0616213269531726,-0.0563382618129253,1.1111279726028442
2016,1629709071849,1.166906237602234,0.039786197245121,-0.0577561035752296,1.0809733867645264
2017,1629709071994,1.1655356884002686,0.0361880958080291,-0.0689971521496772,1.076820731163025
2018,1629709072041,1.1675281524658203,0.0382547229528427,-0.0635516196489334,1.0602513551712036
2019,1629709072163,1.1668858528137207,0.0382547229528427,-0.0547649338841438,1.00824773311615
2020,1629709072249,1.1621321439743042,0.0397605113685131,-0.0541812181472778,0.9289548397064208
2021,1629709072397,1.1552700996398926,0.0387735851109027,-0.0558610893785953,0.8885905146598816
2022,1629709072465,1.1570937633514404,-0.018978776410222,-0.0537389628589153,0.8786938786506653
2023,1629709072551,1.160961389541626,-0.110904648900032,-0.0405484661459922,0.8775573968887329
2024,1629709072620,1.160961389541626,-0.071778580546379,-0.0354095213115215,0.8775573968887329
2025,1629709072710,1.160961389541626,-0.0117811681702733,-0.0318665541708469,0.8674664497375488
2026,1629709072899,1.160961389541626,0.0031046855729073,-0.031552068889141,0.8474140763282776
2027,1629709072994,1.160961389541626,0.011500465683639,-0.0333687886595726,0.8328706622123718
2028,1629709073041,1.1462632417678833,0.0140672316774725,-0.0657478719949722,0.80864417552948
2029,1629709073172,1.0309070348739624,0.0140672316774725,-0.0657478719949722,0.7368572354316711
2030,1629709073279,0.8831649422645569,0.0140672316774725,-0.0657478719949722,0.6848922967910767
2031,1629709073336,0.796335756778717,0.0149255590513348,-0.0553320534527301,0.6493854522705078
2032,1629709073456,0.7807490229606628,0.0149255590513348,-0.0245811734348535,0.6697197556495667
2033,1629709073588,0.7722833156585693,0.0222430117428302,0.030534740537405,0.7495706081390381
2034,1629709073719,0.7609051465988159,0.0351900719106197,0.0546065792441368,0.7745217680931091
2035,1629709073766,0.7258971333503723,0.0478435680270195,0.082158051431179,0.7745217680931091
2036,1629709073856,0.6969517469406128,0.0760424882173538,0.0940081551671028,0.7745217680931091
2037,1629709073970,0.7025927901268005,0.0994563475251197,0.0952207967638969,0.7745217680931091
2038,1629709074078,0.7214545011520386,0.1060134768486023,0.0934370160102844,0.7767544984817505
2039,1629709074172,0.7371295690536499,0.1194874197244644,0.0789851546287536,0.7874374389648438
2040,1629709074275,0.7520477175712585,0.1267266869544983,0.0620429776608943,0.8051367998123169
2041,1629709074383,0.7767993807792664,0.1403527855873108,0.0427615568041801,0.834558367729187
2042,1629709074520,0.8200962543487549,0.1431016325950622,0.0373999588191509,0.8575466275215149
2043,1629709074562,0.8543579578399658,0.1418050527572631,0.0412693582475185,0.8575466275215149
2044,1629709074703,0.8496065139770508,0.1418050527572631,0.0545153841376304,0.8489819765090942
2045,1629709074850,0.8504524827003479,0.1418050527572631,0.0669429153203964,0.839640200138092
2046,1629709074890,0.8504524827003479,0.1413002759218216,0.0795163884758949,0.8436445593833923
2047,1629709074981,0.8574543595314026,0.1386096328496933,0.0889407247304916,0.8439088463783264
2048,1629709075089,0.8637019991874695,0.136846661567688,0.0969143211841583,0.8439088463783264
2049,1629709075151,0.8690212368965149,0.13239087164402,0.1032866686582565,0.8178690075874329
2050,1629709075388,0.866494357585907,0.096520721912384,0.114197589457035,0.758296549320221
2051,1629709075429,0.8563781976699829,0.0244088768959045,0.1026068776845932,0.7114433646202087
2052,1629709075474,0.8423368334770203,-0.0273768175393342,0.075992539525032,0.7005966305732727
2053,1629709075633,0.8336462378501892,-0.0575946383178234,0.0540465340018272,0.7005966305732727
2054,1629709075689,0.8294426798820496,-0.0787842571735382,0.0540465340018272,0.7005966305732727
2055,1629709075796,0.8294426798820496,-0.0745443105697631,0.0540465340018272,0.7005966305732727
2056,1629709075891,0.8492096066474915,-0.05797004327178,0.0540465340018272,0.6983519196510315
2057,1629709076015,0.880933403968811,-0.0817985087633133,0.0540465340018272,0.6788135170936584
2058,1629709076095,0.8854815363883972,-0.0721810013055801,0.0540465340018272,0.6124798655509949
2059,1629709076212,0.8751245737075806,-0.0929794982075691,0.0557843968272209,0.5483416318893433
2060,1629709076285,0.932204246520996,-0.1035860255360603,0.0555648244917392,0.642393171787262
2061,1629709076378,1.0485135316848757,-0.0659926384687423,0.0442025996744632,0.7805907726287842
2062,1629709076534,1.140900492668152,-0.0186194721609354,0.0288999360054731,0.8959344625473022
2063,1629709076597,1.171107053756714,0.0339549668133258,0.0748737752437591,0.9632881283760072
2064,1629709076726,1.197207808494568,0.0739904567599296,0.1726998686790466,0.9790589809417723
2065,1629709076799,1.2203727960586548,0.0839027315378189,0.2337975800037384,0.9790589809417723
2066,1629709076896,1.2256377935409546,0.0839027315378189,0.2867315113544464,0.989417314529419
2067,1629709077007,1.2248214483261108,0.0839027315378189,0.3422093987464905,1.0006091594696045
2068,1629709077142,1.2248214483261108,0.0839027315378189,0.3564698696136474,1.0177454948425293
2069,1629709077219,1.22676420211792,0.0839027315378189,0.3564698696136474,1.0332854986190796
2070,1629709077353,1.2286795377731323,0.0816311314702034,0.3564698696136474,1.0351274013519287
2071,1629709077399,1.228873372077942,0.0800998359918594,0.3564698696136474,1.0351274013519287
2072,1629709077521,1.228873372077942,0.0604723393917083,0.3564698696136474,1.0351274013519287
2073,1629709077610,1.228873372077942,0.04447603225708,0.3564698696136474,1.0351274013519287
2074,1629709077728,1.2304346561431885,0.0360698699951171,0.3564698696136474,1.0351274013519287
2075,1629709077828,1.238982915878296,0.0290280878543853,0.3564698696136474,1.0351274013519287
2076,1629709077933,1.2511829137802124,0.0170691795647144,0.3564698696136474,1.0351274013519287
2077,1629709078013,1.2521635293960571,0.0071362345479428,0.3564698696136474,1.0351274013519287
2078,1629709078111,1.2151845693588257,0.0069536189548671,0.3564698696136474,0.9933987259864808
2079,1629709078201,1.1581604480743408,0.0147901503369212,0.3498794436454773,0.9001448154449463
2080,1629709078330,1.0909655094146729,0.0300948359072208,0.3011295795440674,0.8135344982147217
2081,1629709078462,1.0276657342910769,0.0382294356822967,0.2043821662664413,0.7620506882667542
2082,1629709078603,0.9513548016548156,0.0295191425830125,0.0965952947735786,0.735214114189148
2083,1629709078615,0.8634254932403564,0.0250571500509977,-0.0232352185994386,0.7412483096122742
2084,1629709078730,0.8414995074272156,0.0256228484213352,-0.143582746386528,0.7642970085144043
2085,1629709078829,0.8459308743476868,0.0213921684771776,-0.2054101675748825,0.7439264059066772
2086,1629709078928,0.8459308743476868,0.0189306754618883,-0.2301102578639984,0.7387820482254028
2087,1629709079073,0.8459308743476868,0.0462482199072837,-0.2410109639167785,0.7387820482254028
2088,1629709079158,0.8459308743476868,0.0828155353665351,-0.2430975139141082,0.7395382523536682
2089,1629709079256,0.8459308743476868,0.117301121354103,-0.1890255212783813,0.7593768239021301
2090,1629709079339,0.84903484582901,0.1375251412391662,-0.1021623983979225,0.8049646019935608
2091,1629709079434,0.8558613657951355,0.1401093006134033,-0.0110378200188279,0.8414053916931152
2092,1629709079568,0.8258067965507507,0.1404960602521896,0.0542937330901622,0.8059450387954712
2093,1629709079664,0.8174379467964172,0.1415465027093887,0.1023416891694068,0.7986462712287903
2094,1629709079774,0.8327511548995972,0.1453503370285034,0.147959366440773,0.7986462712287903
2095,1629709079871,0.8365148305892944,0.1453503370285034,0.1833601891994476,0.7986462712287903
2096,1629709079963,0.8476860523223877,0.1439654976129531,0.2135921269655227,0.8061352372169495
2097,1629709080022,0.8814881443977356,0.1346533000469207,0.2512701749801636,0.8783212900161743
2098,1629709080170,0.9149197340011596,0.1335308104753494,0.269795686006546,0.9235331416130066
2099,1629709080318,0.9149197340011596,0.1335308104753494,0.2725484669208526,0.9286065101623536
2100,1629709080400,0.9149197340011596,0.1361534297466278,0.2725484669208526,0.9193739891052246
2101,1629709080477,0.9149197340011596,0.1447977870702743,0.2844657599925995,0.9193739891052246
2102,1629709080584,0.9149197340011596,0.152286872267723,0.3284438252449035,0.9281948804855348
2103,1629709080689,0.9154269099235536,0.1251640021800995,0.3573598563671112,0.9718959331512452
2104,1629709080817,0.9185090661048888,0.0664017125964164,0.3596751391887665,1.019733428955078
2105,1629709080877,0.9261459112167358,-0.0125729339197278,0.3656390607357025,1.0808387994766235
2106,1629709080987,0.9249378442764282,-0.0521969608962535,0.3614226281642914,1.165950059890747
2107,1629709081100,0.9176909923553468,-0.0676927715539932,0.3395467400550842,1.2451258897781372
2108,1629709081164,0.915248155593872,-0.0675573423504829,0.3005593419075012,1.270526885986328
2109,1629709081253,0.915248155593872,-0.0675573423504829,0.2947484850883484,1.270526885986328
2110,1629709081397,0.908296525478363,-0.0675573423504829,0.2947484850883484,1.270526885986328
2111,1629709081505,0.908296525478363,-0.0637261494994163,0.2947484850883484,1.270526885986328
2112,1629709081583,0.908296525478363,-0.0593108609318733,0.2824237048625946,1.270526885986328
2113,1629709081685,0.9101766347885132,-0.0630508363246917,0.2518320381641388,1.270526885986328
2114,1629709081805,0.913841187953949,-0.0766416117548942,0.2352048307657241,1.2677552700042725
2115,1629709081911,0.9155263304710388,-0.085960753262043,0.2320660352706909,1.2677552700042725
2116,1629709082020,0.9166082143783568,-0.0724353715777397,0.2309001833200454,1.2677552700042725
2117,1629709082107,0.9180777072906494,-0.0250979159027338,0.2385668903589248,1.2677552700042725
2118,1629709082212,0.915802538394928,-0.0011274063726887,0.2434538900852203,1.2677552700042725
2119,1629709082279,0.9091526865959167,-0.0022456317674368,0.1982590556144714,1.2677552700042725
2120,1629709082371,0.9060494303703308,-0.0022456317674368,0.1386254727840423,1.2654008865356443
2121,1629709082512,0.902253031730652,-0.0046556242741644,0.1034884303808212,1.256772756576538
2122,1629709082629,0.89395672082901,-0.0225449614226818,0.088636577129364,1.2245821952819824
2123,1629709082705,0.8228386640548706,-0.034291286021471,0.0892108902335167,1.0984669923782349
2124,1629709082811,0.8114092350006104,-0.034291286021471,0.1042216643691062,0.8896371126174927
2125,1629709082910,0.8196671605110168,-0.034291286021471,0.110235296189785,0.7808880805969238
2126,1629709083008,0.8196671605110168,-0.034291286021471,0.1077394261956214,0.7655653953552246
2127,1629709083090,0.8154534101486206,-0.034291286021471,0.1011072546243667,0.7521738409996033
2128,1629709083194,0.7817966341972351,-0.0469331517815589,0.079723373055458,0.722931444644928
2129,1629709083350,0.6855272054672241,-0.042892251163721,0.0258496887981891,0.6556931734085083
2130,1629709083416,0.6103190183639526,-0.0295002721250057,-0.0240224152803421,0.629845380783081
2131,1629709083512,0.6078819632530212,-0.011799176223576,-0.0519862733781337,0.6334042549133301
2132,1629709083613,0.6663960218429565,0.0266641676425933,-0.0573440231382846,0.6334042549133301
2133,1629709083749,0.7434064149856567,0.0470282696187496,-0.0551602877676487,0.6332395076751709
2134,1629709083844,0.7897729873657227,0.0239083040505647,-0.0273350905627012,0.6238105893135071
2135,1629709083913,0.8282966017723083,0.0274578388780355,0.0002489113539922,0.6387887001037598
2136,1629709084060,0.8616087436676025,0.0365820787847042,0.0146983591839671,0.6724609136581421
2137,1629709084176,0.8722383975982666,0.0378312803804874,0.0310458559542894,0.6969751119613647
2138,1629709084228,0.868388831615448,0.0486338436603546,0.0395250990986824,0.6862931847572327
2139,1629709084323,0.8662091493606567,0.0467540472745895,0.0483578816056251,0.6424053311347961
2140,1629709084437,0.8550624251365662,0.0455440655350685,0.0600117780268192,0.5989299416542053
2141,1629709084545,0.8499664664268494,0.0406623184680938,0.0653939321637153,0.6400189399719238
2142,1629709084620,0.8499664664268494,0.039097536355257,0.0578188449144363,0.7598706483840942
2143,1629709084715,0.8564621806144714,0.0353690832853317,0.0568906143307685,0.8535839915275574
2144,1629709084816,0.869310736656189,0.034451924264431,0.0568906143307685,0.8745761513710022
2145,1629709084916,0.8779850006103516,0.03737448528409,0.0568906143307685,0.8763355612754822
2146,1629709085035,0.8779850006103516,0.0762975886464119,0.0568906143307685,0.8766025900840759
2147,1629709085175,0.8779850006103516,0.1239184737205505,0.0554056093096733,0.8785176873207092
2148,1629709085262,0.8779850006103516,0.1488555073738098,0.0581185072660446,0.8969272375106812
2149,1629709085352,0.8486778140068054,0.1281316131353378,0.0398746840655803,0.9421425461769104
2150,1629709085459,0.8077462911605835,0.1065587326884269,0.0252056345343589,1.0274497270584106
2151,1629709085529,0.7930330634117126,0.0930433422327041,0.02329046651721,1.0781188011169434
2152,1629709085705,0.7684770226478577,0.0758173912763595,0.0197073891758918,1.0857186317443848
2153,1629709085784,0.7244604825973511,0.0648398473858833,0.0220441631972789,1.0900652408599854
2154,1629709085886,0.7063383460044861,0.0552200525999069,0.0270093698054552,1.0900652408599854
2155,1629709085915,0.7078641057014465,0.0552200525999069,0.0279765967279672,1.0900652408599854
2156,1629709086033,0.7616247534751892,0.0622848235070705,0.0010442066704854,1.0900652408599854
2157,1629709086135,0.7828124761581421,0.0798549503087997,-0.0447947606444358,1.0900652408599854
2158,1629709086266,0.7822936177253723,0.0866690054535865,-0.0452206656336784,1.0899087190628052
2159,1629709086366,0.7796003818511963,0.0811598524451255,-0.0465404354035854,1.0513145923614502
2160,1629709086471,0.784831702709198,0.0841122418642044,-0.0378212481737136,1.0160293579101562
2161,1629709086611,0.7882333397865295,0.0787576958537101,-0.0352315083146095,1.0116331577301023
2162,1629709086664,0.7882333397865295,0.049607828259468,-0.0352315083146095,1.0137968063354492
2163,1629709086738,0.7882333397865295,-0.009867045097053,-0.0352315083146095,1.0137968063354492
2165,1629709086934,0.7882333397865295,-0.0596389658749103,-0.0352315083146095,1.0137968063354492
2164,1629709086983,0.7868886590003967,-0.0658962577581405,-0.0079921325668692,1.0200223922729492
2166,1629709087096,0.7799943089485168,-0.058130357414484,0.0611043460667133,0.9953435063362122
2167,1629709087168,0.7552201747894287,-0.0575405098497867,0.1484715640544891,0.91827392578125
2168,1629709087251,0.7570770978927612,-0.0565714314579963,0.1793669313192367,0.8916440606117249
2169,1629709087368,0.7570770978927612,-0.0565714314579963,0.1710584312677383,0.8781894445419312
2170,1629709087508,0.7570770978927612,-0.0569756813347339,0.1727189421653747,0.8781894445419312
2171,1629709087595,0.7556909322738647,-0.067467987537384,0.183947280049324,0.8781894445419312
2172,1629709087694,0.7274351716041565,-0.0626449510455131,0.2013871520757675,0.8781894445419312
2173,1629709087819,0.723090410232544,-0.0635377466678619,0.2134156674146652,0.8781894445419312
2174,1629709087860,0.7031545042991638,-0.0984273180365562,0.2250533699989318,0.8770745396614075
2175,1629709087984,0.6716132760047913,-0.0389404594898223,0.2252134084701538,0.8292392492294312
2177,1629709088172,0.6666318774223328,0.0101769994944334,0.2274869978427887,0.7515629529953003
2176,1629709088218,0.676001250743866,0.0159072019159793,0.23848657310009,0.6820669174194336
2178,1629709088312,0.6850894093513489,0.0041454713791608,0.2476020902395248,0.6639457941055298
2179,1629709088390,0.6949760317802429,-0.0015099770389497,0.2497561573982238,0.6890336275100708
2180,1629709088453,0.74460369348526,0.002306634793058,0.2523215413093567,0.7985158562660217
2181,1629709088593,0.8298465013504028,0.0248846504837274,0.256721556186676,0.961837649345398
2182,1629709088703,0.897081732749939,0.0935462415218353,0.2559981942176819,1.0562981367111206
2183,1629709088781,0.9377521276474,0.1457234919071197,0.2055820673704147,1.1120645999908447
2184,1629709088940,0.9564196467399596,0.1561293751001358,0.1236145421862602,1.1433513164520264
2185,1629709089017,0.9622843265533448,0.1561293751001358,0.1349398344755172,1.1579561233520508
2186,1629709089064,0.9691643118858336,0.1561293751001358,0.168178305029869,1.1552355289459229
2187,1629709089189,0.9921433925628662,0.1561293751001358,0.1932666450738906,1.1533575057983398
2188,1629709089346,1.0704470872879028,0.1561293751001358,0.2087758034467697,1.162035584449768
2189,1629709089439,1.124028563499451,0.1561293751001358,0.2183016687631607,1.162035584449768
2190,1629709089486,1.1434952020645142,0.1561293751001358,0.2186140716075897,1.162035584449768
2191,1629709089627,1.1771752834320068,0.1419646143913269,0.2186140716075897,1.162035584449768
2192,1629709089721,1.2116258144378662,0.1121815741062164,0.2104552239179611,1.162035584449768
2193,1629709089845,1.2394726276397705,0.0974999219179153,0.1789339035749435,1.162035584449768
2194,1629709089958,1.2446376085281372,0.1099153831601142,0.1571557819843292,1.162035584449768
2195,1629709090051,1.2446376085281372,0.1290493458509445,0.1564043760299682,1.162035584449768
2196,1629709090161,1.2446376085281372,0.1403404325246811,0.1669718623161316,1.16067373752594
2197,1629709090223,1.248501181602478,0.1368413716554641,0.1721155047416687,1.1537171602249146
2198,1629709090332,1.252362608909607,0.1118935644626617,0.1533582210540771,1.1470190286636353
2200,1629709090426,1.252467155456543,0.0812269523739814,0.1471253931522369,1.1442604064941406
2199,1629709090520,1.2463300228118896,0.0577074028551578,0.1460097730159759,1.1124407052993774
2201,1629709090645,1.2357749938964844,0.026494737714529,0.1327308416366577,1.0362789630889893
2202,1629709090738,1.2299658060073853,0.0093072019517421,0.0997835472226142,0.9267476797103882
2203,1629709090832,1.2259652614593506,0.0414166785776615,0.0566488206386566,0.7322671413421631
2204,1629709090944,1.214935302734375,0.1145123690366745,0.0414505898952484,0.7322671413421631
2205,1629709091023,1.1952649354934692,0.1719453185796737,0.052299927920103,0.7363050580024719
2206,1629709091194,1.1938916444778442,0.1737865507602691,0.0640630945563316,0.7363050580024719
2207,1629709091257,1.1944775581359863,0.1735814809799194,0.0699963495135307,0.7363050580024719
2208,1629709091398,1.184109091758728,0.1735814809799194,0.0715716779232025,0.7363050580024719
2209,1629709091460,1.154785394668579,0.1736541092395782,0.0715716779232025,0.6934356689453125
2210,1629709091538,1.11767315864563,0.178657591342926,0.0684418678283691,0.658191978931427
2211,1629709091647,1.074923753738403,0.1803154796361923,0.0640800148248672,0.6225289702415466
2212,1629709091741,1.0130059719085691,0.1854146122932434,0.0567063204944133,0.6091511845588684
2213,1629709091866,0.959102213382721,0.1838303953409195,0.059845857322216,0.5880499482154846
2214,1629709091957,0.9351398348808287,0.1838303953409195,0.059845857322216,0.6144460439682007
2215,1629709092166,0.9363745450973512,0.1838303953409195,0.04030117765069,0.5829498767852783
2216,1629709092182,0.9378541111946106,0.1838303953409195,0.0094468994066119,0.5612820982933044
2217,1629709092244,0.9417108297348022,0.1815030127763748,0.0094468994066119,0.551405131816864
2218,1629709092354,0.9424407482147216,0.1732162684202194,0.0094468994066119,0.5508937239646912
2219,1629709092510,0.9437010288238524,0.161639928817749,0.0094468994066119,0.5508502125740051
2221,1629709092603,0.9415060877799988,0.141381949186325,0.0031239273957908,0.5472413897514343
2220,1629709092635,0.9387292861938475,0.0527350232005119,-0.0701913610100746,0.5264756679534912
2222,1629709092775,0.9164901375770568,-0.0331958122551441,-0.1197978481650352,0.5084782242774963
2223,1629709092853,0.8205424547195435,-0.0716279372572898,-0.1100578755140304,0.5076258182525635
2224,1629709093009,0.7079340815544128,-0.0696580410003662,-0.1036185100674629,0.5428574085235596
2225,1629709093090,0.7023614048957825,-0.0521414093673229,-0.0625940039753913,0.5848442316055298
2226,1629709093168,0.7438541054725647,-0.0397005528211593,-0.038415215909481,0.6063559055328369
2227,1629709093246,0.8113594651222229,-0.0367743335664272,-0.0259506627917289,0.6568107604980469
2228,1629709093387,0.855821967124939,-0.0218076854944229,-0.0163054578006267,0.7136578559875488
2229,1629709093465,0.8689287900924683,0.0024173285346478,-0.0028266671579331,0.7701901793479919
2230,1629709093574,0.8732463717460632,0.0135479653254151,0.0278352443128824,0.8168597221374512
2231,1629709093715,0.897594153881073,0.020904729142785,0.0526545494794845,0.8546486496925354
2232,1629709093809,0.981923758983612,0.0384195894002914,0.0540287047624588,0.8891935348510742
2233,1629709093902,1.1460914611816406,0.0535782538354396,0.0535439290106296,0.9072112441062928
2234,1629709093980,1.372112512588501,0.1370759159326553,0.0542094148695468,0.9269576072692872
2235,1629709094105,1.545596480369568,0.2953611612319946,0.057691965252161,0.9691029191017152
2236,1629709094215,1.6617573499679563,0.3634296655654907,0.0622550584375858,1.0037800073623655
2238,1629709094324,1.7039529085159302,0.3713150322437286,0.0622550584375858,1.040325164794922
2237,1629709094371,1.7039529085159302,0.3751566708087921,0.0588322579860687,1.0488845109939575
2239,1629709094496,1.7039529085159302,0.3754954040050506,0.0169228520244359,1.0488845109939575
2240,1629709094605,1.7039529085159302,0.3689650595188141,0.0390250571072101,1.044520139694214
2241,1629709094715,1.7039529085159302,0.3668476343154907,0.0872370451688766,1.03313410282135
2242,1629709094855,1.7039529085159302,0.3668476343154907,0.1011115908622741,1.0257611274719238
2243,1629709094918,1.7039529085159302,0.3668476343154907,0.1057518124580383,1.0257611274719238
2244,1629709095027,1.7039529085159302,0.3668476343154907,0.1049374267458915,1.0257611274719238
2245,1629709095121,1.7039529085159302,0.3642109334468841,0.1089391335844993,1.02919602394104
2246,1629709095214,1.7039529085159302,0.362753301858902,0.1058951690793037,1.0360873937606812
2247,1629709095293,1.7039529085159302,0.361398309469223,0.0757869929075241,1.039233684539795
2248,1629709095418,1.7004742622375488,0.3548754155635834,0.0152622750028967,1.0174137353897097
2249,1629709095527,1.6868765354156494,0.3505086302757263,-0.0324178747832775,0.9714561700820924
2250,1629709095605,1.6682158708572388,0.3494754135608673,-0.0389131717383861,0.910797655582428
2251,1629709095746,1.6543654203414917,0.3003999590873718,-0.0429289937019348,0.8817111849784851
2252,1629709095839,1.6171326637268066,0.1736599802970886,-0.0400077439844608,0.867989718914032
2253,1629709095902,1.532302975654602,0.0957041010260582,-0.0203483365476131,0.8291401267051697
2254,1629709096027,1.418260097503662,0.0616294555366039,-0.0079832877963781,0.7634561061859131
2255,1629709096167,1.3023005723953247,0.0243874359875917,-0.0049373069778084,0.7483521103858948
2256,1629709096277,1.1839531660079956,-0.0245284959673881,-0.002628558082506,0.7483521103858948
2257,1629709096339,1.0489559173583984,-0.0870179459452629,-0.0225468091666698,0.7474802732467651
2258,1629709096402,0.8991339206695557,-0.1552538722753524,-0.028863325715065,0.7452062964439392
2259,1629709096511,0.7672211527824402,-0.1976764947175979,0.0115247201174497,0.7433987259864807
2260,1629709096652,0.6989481449127197,-0.1665592342615127,0.0563081614673137,0.7433987259864807
2261,1629709096730,0.6521212458610535,-0.1614428609609604,0.1346448212862014,0.7433987259864807
2262,1629709096823,0.6364041566848755,-0.1669034361839294,0.2049545794725418,0.7389766573905945
2263,1629709096954,0.6308696269989014,-0.1145361065864563,0.2385858744382858,0.7324769496917725
2264,1629709097044,0.6308674216270447,0.007043570280075,0.2568715512752533,0.7324769496917725
2265,1629709097154,0.6308674216270447,0.1031503230333328,0.2631809115409851,0.7324769496917725
2266,1629709097247,0.6308674216270447,0.1319228708744049,0.2631809115409851,0.7324769496917725
2267,1629709097357,0.6200553178787231,0.1319228708744049,0.2631809115409851,0.7285157442092896
2268,1629709097466,0.6166875958442688,0.1319228708744049,0.2640417814254761,0.6986905932426453
2269,1629709097544,0.6031294465065002,0.1319228708744049,0.2720251381397247,0.6691789627075195
2270,1629709097607,0.612127959728241,0.1319228708744049,0.2879223227500915,0.624675452709198
2271,1629709097685,0.6513859629631042,0.1319228708744049,0.3154049515724182,0.5683428049087524
2272,1629709097845,0.6859838366508484,0.1319228708744049,0.339768648147583,0.5461135506629944
2273,1629709097955,0.6947347521781921,0.1319228708744049,0.3488658368587494,0.5635712146759033
2274,1629709098064,0.6836708784103394,0.1319228708744049,0.3488658368587494,0.5742246508598328
2275,1629709098204,0.6670867204666138,0.1295217424631118,0.3488658368587494,0.5838333964347839
2276,1629709098283,0.6565883159637451,0.1234129667282104,0.3412714302539825,0.5838333964347839
2277,1629709098361,0.6535081267356873,0.1217449605464935,0.3112296760082245,0.6002669334411621
2278,1629709098454,0.6632554531097412,0.1123490929603576,0.3027505278587341,0.6148855686187744
2279,1629709098611,0.6722792387008667,0.0921299904584884,0.2997658252716064,0.6154338121414185
2280,1629709098673,0.6858944892883301,0.0497441552579402,0.2848844528198242,0.612489640712738
2282,1629709098782,0.695820689201355,-0.0401091128587722,0.2736344933509826,0.5913676023483276
2281,1629709098832,0.7388402223587036,-0.1232610642910003,0.2642313241958618,0.5745099186897278
2283,1629709098942,0.7822459936141968,-0.0987810641527175,0.2724030613899231,0.5738624334335327
2284,1629709099082,0.8303894400596619,-0.0584647543728351,0.2741431593894958,0.5793074369430542
2285,1629709099145,0.8758969902992249,-0.0419277660548687,0.2717201113700866,0.5946539044380188
2286,1629709099270,0.8966465592384338,-0.0408773124217987,0.26016765832901,0.6119338870048523
2287,1629709099395,0.8938182592391968,-0.0408773124217987,0.2290235608816146,0.6347954273223877
2288,1629709099457,0.8679974675178528,-0.0408773124217987,0.1948523819446563,0.6458370089530945
2289,1629709099551,0.8390390872955322,-0.0408773124217987,0.1617511957883834,0.6458370089530945
2290,1629709099707,0.8252958655357361,-0.0408773124217987,0.1129976361989975,0.632103681564331
2291,1629709099772,0.8090229034423828,-0.0408773124217987,0.0490535050630569,0.617022693157196
2293,1629709099913,0.7921742796897888,-0.0368137434124946,0.0359492637217044,0.6096529960632324
2292,1629709099959,0.7826417088508606,-0.0181876812130212,0.0135008934885263,0.588478684425354
2294,1629709100084,0.7801950573921204,-0.0241102557629346,-0.004689326044172,0.5855234861373901
2295,1629709100147,0.782230794429779,-0.0674669444561004,-0.023003339767456,0.5950649380683899
2296,1629709100303,0.7924692034721375,-0.0751857906579971,-0.0365113355219364,0.628131091594696
2297,1629709100366,0.8125544190406799,-0.0840033516287803,-0.0634131133556366,0.6442120671272278
2298,1629709100459,0.8284547328948975,-0.0873235166072845,-0.0774422585964202,0.6442120671272278
2299,1629709100585,0.8213780522346497,-0.1022198870778083,-0.0753960385918617,0.6442120671272278
2300,1629709100647,0.8017813563346863,-0.1195012405514717,-0.0738710761070251,0.6442120671272278
2301,1629709100820,0.764211118221283,-0.1195012405514717,-0.067732959985733,0.6442120671272278
2302,1629709100930,0.7319355607032776,-0.1195012405514717,-0.0742331817746162,0.640250027179718
2303,1629709101040,0.6950665712356567,-0.1195012405514717,-0.0712475925683975,0.6203472018241882
2304,1629709101087,0.6686855554580688,-0.1195012405514717,-0.0666439011693,0.577886164188385
2305,1629709101212,0.6448379755020142,-0.1238765642046928,-0.0660697892308235,0.5302196741104126
2306,1629709101290,0.617336094379425,-0.1486082226037979,-0.0660697892308235,0.4851789176464081
2307,1629709101399,0.5915193557739258,-0.1532361656427383,-0.0688903406262397,0.4765253365039825
2308,1629709101524,0.5809906721115112,-0.0903941541910171,-0.0742054060101509,0.4765253365039825
2309,1629709101602,0.5809329748153687,0.0175586175173521,-0.0815922021865844,0.4773051142692566
2310,1629709101743,0.5809329748153687,0.1252123862504959,-0.0815922021865844,0.5105122923851013
2311,1629709101823,0.5809329748153687,0.1873469799757003,-0.0844663083553314,0.5299984812736511
2312,1629709101886,0.5809329748153687,0.192476749420166,-0.0945258662104606,0.5181038975715637
2313,1629709102011,0.5646621584892273,0.192476749420166,-0.1045048758387565,0.4617145657539367
2314,1629709102136,0.5242498517036438,0.192476749420166,-0.1157827153801918,0.3985327780246734
2315,1629709102276,0.533587634563446,0.192476749420166,-0.123712420463562,0.3971515595912933
2316,1629709102386,0.6393446922302246,0.1944067627191543,-0.1621249616146087,0.3971515595912933
2317,1629709102417,0.748790442943573,0.1968339830636978,-0.1913452297449112,0.4030892848968506
2318,1629709102511,0.8492907285690308,0.1929575204849243,-0.2048808485269546,0.4020423591136932
2319,1629709102589,0.9203646779060364,0.1872332692146301,-0.2098492681980133,0.3886551558971405
2320,1629709102761,0.9410037994384766,0.1833806484937667,-0.2130164206027984,0.3720939755439758
2321,1629709102839,0.938404619693756,0.1763691455125808,-0.2130164206027984,0.3654444217681885
2322,1629709102919,0.9350720643997192,0.1742756068706512,-0.2130164206027984,0.4086516499519348
2323,1629709103029,0.933395504951477,0.1996321678161621,-0.2130164206027984,0.4753035306930542
2324,1629709103091,0.9368247389793396,0.2302797585725784,-0.2189429104328155,0.5346705317497253
2325,1629709103248,0.9424731731414796,0.2400477081537246,-0.2540463507175445,0.5439731478691101
2326,1629709103341,0.9436508417129515,0.2357518225908279,-0.2525756359100342,0.5439731478691101
2327,1629709103482,0.9459335207939148,0.1839345544576645,-0.2621419131755829,0.5452004671096802
2328,1629709103544,0.954293429851532,0.1146051660180091,-0.2352794855833053,0.547267735004425
2329,1629709103654,0.994454562664032,0.0462058372795581,-0.1048326939344406,0.5478901863098145
2330,1629709103747,1.0603535175323486,0.0197082757949829,-0.0319725684821605,0.6171873211860657
2331,1629709103794,1.109932780265808,0.0134155135601758,-0.01519042160362,0.6879452466964722
2332,1629709103985,1.1307228803634644,0.0134155135601758,-0.0185444522649049,0.7458173632621765
2333,1629709104032,1.1312490701675415,0.0094789704307913,-0.0202277768403291,0.7647536993026733
2334,1629709104157,1.1205445528030396,0.0115881375968456,-0.0227579958736896,0.7635604739189148
2335,1629709104251,1.0799955129623413,0.0319354608654975,-0.0230957921594381,0.7608695030212402
2336,1629709104360,1.0212639570236206,0.0402801074087619,-0.0150578282773494,0.7608695030212402
2337,1629709104454,0.9748711585998536,0.0402801074087619,-0.0076245400123298,0.7617292404174805
2338,1629709104611,0.9835911393165588,0.0402801074087619,-0.005050933919847,0.7814621925354004
2339,1629709104641,0.9914845824241638,0.0402801074087619,-0.0043592089787125,0.7965869903564453
2340,1629709104782,0.9944798946380616,-0.0227856244891881,0.0031799830030649,0.7993062138557434
2341,1629709104860,0.9945819973945618,-0.1255238652229309,0.0226501524448394,0.8152639269828796
2342,1629709104923,0.991464376449585,-0.1052896976470947,0.0593325719237327,0.8187522888183594
2343,1629709105048,0.9898765683174132,-0.0958490669727325,0.1083842292428016,0.8187522888183594
2344,1629709105188,0.9898765683174132,-0.1010240018367767,0.1855477690696716,0.8187522888183594
2345,1629709105282,0.9898765683174132,-0.1027747094631195,0.2302177399396896,0.8187522888183594
2346,1629709105391,0.9898765683174132,-0.1002981066703796,0.2143938988447189,0.8187522888183594
2347,1629709105469,0.9641322493553162,-0.0899149030447006,0.1940658837556839,0.813773512840271
2348,1629709105563,0.8776675462722778,-0.0466572120785713,0.197921946644783,0.7728230953216553
2349,1629709105657,0.7572249174118042,-0.0292851757258176,0.1982065588235855,0.7243984937667847
2350,1629709105782,0.7386139631271362,-0.0315981954336166,0.1982065588235855,0.7033100724220276
2351,1629709105875,0.7520298361778259,-0.0345832295715808,0.1982065588235855,0.7033100724220276
2352,1629709105954,0.7553190588951111,-0.0313226506114006,0.1982065588235855,0.7033100724220276
2353,1629709106063,0.7553190588951111,-0.0225304793566465,0.1982065588235855,0.7033100724220276
2354,1629709106188,0.7451563477516174,-0.0215249527245759,0.1982065588235855,0.6978488564491272
2355,1629709106266,0.755242645740509,-0.0215249527245759,0.1982065588235855,0.6567560434341431
2356,1629709106438,0.8029912114143372,-0.0215249527245759,0.1982065588235855,0.6386702060699463
2357,1629709106500,0.8605510592460632,-0.0215249527245759,0.1982065588235855,0.7040987014770508
2358,1629709106578,0.9426565766334534,-0.0347466096282005,0.1982065588235855,0.8104714155197144
2359,1629709106688,1.118338942527771,-0.0539790838956832,0.1925729513168335,0.914781928062439
2361,1629709106828,1.2749658823013306,-0.0615073628723621,0.1860792189836502,0.95657080411911
2360,1629709106875,1.369892954826355,-0.0691713541746139,0.1856713742017746,0.95657080411911
2362,1629709106985,1.3830312490463257,-0.0396136082708835,0.1984930634498596,0.95657080411911
2364,1629709107156,1.4137063026428225,0.0490458719432354,0.2036696523427963,0.9643273949623108
2363,1629709107203,1.4544894695281982,0.104220412671566,0.1846008449792862,0.9897568225860596
2365,1629709107281,1.4709347486495972,0.0914639309048652,0.1579501628875732,1.0482827425003052
2366,1629709107422,1.4713354110717771,0.0599047131836414,0.1322591453790664,1.0797561407089231
2367,1629709107500,1.4717199802398682,0.0563791953027248,0.1546104401350021,1.0910885334014893
2368,1629709107625,1.472763180732727,0.0766492933034896,0.1728581190109253,1.089111089706421
2369,1629709107703,1.4735023975372314,0.0944701060652732,0.176250010728836,1.090434432029724
2370,1629709107844,1.474112033843994,0.1049263402819633,0.1722139120101928,1.091691970825195
2371,1629709107909,1.4753432273864746,0.1134605854749679,0.1722139120101928,1.091691970825195
2372,1629709108018,1.4772379398345947,0.1247634217143058,0.1722139120101928,1.091899275779724
2373,1629709108096,1.4778366088867188,0.1309866309165954,0.1722139120101928,1.0910624265670776
2374,1629709108221,1.477884292602539,0.1357408761978149,0.1722139120101928,1.0868295431137085
2375,1629709108315,1.477884292602539,0.1384444236755371,0.1722139120101928,1.0754518508911133
2376,1629709108440,1.477157711982727,0.1398566663265228,0.1710605174303054,1.0650601387023926
2377,1629709108502,1.4162367582321167,0.1518013477325439,0.1686355024576187,1.062594294548035
2378,1629709108643,1.3110111951828003,0.1590981632471084,0.1683985292911529,1.062594294548035
2379,1629709108721,1.2492210865020752,0.1664725840091705,0.1588844507932663,1.062594294548035
2380,1629709108830,1.197310209274292,0.1252452135086059,0.1401616930961609,1.062594294548035
2381,1629709108927,1.1258139610290527,0.046699121594429,0.0899427831172943,1.028265357017517
2382,1629709109005,1.1193641424179075,0.0170848648995161,0.0128796435892581,0.9254531264305116
2383,1629709109177,1.0804144144058228,0.0170848648995161,-0.0187496356666088,0.7675739526748657
2384,1629709109224,0.974714696407318,0.012800252996385,0.0058282581157982,0.6576448082923889
2385,1629709109317,0.8464514017105103,0.0116045903414487,0.0356079973280429,0.6197428703308105
2386,1629709109458,0.7219840884208679,0.0064232344739139,0.0348759181797504,0.6954143047332764
2387,1629709109505,0.6985078454017639,-0.0211143232882022,0.0274025313556194,0.7593996524810791
2388,1629709109646,0.6886380910873413,-0.03429901227355,0.0095438417047262,0.784503698348999
2389,1629709109724,0.6776272654533386,-0.0385728739202022,-0.0021512908861041,0.7831287980079651
2390,1629709109833,0.6826139092445374,-0.0394628457725048,-0.0093703726306557,0.7751296758651733
2391,1629709109895,0.7242528200149536,-0.0303878486156463,0.0172607786953449,0.7914119958877563
2392,1629709110056,0.805510938167572,-0.0111656999215483,0.0514709129929542,0.853125274181366
2393,1629709110165,0.8560616970062256,0.0294794291257858,0.0760013610124588,0.9164915680885316
2394,1629709110259,0.8767107725143433,0.0726571232080459,0.086512766778469,0.9582647681236268
2395,1629709110337,0.8790209293365479,0.1366902440786361,0.1061377674341201,0.9708245396614076
2397,1629709110462,0.9275462627410888,0.1780080795288086,0.1193962767720222,1.000718355178833
2396,1629709110509,1.0136157274246216,0.1780080795288086,0.1193962767720222,1.037529230117798
2398,1629709110634,1.1014539003372192,0.1780080795288086,0.1283996701240539,1.0931154489517212
2399,1629709110743,1.159188985824585,0.1780080795288086,0.1410572230815887,1.118474364280701
2400,1629709110852,1.1807003021240234,0.1780080795288086,0.1534495204687118,1.123335838317871
2401,1629709110915,1.1852251291275024,0.1839021295309066,0.1230126693844795,1.1234277486801147
2402,1629709111043,1.1911544799804688,0.2023223489522934,0.0994970798492431,1.1236248016357422
2403,1629709111121,1.2371163368225098,0.2089071273803711,0.084954485297203,1.1236248016357422
2404,1629709111262,1.2775098085403442,0.2089071273803711,0.0862431302666664,1.1236248016357422
2405,1629709111355,1.2775098085403442,0.2089071273803711,0.1073778271675109,1.1236248016357422
2406,1629709111465,1.2775098085403442,0.2089071273803711,0.1225647553801536,1.1236248016357422
2407,1629709111543,1.2775098085403442,0.2089071273803711,0.1239388659596443,1.1236248016357422
2408,1629709111621,1.276417851448059,0.2074479013681411,0.1239388659596443,1.122072458267212
2409,1629709111746,1.2716329097747805,0.1973972767591476,0.1239388659596443,1.1122105121612549
2410,1629709111934,1.2601016759872437,0.1836307048797607,0.1225800216197967,1.0741887092590332
2411,1629709111965,1.2494572401046753,0.1421822756528854,0.1023066043853759,1.023326396942139
2412,1629709112090,1.242734670639038,0.0631314814090728,0.0516928918659687,0.9822558760643004
2413,1629709112168,1.2353359460830688,0.0372928828001022,0.0579791069030761,0.9716871380805968
2414,1629709112277,1.2328996658325195,0.0372928828001022,0.094126671552658,0.9593664407730104
2415,1629709112355,1.2129400968551636,0.0372928828001022,0.1105838045477867,0.949133574962616
2416,1629709112465,1.201714038848877,0.0372928828001022,0.1179648488759994,0.9491612315177916
2417,1629709112574,1.1974387168884275,0.0405773036181926,0.092973493039608,0.9479792714118958
2418,1629709112683,1.1965702772140503,-0.0194909628480672,0.0874429419636726,0.9267262816429138
2419,1629709112746,1.1749775409698486,-0.1150562167167663,0.0874429419636726,0.8689830303192139
2420,1629709112858,1.0901026725769043,-0.1258845180273056,0.0874429419636726,0.8065671324729919
2421,1629709112952,0.981032133102417,-0.0997458174824714,0.0874429419636726,0.7511338591575623
2422,1629709113139,0.8948367238044739,-0.0668386742472648,0.0874429419636726,0.7193735837936401
2423,1629709113171,0.8410527110099792,-0.0447445102035999,0.0878010466694831,0.7044702172279358
2424,1629709113311,0.817268431186676,-0.0399771109223365,0.101058043539524,0.6822088956832886
2425,1629709113421,0.8242987990379333,-0.0361734144389629,0.1065088510513305,0.6626712083816528
2426,1629709113467,0.8254693746566772,-0.0329964645206928,0.1023950949311256,0.6854702830314636
2427,1629709113592,0.8664788007736206,-0.0322239957749843,0.1017939373850822,0.727364718914032
2428,1629709113686,0.9372969269752502,-0.0322239957749843,0.1009502112865448,0.8133084774017334
2429,1629709113796,1.021468162536621,-0.0322239957749843,0.0855292007327079,0.9045550227165222
2430,1629709113892,1.0801321268081665,-0.0155675951391458,0.0566836968064308,0.9767926335334778
2431,1629709113970,1.1105787754058838,-0.0052832690998911,0.0265362039208412,1.022498369216919
2432,1629709114095,1.120436191558838,0.0172523725777864,-0.022470710799098,1.0477986335754397
2433,1629709114173,1.118095636367798,0.0612447783350944,-0.0655757039785385,1.0684432983398438
2434,1629709114298,1.1109315156936646,0.0956510528922081,-0.077750414609909,1.0783122777938845
2435,1629709114423,1.121308445930481,0.1086439043283462,-0.077750414609909,1.0811827182769775
2436,1629709114517,1.1309057474136353,0.1018145903944969,-0.077750414609909,1.0843400955200195
2437,1629709114595,1.1429225206375122,0.0971413850784301,-0.077750414609909,1.0937049388885498
2438,1629709114704,1.1405034065246582,0.0971413850784301,-0.0727038532495498,1.1006183624267578
2439,1629709114813,1.1473780870437622,0.0971413850784301,0.0089858928695321,1.1032752990722656
2440,1629709114910,1.1562587022781372,0.0971413850784301,0.1301496922969818,1.1032752990722656
2441,1629709114988,1.1615335941314695,0.0995249152183532,0.1688151955604553,1.1032752990722656
2442,1629709115113,1.1616063117980957,0.1068237200379371,0.1735190451145172,1.1032752990722656
2443,1629709115207,1.1616063117980957,0.1653762906789779,0.2121923267841339,1.1032752990722656
2444,1629709115300,1.1593947410583496,0.1931102126836776,0.2453495264053344,1.0985246896743774
2445,1629709115425,1.1592882871627808,0.1931102126836776,0.250815749168396,1.090471267700195
2446,1629709115519,1.1289633512496948,0.1931102126836776,0.250815749168396,1.0540025234222412
2448,1629709115660,1.1033337116241455,0.1931102126836776,0.250815749168396,0.9740496277809144
2447,1629709115706,1.1330147981643677,0.1902712732553482,0.250815749168396,0.9197241067886353
2449,1629709115847,1.1708614826202393,0.1823252439498901,0.250815749168396,0.859200119972229
2450,1629709115925,1.1985390186309814,0.1360965222120285,0.2578363716602325,0.829681932926178
2451,1629709116008,1.2127636671066284,0.0701840221881866,0.263162612915039,0.8262952566146851
2452,1629709116164,1.220068097114563,0.07590963691473,0.267108142375946,0.8262952566146851
2453,1629709116242,1.2076938152313232,0.1003184616565704,0.2693609297275543,0.8077134490013123
2454,1629709116336,1.1915220022201538,0.1080780178308487,0.2693609297275543,0.7468169331550598
2455,1629709116461,1.2155708074569702,0.1080780178308487,0.2690673470497131,0.6991735696792603
2456,1629709116523,1.2502262592315674,0.1080780178308487,0.2409303337335586,0.7306854128837585
2457,1629709116617,1.2879549264907837,0.0982319489121437,0.1938001215457916,0.796116054058075
2458,1629709116758,1.3064247369766235,0.0598164796829223,0.1839841306209564,0.865351140499115
2459,1629709116851,1.3059710264205933,-0.0065295873209834,0.1793292909860611,0.896792471408844
2460,1629709116929,1.3059710264205933,-0.0903654024004936,0.1567456722259521,0.8935616612434387
2461,1629709117042,1.3059710264205933,-0.1552347391843795,0.1011296212673187,0.8932638764381409
2462,1629709117120,1.3059710264205933,-0.1609289944171905,0.0185973513871431,0.8880485892295837
2463,1629709117261,1.3059710264205933,-0.1609289944171905,-0.0441967248916626,0.8861602544784546
2464,1629709117370,1.3059710264205933,-0.1609289944171905,-0.0488229840993881,0.8855007290840149
2465,1629709117495,1.3059710264205933,-0.1525141149759292,-0.0301791485399007,0.884573221206665
2466,1629709117573,1.3059710264205933,-0.1494769901037216,-0.0275104492902755,0.883757472038269
2467,1629709117699,1.298348903656006,-0.1602344661951065,-0.0313871689140796,0.883757472038269
2468,1629709117761,1.2741109132766724,-0.166656494140625,-0.0258562415838241,0.8839117884635925
2469,1629709117855,1.2548024654388428,-0.1897085160017013,-0.0661357268691062,0.885581910610199
2470,1629709117980,1.2611457109451294,-0.159259557723999,-0.0662314742803573,0.8906311988830566
2471,1629709118124,1.290371656417847,-0.1460782587528228,-0.0607112795114517,0.9073519706726074
2472,1629709118156,1.2884550094604492,-0.1109542697668075,-0.0527094788849353,0.9052232503890992
2473,1629709118218,1.2318028211593628,-0.0501197502017021,-0.0059708836488425,0.8944721817970276
2474,1629709118374,1.1335784196853638,-0.0256830267608165,0.0604463033378124,0.8845596313476562
2475,1629709118484,1.0951759815216064,-0.014328776858747,0.098330371081829,0.8745388984680176
2476,1629709118562,1.080880045890808,-0.0065550105646252,0.1022783368825912,0.847876250743866
2477,1629709118702,1.1051902770996094,-0.0065550105646252,0.1122241169214248,0.8406113982200623
2478,1629709118765,1.138318419456482,-0.0065550105646252,0.1172926649451255,0.8192541003227234
2479,1629709118878,1.1718332767486572,-0.0065550105646252,0.1188090518116951,0.8073722720146179
2480,1629709118956,1.2145384550094604,-0.0065550105646252,0.1299241185188293,0.8073722720146179
2481,1629709119049,1.2365508079528809,-0.0062568304128944,0.1419565975666046,0.8218796253204346
2482,1629709119190,1.2365508079528809,-0.0121484892442822,0.1553172469139099,0.8552946448326111
2483,1629709119299,1.2374449968338013,-0.0145772937685251,0.1638121008872985,0.8649776577949524
2485,1629709119409,1.2410852909088137,-0.0145495180040597,0.1543083637952804,0.8750095963478088
2484,1629709119456,1.242525577545166,-0.0336655676364898,0.1327472925186157,0.8800787329673767
2486,1629709119549,1.241032600402832,-0.0679100826382637,0.1207401528954505,0.8816345930099487
2487,1629709119659,1.2284681797027588,-0.0746902301907539,0.1207401528954505,0.8809958100318909
2489,1629709119835,1.2186740636825562,-0.084965094923973,0.1207401528954505,0.8556155562400818
2488,1629709119882,1.2162818908691406,-0.0907607153058052,0.1207401528954505,0.825194239616394
2490,1629709120038,1.21156644821167,-0.0907607153058052,0.0999081134796142,0.792651891708374
2491,1629709120117,1.198081135749817,-0.0922187194228172,0.0587526299059391,0.76183021068573
2492,1629709120226,1.1868716478347778,-0.1016725823283195,0.0230728089809417,0.76183021068573
2493,1629709120273,1.182107925415039,-0.1106954962015152,-0.0261886846274137,0.76183021068573
2495,1629709120413,1.1784054040908811,-0.1252274364233017,-0.0528762973845005,0.76183021068573
2494,1629709120491,1.1642258167266846,-0.128282755613327,-0.0041525289416313,0.76183021068573
2496,1629709120585,1.1142724752426147,-0.1296143382787704,0.0199902281165123,0.76183021068573
2497,1629709120679,1.0187453031539917,-0.111589029431343,-0.0143665662035346,0.7486202120780945
2498,1629709120773,0.9103306531906128,-0.067927747964859,-0.0582838729023933,0.6867445111274719
2499,1629709120900,0.8009454011917114,-0.0483235381543636,-0.1081265807151794,0.7066737413406372
2500,1629709121010,0.7118433117866516,-0.0520389676094055,-0.124921403825283,0.6898481845855713
2501,1629709121119,0.6835665702819824,-0.0393398068845272,-0.1399997919797897,0.6665109395980835
2502,1629709121213,0.6841170787811279,-0.0187087412923574,-0.1446722000837326,0.6750147342681885
2503,1629709121291,0.7171900272369385,0.003141249762848,-0.1429768204689026,0.7360109090805054
2504,1629709121400,0.7622615694999695,0.0205853953957557,-0.1349441111087799,0.7734466195106506
2505,1629709121494,0.8089619874954224,0.0377026796340942,-0.1289398968219757,0.797177791595459
2507,1629709121666,0.8178871273994446,0.0515609867870807,-0.1218405812978744,0.8133798241615295
2506,1629709121697,0.806864321231842,0.0590412244200706,-0.0977000594139099,0.8488666415214539
2508,1629709121822,0.8180798292160034,0.0637198686599731,-0.0417063347995281,0.8757600784301758
2509,1629709121900,0.8724877834320068,0.0691945180296897,-0.0025218753144145,0.8884568810462952
2510,1629709122056,0.9377817511558532,0.0685566738247871,0.0313590466976165,0.9057615399360656
2511,1629709122134,0.9776751399040222,0.0616467036306858,0.0433594956994056,0.928271234035492
2512,1629709122259,0.9919832348823548,0.0585024617612361,0.0492095276713371,0.969200074672699
2514,1629709122353,1.0157899856567385,0.0609863810241222,0.0492095276713371,1.033194065093994
2513,1629709122416,1.051759123802185,0.0615981444716453,0.0492095276713371,1.0802353620529177
2515,1629709122541,1.0815236568450928,0.0562428310513496,0.0542553290724754,1.0926344394683838
2516,1629709122603,1.089322209358215,0.0468491502106189,0.0542553290724754,1.0946314334869385
2517,1629709122697,1.0942217111587524,0.0478458181023597,0.0542553290724754,1.0946314334869385
2518,1629709122853,1.1027456521987915,0.0534388236701488,0.0542553290724754,1.0946314334869385
2519,1629709122962,1.106841206550598,0.0555288791656494,0.0542553290724754,1.0946314334869385
2521,1629709123076,1.1087679862976074,0.0604502409696579,0.0542553290724754,1.0946314334869385
2520,1629709123123,1.1087679862976074,0.0618411377072334,0.0542553290724754,1.0946314334869385
2522,1629709123232,1.112640619277954,0.0485170781612396,0.0542553290724754,1.0946314334869385
2523,1629709123294,1.1195714473724363,0.007463885936886,0.0448413230478763,1.0946314334869385
2524,1629709123466,1.1491053104400637,-0.027121040970087,-0.012888841331005,1.0946314334869385
2525,1629709123560,1.1633529663085938,-0.0142622366547584,-0.0750109329819679,1.09502375125885
2526,1629709123685,1.1600908041000366,0.0031741999555379,-0.1282991766929626,1.09502375125885
2527,1629709123716,1.138055443763733,0.0169658698141574,-0.159441277384758,1.0871094465255735
2528,1629709123841,1.128687858581543,0.0327393598854541,-0.1493115723133087,1.0845357179641724
2529,1629709123982,1.1140849590301514,0.0363448597490787,-0.1298768371343612,1.0654135942459106
2530,1629709124078,1.0820584297180176,0.0280197728425264,-0.1195808500051498,1.0365792512893677
2531,1629709124156,1.0611224174499512,-7.066887337714434e-05,-0.1177524998784065,0.983899474143982
2532,1629709124266,1.0611224174499512,-0.0033409879542887,-0.113109715282917,0.9270099401474
2533,1629709124359,1.0611224174499512,-0.0072155729867517,-0.0807124152779579,0.908621072769165
2534,1629709124469,1.051094889640808,-0.0170743856579065,-0.0346405282616615,0.9111561179161072
2535,1629709124594,1.0387012958526611,-0.0352486483752727,0.0100353956222534,0.9265258312225342
2536,1629709124703,1.0237995386123655,-0.0479771383106708,0.0256179068237543,0.929426610469818
2537,1629709124832,1.0159670114517212,-0.059415478259325,0.0256179068237543,0.929426610469818
2539,1629709124911,1.0175964832305908,-0.0490195229649543,0.0256179068237543,0.929426610469818
2538,1629709124942,1.043426752090454,-0.0221694763749837,0.0256179068237543,0.9353598952293396
2540,1629709125069,1.014593243598938,0.0182342920452356,0.0259685926139354,0.9342235922813416
2541,1629709125163,0.9225804805755616,0.0439487621188163,0.0290319714695215,0.897213339805603
2543,1629709125335,0.8416892886161804,0.0640681385993957,0.0334609188139438,0.8116495609283447
2542,1629709125351,0.835827648639679,0.0741273686289787,0.0500770434737205,0.7349665760993958
2545,1629709125491,0.835827648639679,0.0591405220329761,0.058668065816164,0.7192240357398987
2544,1629709125554,0.8318705558776855,0.0177115108817815,0.0613271556794643,0.7192240357398987
2546,1629709125663,0.8342896699905396,-0.009709658101201,0.0618799366056919,0.7157679200172424
2547,1629709125772,0.842172384262085,-0.0235054586082696,0.0883072540163993,0.6892744302749634
2549,1629709125929,0.8434334397315979,-0.0363462194800376,0.1170943602919578,0.6589516997337341
2548,1629709125960,0.845905065536499,-0.0437931716442108,0.1026888191699981,0.690035879611969
2550,1629709126147,0.845905065536499,-0.0372624062001705,0.0551642030477523,0.8024009466171265
2551,1629709126225,0.845905065536499,-0.030539771541953,0.0264224149286746,0.8731269240379333
2552,1629709126272,0.845905065536499,-0.027214465662837,0.031149785965681,0.9168715476989746
2553,1629709126366,0.8456955552101135,-0.0246458742767572,0.0329695530235767,1.027780055999756
2554,1629709126507,0.8263203501701355,-0.0390939563512802,0.0329695530235767,1.179692029953003
2555,1629709126616,0.7410932183265686,-0.0559042356908321,0.0329695530235767,1.3279465436935425
2556,1629709126694,0.6221145391464233,-0.0745683759450912,0.0329695530235767,1.425558090209961
2557,1629709126788,0.7492020726203918,-0.1144744008779525,0.0329695530235767,1.440786361694336
2558,1629709126916,0.7482805848121643,-0.1717535108327865,0.0329695530235767,1.440786361694336
2559,1629709126994,0.7482805848121643,-0.211457222700119,0.0300287883728742,1.440786361694336
