,timestamp,TP9,AF7,AF8,TP10
1298,1629708999040,0.2735731899738312,0.3504765331745147,-0.233546957373619,0.1208497062325477
1299,1629708999181,0.2466193884611129,0.2230633050203323,-0.2794428467750549,0.1283980160951614
1300,1629708999259,0.2251776903867721,0.0677432417869567,-0.3438270688056946,0.1359992027282714
1301,1629708999353,0.2076663523912429,-0.0753582268953323,-0.4137884378433227,0.136564016342163
1302,1629708999462,0.1943423599004745,-0.1724082976579666,-0.4725137054920196,0.125555157661438
1303,1629708999603,0.184049367904663,-0.2253717333078384,-0.5057868361473083,0.1029370352625846
1304,1629708999665,0.184049367904663,-0.2490735650062561,-0.4746150076389313,0.1029370352625846
1305,1629708999775,0.184049367904663,-0.2602111399173736,-0.2806145250797272,0.1029370352625846
1306,1629708999884,0.1451331973075866,-0.2660914361476898,0.0666141882538795,0.0885411575436592
1307,1629708999962,0.1158634796738624,-0.2674405574798584,0.4050893783569336,0.0777368322014808
1308,1629709000028,0.1009606793522834,-0.2680230438709259,0.6582189202308655,0.0686003267765045
1309,1629709000137,0.0792238339781761,-0.2780146300792694,0.8225624561309814,0.0604124329984188
1310,1629709000215,0.0480815581977367,-0.2963127195835113,0.9151433110237122,0.0629646703600883
1311,1629709000371,0.0143187027424573,-0.3184754252433777,0.9578388333320618,0.0738180056214332
1312,1629709000449,-0.0119573008269071,-0.3173220753669739,0.9731265306472778,0.0809016600251197
1313,1629709000559,-0.0140484375879168,-0.2853113412857055,0.977809190750122,0.0726452097296714
1314,1629709000668,-0.0021551728714257,-0.2407095730304718,0.9786776304244996,0.0395251400768756
1315,1629709000762,-0.0021551728714257,-0.2012045532464981,0.9799208045005798,0.0395251400768756
1316,1629709000871,-0.0021551728714257,-0.1776418685913086,0.9846028089523317,0.0395251400768756
1317,1629709001030,-0.0021551728714257,-0.1551147848367691,0.9998567700386048,0.0395251400768756
1318,1629709001061,-0.0021551728714257,-0.1208443567156791,1.032793402671814,0.0395251400768756
1319,1629709001155,-0.0021551728714257,-0.0776204243302345,1.0798723697662354,0.0395251400768756
1320,1629709001280,-0.0021551728714257,-0.0381653606891632,1.122546911239624,0.0395251400768756
1321,1629709001389,-0.0021551728714257,-0.0157530941069126,1.1381405591964722,0.0395251400768756
1322,1629709001483,-0.0021551728714257,-0.0168597362935543,1.1132583618164062,0.0395251400768756
1323,1629709001592,-0.0021551728714257,-0.0403802692890167,1.0492569208145142,0.0395251400768756
1324,1629709001717,-0.0021551728714257,-0.0685453563928604,0.9628822803497314,0.0395251400768756
1325,1629709001811,-0.0021551728714257,-0.0843315348029136,0.8817177414894104,0.0395251400768756
1326,1629709001873,-0.0021551728714257,-0.0810987949371337,0.8313026428222656,0.0395251400768756
1327,1629709002014,-0.0021551728714257,-0.0742445066571235,0.8110153675079346,0.0395251400768756
1328,1629709002045,-0.0021551728714257,-0.0818180292844772,0.8062400817871094,0.0395251400768756
1329,1629709002237,-0.0021551728714257,-0.1066251471638679,0.8092613816261292,0.0395251400768756
1330,1629709002331,-0.0021551728714257,-0.1373167186975479,0.8131304979324341,0.0395251400768756
1331,1629709002393,-0.0021551728714257,-0.1555798798799514,0.8134838342666626,0.0395251400768756
1332,1629709002471,-0.0021551728714257,-0.1629495769739151,0.8014736175537109,0.0395251400768756
1333,1629709002612,-0.0021551728714257,-0.1754060536623001,0.7632956504821777,0.0395251400768756
1334,1629709002690,-0.0021551728714257,-0.2071246206760406,0.6863237619400024,0.0395251400768756
1335,1629709002832,-0.0021551728714257,-0.2537868022918701,0.5741960406303406,0.0395251400768756
1336,1629709002927,-0.0021551728714257,-0.2998978495597839,0.45796599984169,0.0395251400768756
1337,1629709003020,-0.0021551728714257,-0.3260789513587951,0.3804177939891815,0.0395251400768756
1338,1629709003083,-0.0021551728714257,-0.3316973447799682,0.3497768640518188,0.0395251400768756
1339,1629709003208,-0.0021551728714257,-0.3206627666950226,0.3439216315746307,0.0395251400768756
1340,1629709003286,-0.0021551728714257,-0.3016516864299774,0.3594980239868164,0.0395251400768756
1341,1629709003442,-0.0021551728714257,-0.2831283807754516,0.3933103382587433,0.0395251400768756
1342,1629709003489,-0.0021551728714257,-0.2773041129112243,0.4404462575912475,0.0395251400768756
1343,1629709003645,-0.0021551728714257,-0.2843020558357239,0.4969051480293274,0.0395251400768756
1344,1629709003723,-0.0021551728714257,-0.2952078878879547,0.5537612438201904,0.0395251400768756
1345,1629709003817,-0.0021551728714257,-0.2859545350074768,0.6088366508483887,0.0395251400768756
1346,1629709003913,-0.0021551728714257,-0.2156994342803955,0.6630100011825562,0.0395251400768756
1347,1629709004038,-0.0021551728714257,-0.0623498708009719,0.7050315141677856,0.0395251400768756
1348,1629709004131,-0.0021551728714257,0.1135800704360008,0.7225019335746765,0.0395251400768756
1349,1629709004194,-0.0021551728714257,0.2544379234313965,0.7207781672477722,0.0395251400768756
1350,1629709004366,-0.0021551728714257,0.3462969958782196,0.7105587124824524,0.0395251400768756
1351,1629709004397,-0.0021551728714257,0.3967763185501098,0.7100338935852051,0.0395251400768756
1352,1629709004459,-0.0021551728714257,0.4237727224826813,0.7361228466033936,0.0395251400768756
1353,1629709004663,-0.0021551728714257,0.4406783580780029,0.779978334903717,0.0395251400768756
1354,1629709004787,-0.0021551728714257,0.4480108916759491,0.8248828053474426,0.0395251400768756
1355,1629709004834,-0.0021551728714257,0.4458986818790436,0.8553411364555359,0.0395251400768756
1356,1629709004897,-0.0021551728714257,0.4408328831195831,0.865108072757721,0.0395251400768756
1357,1629709005009,-0.0021551728714257,0.4380051493644714,0.8572632670402527,0.0395251400768756
1358,1629709005118,-0.0021551728714257,0.4388138651847839,0.8353255391120911,0.0395251400768756
1359,1629709005259,-0.0021551728714257,0.4431185722351074,0.8032803535461426,0.0395251400768756
1360,1629709005384,-0.0021551728714257,0.4457980990409851,0.763160228729248,0.0395251400768756
1361,1629709005462,-0.0021551728714257,0.4342442154884338,0.7124398350715637,0.0395251400768756
1362,1629709005524,-0.0021551728714257,0.3892153799533844,0.6566363573074341,0.0395251400768756
1363,1629709005649,-0.0021551728714257,0.2979418337345123,0.6113934516906738,0.0395251400768756
1364,1629709005759,-0.0021551728714257,0.1630553156137466,0.5793473124504089,0.0395251400768756
1365,1629709005837,0.5112619996070862,0.0053284033201634,0.5565407872200012,0.832979679107666
1366,1629709005949,0.5617106556892395,-0.1350805163383484,0.5272366404533386,0.8584026098251343
1367,1629709006043,0.5896458625793457,-0.2431689947843551,0.4643696844577789,0.8543356657028198
1368,1629709006199,0.5950194597244263,-0.3306727111339569,0.3577130138874054,0.83482825756073
1369,1629709006262,0.5829116106033325,-0.392034500837326,0.204262763261795,0.8085256218910217
1370,1629709006340,0.5622432231903076,-0.4168627858161926,0.0209943875670433,0.7813612222671509
1371,1629709006449,0.5508334040641785,-0.4350288510322571,-0.1463419049978256,0.7623503804206848
1372,1629709006559,0.5606639385223389,-0.4584268033504486,-0.2408138811588287,0.756203293800354
1373,1629709006684,0.5821665525436401,-0.4842213094234466,-0.2624260485172272,0.7529515027999878
1374,1629709006762,0.6045100092887878,-0.523276686668396,-0.2483462393283844,0.7447406053543091
1375,1629709006824,0.6256800293922424,-0.5763236880302429,-0.2320097535848617,0.7366334795951843
1376,1629709006921,0.6446693539619446,-0.6164557933807373,-0.221419095993042,0.7333453297615051
1377,1629709007109,0.6681573987007141,-0.6295925974845886,-0.2182589918375015,0.7353388071060181
1378,1629709007140,0.6725924015045166,-0.6240531802177429,-0.2242344617843628,0.7199116945266724
1379,1629709007249,0.6629891991615295,-0.6212959289550781,-0.2389362901449203,0.685931921005249
1380,1629709007362,0.639336109161377,-0.618234395980835,-0.2590890228748321,0.6368857026100159
1381,1629709007471,0.6138465404510498,-0.5952581167221069,-0.280178815126419,0.5857049822807312
1382,1629709007549,0.5986125469207764,-0.5351559519767761,-0.3024637401103973,0.5499678254127502
1383,1629709007674,0.5970309376716614,-0.4631182849407196,-0.3293316662311554,0.5299758315086365
1384,1629709007786,0.6046082973480225,-0.3987189531326294,-0.3582440912723541,0.5224725008010864
1385,1629709007864,0.6117785573005676,-0.3563591837882995,-0.3900570869445801,0.5189852118492126
1386,1629709008005,0.6080743670463562,-0.3388480544090271,-0.4146197736263275,0.5064733624458313
1387,1629709008036,0.5855414867401123,-0.3315360248088836,-0.4332546889781952,0.4763402938842773
1388,1629709008161,0.5460662841796875,-0.319479376077652,-0.4495352208614349,0.4381751120090484
1389,1629709008286,0.4939322471618652,-0.2995870113372803,-0.471209704875946,0.40337735414505
1390,1629709008395,0.4283949434757232,-0.282439112663269,-0.4869934022426605,0.3653319180011749
1391,1629709008504,0.3474892377853393,-0.2778663337230682,-0.5008560419082642,0.3141646087169647
1392,1629709008583,0.2699713706970215,-0.2868255078792572,-0.5164996385574341,0.2558471262454986
1393,1629709008661,0.2147751748561859,-0.2997115552425384,-0.5284492373466492,0.2112836688756942
1394,1629709008754,0.1877419352531433,-0.3069708049297333,-0.5264970064163208,0.1857482492923736
1395,1629709008929,0.1921179741621017,-0.3102198243141174,-0.5046377778053284,0.1766122132539749
1396,1629709009054,0.2523502111434936,-0.3193784058094024,-0.4640467464923858,0.1739084869623184
1397,1629709009132,0.2312851846218109,-0.3480473160743713,-0.4102090895175934,0.1566199511289596
1398,1629709009257,0.1835151761770248,-0.3963719010353088,-0.3558836281299591,0.1273029893636703
1399,1629709009288,0.1173352897167205,-0.454877644777298,-0.3090503215789795,0.0836164131760597
1400,1629709009398,0.0552080571651458,-0.4975672364234924,-0.2614855468273163,0.0338931195437908
1401,1629709009491,0.013215291313827,-0.4921619594097137,-0.206557035446167,-0.0115759558975696
1402,1629709009585,-0.0031609891448169,-0.4386515319347381,-0.1566342264413833,-0.0518658049404621
1403,1629709009679,0.0055101793259382,-0.355388879776001,-0.1176296398043632,-0.0903901010751724
1404,1629709009788,0.0371379628777504,-0.2572046220302582,-0.0925904959440231,-0.1183135509490966
1405,1629709009885,0.0876067951321601,-0.1703769415616989,-0.0811595618724823,-0.1382403224706649
1406,1629709009994,0.1536781638860702,-0.1094093099236488,-0.0817745923995971,-0.1760070919990539
1407,1629709010119,0.2360796928405761,-0.0714166164398193,-0.0839447155594825,-0.1760070919990539
1408,1629709010244,0.2360796928405761,-0.0451058894395828,-0.0848666131496429,-0.1760070919990539
1409,1629709010338,0.2360796928405761,-0.0264729894697666,-0.0882691890001297,-0.1760070919990539
1410,1629709010431,0.2360796928405761,-0.0124151837080717,-0.0983988791704177,-0.1760070919990539
1411,1629709010509,0.2360796928405761,-0.0009873092640191,-0.1178082525730133,-0.1760070919990539
1412,1629709010587,0.2360796928405761,0.0063549499027431,-0.1460933685302734,-0.1760070919990539
1413,1629709010759,0.2360796928405761,0.0112267322838306,-0.1787635535001754,-0.1760070919990539
1414,1629709010854,0.2360796928405761,0.0139111019670963,-0.2168003320693969,0.2801642119884491
1415,1629709010933,0.1913670301437378,0.0145907718688249,-0.2698691785335541,0.2325875610113144
1416,1629709011027,0.1913670301437378,0.0120860999450087,-0.3524523973464966,0.2325875610113144
1417,1629709011152,0.1913670301437378,0.0108368443325161,-0.458811491727829,0.2325875610113144
1418,1629709011246,0.1913670301437378,0.0190465617924928,-0.5705534219741821,0.2325875610113144
1419,1629709011382,0.1913670301437378,0.0670112669467926,-0.6096386313438416,0.2325875610113144
1420,1629709011542,0.1913670301437378,0.1926416456699371,-0.4744918048381805,0.2325875610113144
1421,1629709011586,0.1913670301437378,0.3601883053779602,-0.2227912992238998,0.2325875610113144
1422,1629709011659,0.1913670301437378,0.5098567605018616,0.0186205822974443,0.2325875610113144
1423,1629709011699,0.1913670301437378,0.6182632446289062,0.2038951069116592,0.2325875610113144
1424,1629709011816,0.1913670301437378,0.6851978898048401,0.3340154588222503,0.2325875610113144
1425,1629709011959,0.1913670301437378,0.7201008796691895,0.4200168251991272,0.2325875610113144
1426,1629709012046,0.1913670301437378,0.7372011542320251,0.4703453481197357,0.06380495429039
1427,1629709012113,0.1913670301437378,0.7485635876655579,0.4978019893169403,0.06380495429039
1428,1629709012220,0.1913670301437378,0.7544573545455933,0.506229817867279,0.06380495429039
1429,1629709012334,0.1913670301437378,0.757770836353302,0.5070000290870667,0.06380495429039
1430,1629709012465,0.1913670301437378,0.7590283751487732,0.506257176399231,0.06380495429039
1431,1629709012576,0.1913670301437378,0.7578794360160828,0.5061808228492737,0.06380495429039
1432,1629709012658,0.4734734296798706,0.7536158561706543,0.5067051649093628,0.5565847158432007
1433,1629709012772,0.4198158681392669,0.7443390488624573,0.5063876509666443,0.4979006648063659
1434,1629709012828,0.3826474845409393,0.7232483625411987,0.5030144453048706,0.469102680683136
1435,1629709012918,0.3494124114513397,0.6766051054000854,0.490581601858139,0.4562926590442657
1436,1629709012997,0.3134833574295044,0.5922889113426208,0.4601700007915497,0.4587216973304748
1437,1629709013192,0.2838025987148285,0.4663487672805786,0.4009793698787689,0.4782984554767608
1438,1629709013236,0.2712352573871612,0.3022372722625732,0.3076883554458618,0.5024806261062622
1439,1629709013366,0.2811508774757385,0.1212309673428535,0.1799694299697876,0.5211835503578186
1440,1629709013450,0.3120738565921783,-0.0365129448473453,0.0249801836907863,0.5314348936080933
1441,1629709013541,0.3493038713932037,-0.157183364033699,-0.1271602660417556,0.5337252616882324
1442,1629709013619,0.3903207778930664,-0.2667025923728943,-0.2551945447921753,0.5363631248474121
1443,1629709013787,0.4318224489688873,-0.3360295295715332,-0.3036001324653625,0.5439767837524414
1444,1629709013898,0.4146545529365539,-0.3803967237472534,-0.2957019507884979,0.4974727928638458
1445,1629709013991,0.443844199180603,-0.4033312201499939,-0.2590811252593994,0.5039699673652649
1446,1629709014049,0.4747267663478851,-0.3995456099510193,-0.2131739109754562,0.5225424766540527
1447,1629709014148,0.4863717555999756,-0.3835121691226959,-0.171567752957344,0.5289561748504639
1448,1629709014257,0.4893699288368225,-0.3645696341991424,-0.1412104815244674,0.5286874771118164
1449,1629709014362,0.4882818758487701,-0.3455687165260315,-0.1281454414129257,0.5205140709877014
1450,1629709014433,0.4856522977352142,-0.326783686876297,-0.1332493275403976,0.5072250962257385
1451,1629709014573,0.4868364632129669,-0.3138443827629089,-0.1513785868883133,0.4890552163124084
1452,1629709014673,0.4874812960624695,-0.314422070980072,-0.1694934964179992,0.459909975528717
1453,1629709014740,0.4808777868747711,-0.3267013728618622,-0.1759167611598968,0.41950523853302
1454,1629709014868,0.4658790528774261,-0.3389815986156463,-0.162971556186676,0.3737063109874725
1455,1629709015002,0.4418551623821258,-0.345315933227539,-0.1442213803529739,0.3281063437461853
1456,1629709015077,0.4147836863994598,-0.3442921638488769,-0.130875825881958,0.2918539345264435
1457,1629709015211,0.3808566927909851,-0.3489437699317932,-0.1185629963874816,0.2561148107051849
1458,1629709015248,0.33390673995018,-0.3660698533058166,-0.1036264598369598,0.2094325274229049
1459,1629709015339,0.2821998000144958,-0.3877993524074554,-0.0863703116774559,0.1637343615293502
1460,1629709015442,0.2834612429141998,-0.4097911119461059,-0.071668766438961,0.1612725853919983
1461,1629709015587,0.4088118076324463,-0.4313414394855499,-0.0651222914457321,0.284009575843811
1462,1629709015688,0.6475898027420044,-0.4533036649227142,-0.0574328377842903,0.5303747057914734
1463,1629709015796,0.8917391300201416,-0.4767021238803863,-0.0331390909850597,0.7860749363899231
1464,1629709015880,1.0758558511734009,-0.5010983347892761,0.0028252615593373,0.978507161140442
1465,1629709016025,1.190123200416565,-0.527285099029541,0.0405662953853607,1.0982028245925903
1466,1629709016086,1.2480387687683103,-0.547905683517456,0.0756869986653328,1.159177541732788
1467,1629709016216,1.269648790359497,-0.5560042858123779,0.1026003062725067,1.1814020872116089
1468,1629709016302,1.275263428688049,-0.5422853827476501,0.1158998757600784,1.1877081394195557
1469,1629709016382,1.2750275135040283,-0.507619321346283,0.1185924112796783,1.1892837285995483
1470,1629709016488,1.2736518383026123,-0.4657245576381683,0.1177456751465797,1.190176486968994
1471,1629709016552,1.2714564800262451,-0.4285845756530761,0.1148267090320587,1.1894148588180542
1472,1629709016647,1.2688289880752563,-0.3994649648666382,0.1081051975488662,1.1875174045562744
1473,1629709016833,1.2660315036773682,-0.3771844506263733,0.0952392593026161,1.1852030754089355
1474,1629709016907,1.2625285387039185,-0.3633304536342621,0.0751723945140838,1.1824325323104858
1475,1629709017001,1.2545348405838013,-0.3510105609893799,0.0484736785292625,1.1769533157348633
1476,1629709017087,1.232981562614441,-0.3305288851261139,0.0212270822376012,1.1594394445419312
1477,1629709017219,1.1789636611938477,-0.3046092092990875,-0.0093580158427357,1.1108133792877195
1478,1629709017306,1.0671260356903076,-0.2658459842205047,-0.053250890225172,1.0063196420669556
1479,1629709017411,0.8753798007965088,-0.2049151957035064,-0.1056888997554779,0.8276869058609009
1480,1629709017501,0.6167833805084229,-0.1427343636751175,-0.1562787145376205,0.5920559763908386
1481,1629709017598,0.2633351981639862,-0.0765589103102684,-0.1999173760414123,0.2903153896331787
1482,1629709017689,-0.1065894663333892,0.0269006006419658,-0.2301948815584182,0.0326569974422454
1483,1629709017793,-0.335669606924057,0.1796098500490188,-0.2123166918754577,-0.10099858045578
1484,1629709017927,-0.3535010814666748,0.3805030584335327,-0.1077255457639694,-0.148618146777153
1485,1629709018008,-0.3433763682842254,0.3984653651714325,0.0579375699162483,-0.184302806854248
1486,1629709018131,-0.3503116965293884,0.4195291399955749,0.2034798115491867,-0.1855386197566986
1487,1629709018216,-0.3893146216869354,0.445082813501358,0.318098247051239,-0.1601352393627166
1488,1629709018326,-0.4381904900074005,0.6750710010528564,0.4024185836315155,-0.1273203343153
1489,1629709018422,-0.4628298878669739,0.7692835330963135,0.4668372273445129,-0.105699174106121
1490,1629709018559,-0.4461992681026459,0.8025922179222107,0.5191875696182251,-0.1055497080087661
1491,1629709018622,-0.4461992681026459,0.8111945986747742,0.5564596652984619,-0.1055497080087661
1492,1629709018747,-0.4461992681026459,0.8143755793571472,0.5817767977714539,-0.1055497080087661
1493,1629709018819,-0.4461992681026459,0.8216087222099304,0.6085626482963562,-0.1055497080087661
1494,1629709018915,-0.4461992681026459,0.8355740308761597,0.6443066000938416,-0.1055497080087661
1495,1629709019071,-0.4461992681026459,0.8591558933258057,0.6813388466835022,-0.1055497080087661
1496,1629709019117,-0.4461992681026459,0.886348307132721,0.7109647393226624,-0.1055497080087661
1497,1629709019240,-0.4461992681026459,0.9034984111785888,0.7268272638320923,1.4025883674621582
1498,1629709019330,-0.4461992681026459,0.8967207670211792,0.7301222681999207,1.402434468269348
1499,1629709019451,-0.4461992681026459,0.8447028994560242,0.7205693125724792,1.3933981657028198
1500,1629709019620,-0.4461992681026459,0.8184589743614197,0.6945104002952576,1.3734122514724731
1501,1629709019669,-0.4461992681026459,0.7905637621879578,0.6578118801116943,1.3466843366622925
1502,1629709019734,-0.4461992681026459,0.7637084722518921,0.6155604720115662,1.3217977285385132
1503,1629709019889,-0.4461992681026459,0.627280056476593,0.5767238736152649,1.305854082107544
1504,1629709019931,-0.4461992681026459,0.5219811797142029,0.5468297004699707,1.3018994331359863
1505,1629709020122,1.5140447616577148,0.4723869264125824,0.5237185955047607,1.299649357795715
1506,1629709020218,1.4389690160751345,0.460714042186737,0.5104579925537109,1.2897520065307615
1507,1629709020289,1.3711159229278564,0.4596538245677948,0.5015567541122437,1.2706083059310913
1508,1629709020331,1.309004306793213,0.449567049741745,0.480491429567337,1.245779037475586
1509,1629709020452,1.309004306793213,0.4198913872241974,0.4354770183563232,1.2271108627319336
1510,1629709020609,1.309004306793213,0.359569787979126,0.3723759055137634,1.211251735687256
1511,1629709020668,1.309004306793213,0.2704297006130218,0.3040426075458526,1.1957391500473022
1512,1629709020755,1.1564018726348877,0.1777052581310272,0.2562083899974823,1.171023726463318
1513,1629709020899,0.7673941850662231,0.1255283504724502,0.2351475208997726,1.1394433975219729
1514,1629709020962,0.7673941850662231,0.1319538652896881,0.2245554774999618,1.1091753244400024
1515,1629709021114,0.7673941850662231,0.1681818217039108,0.2141364216804504,1.0915420055389404
1516,1629709021169,0.7673941850662231,0.1935617625713348,0.2018771767616272,1.0915484428405762
1517,1629709021287,0.7673941850662231,0.202461376786232,0.1856674998998642,1.098905086517334
1518,1629709021384,0.7673941850662231,0.2049945443868637,0.1584644615650177,1.0929173231124878
1519,1629709021441,0.7162784934043884,0.2061779499053955,0.1094907745718956,1.0386310815811155
1520,1629709021541,0.7162784934043884,0.2039436846971511,0.0383495055139064,1.0386310815811155
1521,1629709021693,0.7162784934043884,0.1971696615219116,-0.0484489202499389,1.0386310815811155
1522,1629709021759,0.7162784934043884,0.1855021864175796,-0.125889241695404,1.0386310815811155
1523,1629709021888,0.7162784934043884,0.1704308688640594,-0.171723797917366,1.0386310815811155
1524,1629709021995,0.4914308786392212,0.1544419825077057,-0.1923213899135589,0.6790297627449036
1525,1629709022094,0.5263964533805847,0.1394684165716171,-0.2085492461919784,0.712415337562561
1526,1629709022220,0.541537344455719,0.1169329956173896,-0.2323238849639892,0.7223589420318604
1527,1629709022291,0.537221372127533,0.06993118673563,-0.2718844413757324,0.7175658941268921
1528,1629709022393,0.5167543292045593,-0.0178197044879198,-0.331014335155487,0.7007231116294861
1529,1629709022516,0.4920985400676727,-0.1476679891347885,-0.399288922548294,0.6806446313858032
1530,1629709022591,0.4779191017150879,-0.3077322840690613,-0.4582156538963318,0.670289933681488
1531,1629709022662,0.480438083410263,-0.4507223665714264,-0.472505122423172,0.6710365414619446
1532,1629709022765,0.4940904974937439,-0.5392040610313416,-0.4447518587112427,0.6764772534370422
1533,1629709022899,0.5117776989936829,-0.58029705286026,-0.3965946435928345,0.6765124201774597
1534,1629709022976,0.5241275429725647,-0.6109113693237305,-0.3525671660900116,0.6679714322090149
1535,1629709023086,0.5294252038002014,-0.6247112154960632,-0.312785267829895,0.6537646055221558
1536,1629709023222,0.5382903814315796,-0.6219010353088379,-0.2773676812648773,0.6497962474822998
1537,1629709023283,0.5449990630149841,-0.5926827788352966,-0.2339789122343063,0.6525773406028748
1538,1629709023413,0.5463688373565674,-0.4849981367588043,-0.1429057121276855,0.6436777710914612
1539,1629709023533,0.5404282212257385,-0.2766023278236389,0.0466033183038234,0.6235674619674683
1540,1629709023662,0.529724657535553,-0.0235359165817499,0.2856165170669555,0.5996184945106506
1541,1629709023719,0.5207907557487488,0.1921430677175521,0.4889163374900818,0.578403890132904
1542,1629709023801,0.5219317674636841,0.3379165530204773,0.6301495432853699,0.5643795728683472
1543,1629709023892,0.5403012037277222,0.4200068116188049,0.7116147875785828,0.5649266839027405
1544,1629709023982,0.571610152721405,0.4548403024673462,0.750298798084259,0.5764848589897156
1545,1629709024125,0.601992666721344,0.4678979516029358,0.7654188275337219,0.5785373449325562
1546,1629709024200,0.6190609335899353,0.4782538712024688,0.7707932591438293,0.5554718375205994
1547,1629709024308,0.6184918284416199,0.4885799586772918,0.7731934785842896,0.4971995949745178
1548,1629709024415,0.6184918284416199,0.499589741230011,0.7730502486228943,0.4971995949745178
1549,1629709024509,0.6184918284416199,0.5076521039009094,0.771697998046875,0.4971995949745178
1550,1629709024597,0.6184918284416199,0.5110914707183838,0.7695887088775635,0.4971995949745178
1551,1629709024761,0.6184918284416199,0.5104082822799683,0.767721951007843,0.4971995949745178
1552,1629709024860,0.2144471108913421,0.5066052079200745,0.765238344669342,0.0647158026695251
1553,1629709024920,0.1868059933185577,0.4954393208026886,0.756216824054718,0.001061572227627
1554,1629709025031,0.1566117256879806,0.4660292863845825,0.7255107760429382,-0.0492421090602874
1555,1629709025102,0.1298160403966903,0.4004456698894501,0.6524248719215393,-0.0808762907981872
1556,1629709025194,0.1037681251764297,0.2847349643707275,0.5224881172180176,-0.0955539941787719
1557,1629709025339,0.0826224014163017,0.1251170933246612,0.3310450613498688,-0.0822946354746818
1558,1629709025433,0.0661390721797943,-0.0422181151807308,0.1025929152965545,-0.050787977874279
1559,1629709025543,0.0648969411849975,-0.1492165029048919,-0.0990975424647331,-0.0151078486815094
1560,1629709025619,0.0771428048610687,-0.1929673999547958,-0.2149025946855545,0.0090600755065679
1561,1629709025702,0.0905714184045791,-0.2288657575845718,-0.2680704593658447,0.0350979790091514
1562,1629709025821,0.0923099070787429,-0.2735796570777893,-0.3091564178466797,0.0741103962063789
1563,1629709025969,0.0825491324067115,-0.3273293077945709,-0.3394627571105957,0.1253548115491867
1564,1629709026117,0.0654964819550514,-0.3500776588916778,-0.3599242568016052,0.1700317114591598
1565,1629709026202,0.0475282445549964,-0.3270961940288543,-0.373870313167572,0.2055976688861847
1566,1629709026252,0.0342064723372459,-0.2876667976379394,-0.3906866312026977,0.2278828918933868
1567,1629709026345,0.0293147545307874,-0.2603358924388885,-0.4127102196216583,0.2400122433900833
1568,1629709026436,0.0247740149497985,-0.2520493865013122,-0.4315026402473449,0.249024212360382
1569,1629709026573,0.0141561385244131,-0.2592617869377136,-0.4439361095428467,0.2598316073417663
1570,1629709026670,0.0015368202002719,-0.2787745594978332,-0.442886471748352,0.2709860801696777
1571,1629709026786,0.0102014271542429,-0.3095053434371948,-0.4099906086921692,0.2913909554481506
1572,1629709026866,0.0197871476411819,-0.3443225026130676,-0.3642800152301788,0.3069852888584137
1573,1629709027002,0.0296179968863725,-0.3719930946826935,-0.2971718311309814,0.3171760141849518
1574,1629709027045,0.0274983122944831,-0.3857956230640411,-0.1714750975370407,0.3237486183643341
1575,1629709027216,0.0068657449446618,-0.3877558708190918,-0.0152109451591968,0.3334964215755462
1576,1629709027258,-0.0259816702455282,-0.3866311311721802,0.1262069344520568,0.3404701054096222
1577,1629709027345,-0.0471894368529319,-0.3779654800891876,0.2264728546142578,0.332449197769165
1578,1629709027483,-0.0422022268176078,-0.3710979521274566,0.2865388095378876,0.294347733259201
1579,1629709027515,-0.0320342592895031,-0.3760888278484344,0.3162058293819427,0.2202705293893814
1580,1629709027613,-0.0468617528676986,-0.3917857408523559,0.33057701587677,0.1235143467783927
1581,1629709027765,-0.1011045426130294,-0.4056506156921386,0.3374652564525604,0.0409805029630661
1582,1629709027892,-0.1011045426130294,-0.409974992275238,0.3410336971282959,0.0409805029630661
1583,1629709027968,-0.1011045426130294,-0.4009192287921905,0.3408186435699463,0.0409805029630661
1584,1629709028092,-0.1011045426130294,-0.3804954886436462,0.3386332094669342,0.0409805029630661
1585,1629709028170,-0.1011045426130294,-0.3561064302921295,0.3343720734119415,0.0409805029630661
1586,1629709028233,-0.1011045426130294,-0.3378075361251831,0.3252696394920349,0.0409805029630661
1587,1629709028438,0.6105434894561768,-0.3249442279338836,0.3129352629184723,0.3027537167072296
1588,1629709028495,0.5847361087799072,-0.3170873820781708,0.2934414744377136,0.2868804931640625
1589,1629709028607,0.5461040735244751,-0.3163681030273437,0.2502206265926361,0.2712268531322479
1590,1629709028670,0.5016542077064514,-0.3228655755519867,0.1704052835702896,0.2546955943107605
1591,1629709028764,0.4661978185176849,-0.3347976505756378,0.0523837022483348,0.2382574677467346
1592,1629709028873,0.4500606656074524,-0.3517290353775024,-0.0760970190167427,0.2307593375444412
1593,1629709028982,0.4509522914886474,-0.370947390794754,-0.1676737517118454,0.2322266548871994
1594,1629709029107,0.4566123187541961,-0.3945558369159698,-0.1925571113824844,0.2319914102554321
1595,1629709029201,0.4564878046512604,-0.4209794700145721,-0.1786515265703201,0.2252710461616516
1596,1629709029310,0.4473215639591217,-0.4339960813522339,-0.1532928645610809,0.2138487696647644
1597,1629709029357,0.4314066171646118,-0.4203671813011169,-0.1307867169380188,0.2019691467285156
1598,1629709029498,0.4126773476600647,-0.3930805325508117,-0.1117021963000297,0.188292771577835
1599,1629709029623,0.3866410553455353,-0.3770162761211395,-0.0965094491839408,0.1675571203231811
1600,1629709029732,0.3420797288417816,-0.3810112178325653,-0.0833228081464767,0.1319930255413055
1601,1629709029810,0.2902698218822479,-0.3872109353542328,-0.0697093233466148,0.1028831675648689
1602,1629709029951,0.2551418542861938,-0.3902556300163269,-0.0572469569742679,0.1042884290218353
1603,1629709030032,0.2595145106315613,-0.3901039063930511,-0.0458954423666,0.1453258842229843
1604,1629709030173,0.299622118473053,-0.3910454511642456,-0.034999206662178,0.2106372117996215
1605,1629709030204,0.352624773979187,-0.3991425931453705,-0.0218953751027584,0.2789866626262665
1606,1629709030345,0.3873675167560577,-0.4092906415462494,-0.0146550545468926,0.3328131735324859
1607,1629709030454,0.3932946920394897,-0.4166004359722137,-0.0224166698753833,0.3634878098964691
1608,1629709030563,0.3738788962364197,-0.4163232743740082,-0.0495022758841514,0.37332284450531
1609,1629709030657,0.3398677110671997,-0.4032477438449859,-0.0903083533048629,0.3701207041740417
1610,1629709030719,0.3032845854759216,-0.3852640688419342,-0.1367517262697219,0.3610427677631378
1611,1629709030876,0.2746646702289581,-0.3799968957901001,-0.1830319166183471,0.3509538173675537
1612,1629709030938,0.2553713619709015,-0.3960238397121429,-0.2224172055721283,0.3425231277942657
1613,1629709031016,0.2435239106416702,-0.4249715507030487,-0.2450945079326629,0.3394727706909179
1614,1629709031126,0.2381040602922439,-0.4488367736339569,-0.2503066062927246,0.3418930470943451
1615,1629709031208,0.2358055710792541,-0.4527833759784698,-0.2474294155836105,0.3501649498939514
1616,1629709031332,0.2373529225587844,-0.433820515871048,-0.2479525357484817,0.3572846055030823
1617,1629709031426,0.2297212779521942,-0.4045478999614715,-0.2524417042732239,0.3517155349254608
1618,1629709031551,0.199570819735527,-0.3670655786991119,-0.2586495280265808,0.3279749453067779
1619,1629709031660,0.1437552124261856,-0.3192553520202636,-0.26894411444664,0.2838054895401001
1620,1629709031773,0.0772979035973548,-0.2642016410827636,-0.2968044281005859,0.2204656600952148
1621,1629709031836,0.0353732220828533,-0.2148658782243728,-0.3412777781486511,0.150145947933197
1622,1629709031913,-0.0060960068367421,-0.1819953918457031,-0.3922358155250549,0.093639925122261
1623,1629709032116,-0.0152898067608475,-0.1588482409715652,-0.4193077683448791,0.0568030513823032
1624,1629709032226,-0.0003402236034162,-0.1319067031145095,-0.3963887691497803,0.0472754836082458
1625,1629709032257,0.0300882216542959,-0.0861197933554649,-0.3161713182926178,0.0629548951983451
1626,1629709032351,0.0655140876770019,-0.0197636317461729,-0.202300950884819,0.0932081714272499
1627,1629709032398,0.1051316633820533,0.0522961616516113,-0.0941796451807022,0.1257627159357071
1628,1629709032522,0.1461720764636993,0.1164306998252868,-0.0132432198151946,0.1538929194211959
1629,1629709032663,0.1849471628665924,0.1668204814195633,0.0343511737883091,0.1768431365489959
1630,1629709032741,0.2194937467575073,0.2018689215183258,0.0547673739492893,0.1932401061058044
1632,1629709032900,0.2464267015457153,0.2205616235733032,0.0597133375704288,0.2026544213294983
1631,1629709032931,0.2735842168331146,0.2252819538116455,0.0572784356772899,0.2110500186681747
1633,1629709033103,0.2735842168331146,0.2184105664491653,0.0529656559228897,0.2110500186681747
1634,1629709033150,0.2735842168331146,0.2028080224990844,0.0483887121081352,0.2110500186681747
1635,1629709033291,0.2735842168331146,0.1828783005475998,0.0474007949233055,0.2110500186681747
1636,1629709033384,0.2735842168331146,0.1634706258773803,0.0522099547088146,0.2110500186681747
1637,1629709033447,0.2735842168331146,0.1504764258861541,0.0588069036602973,0.2110500186681747
1638,1629709033587,0.0165886618196964,0.139837309718132,0.0594875253736972,-0.3005320727825165
1639,1629709033665,-0.0057020592503249,0.1207703500986099,0.0463306941092014,-0.234899491071701
1640,1629709033790,-0.0308639872819185,0.0814681649208068,0.0100953644141554,-0.1764158606529235
1641,1629709033872,-0.0460624620318412,0.0136907482519745,-0.0593426711857318,-0.1202614679932594
1642,1629709033997,-0.0465139560401439,-0.0824781656265258,-0.1665085107088089,-0.0821359530091285
1643,1629709034091,-0.0411569625139236,-0.2046762108802795,-0.3035872280597687,-0.0567331835627555
1644,1629709034185,-0.0356269590556621,-0.3493422865867615,-0.4311967194080353,-0.0259007792919874
1645,1629709034325,-0.0367588885128498,-0.5077846646308899,-0.4965721666812897,0.0174287725239992
1646,1629709034356,-0.0460045486688613,-0.6609992980957031,-0.5006968379020691,0.0530444048345088
1647,1629709034497,-0.0500243455171585,-0.7728273868560791,-0.483014851808548,0.0833844617009162
1648,1629709034591,-0.0442140027880668,-0.800743043422699,-0.472218245267868,0.1000277698040008
1649,1629709034685,-0.0344011671841144,-0.7460715174674988,-0.4674163460731506,0.1079360023140907
1650,1629709034778,-0.0344916246831417,-0.656663715839386,-0.4659003317356109,0.1329347789287567
1651,1629709034872,-0.0308146718889474,-0.5761154890060425,-0.4703835844993591,0.1588817834854126
1652,1629709034953,-0.0266261361539363,-0.5282091498374939,-0.4800490438938141,0.1852515488862991
1653,1629709035094,-0.0221329312771558,-0.5099366307258606,-0.4919325709342956,0.2084795087575912
1654,1629709035234,-0.0194702688604593,-0.5055608153343201,-0.4897211790084839,0.2213486135005951
1655,1629709035281,-0.0180311817675828,-0.4982005059719085,-0.4627228677272796,0.2238191813230514
1656,1629709035390,-0.0168496780097484,-0.472800612449646,-0.4089051485061645,0.2196502983570099
1657,1629709035468,-0.0145964510738849,-0.4342938363552093,-0.3393950462341308,0.2260315865278244
1658,1629709035578,-0.015697943046689,-0.3887611925601959,-0.2772850096225738,0.234025552868843
1659,1629709035718,-0.0180172678083181,-0.3519191741943359,-0.2135298997163772,0.2380370199680328
1660,1629709035859,-0.0153709547594189,-0.3221320509910583,-0.1208039075136184,0.2311495691537857
1661,1629709035906,-0.0030115114059299,-0.2839610278606415,0.0034314969088882,0.2206748276948928
1662,1629709035988,0.0066629396751523,-0.2357329130172729,0.1243041008710861,0.2049907147884369
1663,1629709036112,0.0043157287873327,-0.1938011050224304,0.21211738884449,0.1957105249166488
1664,1629709036206,-0.0083253532648086,-0.1737218052148819,0.2602400183677673,0.1942561715841293
1665,1629709036347,-0.0203486457467079,-0.1742534190416336,0.2803795933723449,0.1975046545267105
1666,1629709036456,-0.0358560942113399,-0.1846430450677871,0.28813236951828,0.1932230293750763
1667,1629709036534,-0.0688306540250778,-0.1938902884721756,0.2910715043544769,0.1689823716878891
1668,1629709036597,-0.0688306540250778,-0.1992120444774627,0.2947148382663727,0.1689823716878891
1669,1629709036690,-0.0688306540250778,-0.2045345902442932,0.2968317866325378,0.1689823716878891
1670,1629709036784,-0.0688306540250778,-0.2109505981206894,0.2948566079139709,0.1689823716878891
1671,1629709036925,-0.0688306540250778,-0.2232549786567688,0.2875394821166992,0.1689823716878891
1672,1629709037021,-0.0688306540250778,-0.2420823723077774,0.2765884399414062,0.1689823716878891
1673,1629709037130,-0.1535490155220031,-0.264069527387619,0.2692306637763977,0.161806046962738
1674,1629709037193,-0.1535490155220031,-0.2710820436477661,0.2670907378196716,0.161806046962738
1675,1629709037318,-0.1535490155220031,-0.2598873078823089,0.2623349130153656,0.161806046962738
1676,1629709037458,-0.1535490155220031,-0.2460967302322387,0.2405580282211303,0.161806046962738
1677,1629709037552,-0.1535490155220031,-0.2379615604877472,0.2132819294929504,0.161806046962738
1679,1629709037708,-0.1535490155220031,-0.2337162047624588,0.2073393613100052,0.161806046962738
1678,1629709037740,-0.1535490155220031,-0.2217667400836944,0.2463344186544418,0.161806046962738
1680,1629709037865,-0.1535490155220031,-0.2030114382505417,0.3111506998538971,0.161806046962738
1681,1629709037944,-0.1535490155220031,-0.183942973613739,0.3710764050483703,0.161806046962738
1682,1629709038055,-0.1535490155220031,-0.1678825169801712,0.4101249873638153,0.161806046962738
1683,1629709038133,-0.1535490155220031,-0.1501141190528869,0.4314108192920685,0.161806046962738
1684,1629709038227,-0.1535490155220031,-0.1251347362995147,0.4426096081733703,0.161806046962738
1685,1629709038352,-0.1535490155220031,-0.0966648161411285,0.4484301507472992,0.161806046962738
1686,1629709038414,-0.1535490155220031,-0.0700070038437843,0.4521168768405914,0.161806046962738
1687,1629709038524,-0.1535490155220031,-0.0486063137650489,0.456663966178894,0.161806046962738
1688,1629709038649,-0.1535490155220031,-0.0370280519127845,0.4577943086624145,0.161806046962738
1689,1629709038758,-0.1535490155220031,-0.0399577692151069,0.4521170258522033,0.161806046962738
1690,1629709038883,0.1697879135608673,-0.0578575134277343,0.4369512498378753,-0.4612854123115539
1691,1629709038961,0.1306865513324737,-0.0858236253261566,0.4153004288673401,-0.425980269908905
1692,1629709039027,0.0986678674817085,-0.1188682615756988,0.3847814798355102,-0.3866351246833801
1693,1629709039106,0.0696624666452407,-0.1497410237789154,0.3445669412612915,-0.3191744685173034
1694,1629709039230,0.053012415766716,-0.1786050945520401,0.2879826724529266,-0.2286211252212524
1695,1629709039371,0.0579639635980129,-0.2022919952869415,0.2163023650646209,-0.1377931088209152
1696,1629709039449,0.0722689777612686,-0.2181010544300079,0.1399936228990554,-0.0687791928648948
1697,1629709039559,0.0836549252271652,-0.2306720465421676,0.082881398499012,-0.0216676481068134
1698,1629709039668,0.0905015543103218,-0.2493404150009155,0.047402624040842,0.0162670202553272
1699,1629709039746,0.0984319821000099,-0.2813853025436401,0.0291190333664417,0.05697463452816
1700,1629709039871,0.1082903295755386,-0.3270909190177917,0.0207549165934324,0.1013237833976745
1701,1629709039996,0.1082903295755386,-0.378989040851593,0.014471678994596,0.1013237833976745
1702,1629709040142,0.0847177132964134,-0.4255861043930053,0.0018553079571574,0.1230890378355979
1703,1629709040204,0.0753865614533424,-0.4551941752433777,-0.0024447129108011,0.15166075527668
1704,1629709040267,0.0735474824905395,-0.4663341641426086,0.0217355620115995,0.1817139685153961
1705,1629709040376,0.0810262858867645,-0.4572979211807251,0.0817260891199112,0.2120786905288696
1706,1629709040485,0.0953301042318344,-0.4363414347171783,0.1556147187948227,0.2445193082094192
1707,1629709040563,0.1153697967529296,-0.4095813333988189,0.2124327421188354,0.2791953086853027
1708,1629709040673,0.1437613517045974,-0.3812656998634338,0.2408978193998336,0.3109048902988434
1709,1629709040798,0.1725060194730758,-0.3492224514484405,0.2439295649528503,0.3342201709747314
1710,1629709040912,0.1863675862550735,-0.3183220028877258,0.2315680086612701,0.3473542630672455
1711,1629709040990,0.1871055960655212,-0.2978476285934448,0.2151322811841964,0.3590487241744995
1712,1629709041053,0.1871055960655212,-0.2908561825752258,0.1983416229486465,0.3590487241744995
1713,1629709041225,0.1871055960655212,-0.2917382717132568,0.1858375370502472,0.3590487241744995
1714,1629709041303,0.1871055960655212,-0.2948404550552368,0.1813500523567199,0.3590487241744995
1715,1629709041412,0.1871055960655212,-0.2963033020496368,0.1849602311849594,0.3590487241744995
1716,1629709041459,-0.2113469839096069,-0.2987096011638641,0.1937538087368011,0.3590487241744995
1717,1629709041537,-0.21608367562294,-0.3039109110832214,0.2022780478000641,-0.2170165032148361
1718,1629709041647,-0.1950808763504028,-0.3129765093326568,0.2007581889629364,-0.2374249100685119
1719,1629709041818,-0.1604664027690887,-0.3204678893089294,0.1733000576496124,-0.2387585788965225
1720,1629709041914,-0.1273190230131149,-0.3249708414077759,0.1059545129537582,-0.231646716594696
1721,1629709041992,-0.1020578444004058,-0.3237397968769073,-0.0051612821407616,-0.2168059051036834
1722,1629709042102,-0.0880032777786254,-0.3208497166633606,-0.140849769115448,-0.1814047247171402
1723,1629709042195,-0.0866400524973869,-0.32505002617836,-0.2683879733085632,-0.1429497450590133
1724,1629709042305,-0.0884349346160888,-0.3384452164173126,-0.3463042378425598,-0.0990059450268745
1725,1629709042430,-0.0711997598409652,-0.3560024797916412,-0.3655221164226532,-0.0563770346343517
1726,1629709042508,-0.0089151198044419,-0.3666786849498749,-0.3478280305862427,0.0287000779062509
1727,1629709042649,0.0924162343144416,-0.3601216971874237,-0.3089025616645813,0.1523027122020721
1728,1629709042695,0.221948355436325,-0.3307417333126068,-0.2569017708301544,0.1523027122020721
1729,1629709042805,0.354861706495285,-0.2888520956039428,-0.2038995921611786,0.1660827398300171
1730,1629709042883,0.4621965289115906,-0.2410599142313003,-0.1501468569040298,0.1865041702985763
1731,1629709043042,0.5384308695793152,-0.1830349713563919,-0.1007783561944961,0.3894768357276916
1732,1629709043152,0.5834941267967224,-0.1265874058008194,-0.0618083290755748,0.5024583339691162
1733,1629709043214,0.6025643944740295,-0.0823057293891906,-0.0390917472541332,0.5597701072692871
1734,1629709043292,0.6060968637466431,-0.0507676973938941,-0.028035407885909,0.5809041261672974
1735,1629709043417,0.6042591333389282,-0.0342094488441944,-0.0229889396578073,0.5892742872238159
1736,1629709043511,0.5998663902282715,-0.0376295298337936,-0.0157182142138481,0.5947034358978271
1737,1629709043652,0.5965813994407654,-0.0542613863945007,-0.0087920827791094,0.5948864817619324
1738,1629709043766,0.598171591758728,-0.0712733119726181,-0.0015444232849404,0.5921755433082581
1739,1629709043844,0.6048043370246887,-0.0798224732279777,0.0038520905654877,0.5855047106742859
1740,1629709043953,0.6115761399269104,-0.0822259336709976,0.0011188989738002,0.5754550099372864
1741,1629709044003,0.6086297035217285,-0.0801051333546638,-0.0162462815642356,0.5485502481460571
1742,1629709044128,0.5860920548439026,-0.0766029953956604,-0.0427584759891033,0.490716814994812
1743,1629709044253,0.536541759967804,-0.0710661485791206,-0.0784338191151619,0.4636780619621277
1744,1629709044362,0.4602158367633819,-0.0516486391425132,-0.1250771135091781,0.4388259351253509
1745,1629709044440,0.3710253536701202,-0.0205010175704956,-0.1864453256130218,0.4191366732120514
1746,1629709044534,0.2915879487991333,0.0051274909637868,-0.2588221728801727,0.2903392314910888
1747,1629709044628,0.2458714693784713,0.0185337197035551,-0.3412335813045501,0.1657760888338089
1748,1629709044722,0.2375783920288086,0.0206256825476884,-0.4047730267047882,0.0850826427340507
1749,1629709044848,0.2452071607112884,0.0133150117471814,-0.4170076251029968,0.0650380551815033
1750,1629709044957,0.2496942430734634,0.0030772171448916,-0.379382848739624,0.0593244843184948
1751,1629709045051,0.2570090889930725,0.0007730997749604,-0.3392378985881805,0.0526951216161251
1752,1629709045145,0.2681897282600403,0.0068338001146912,-0.3064713180065155,0.0660796985030174
1753,1629709045239,0.2822575569152832,0.0131892776116728,-0.2849363386631012,0.1093966886401176
1754,1629709045332,0.2966180741786957,0.0116330739110708,-0.2678661048412323,0.1738956123590469
1755,1629709045457,0.3032444417476654,0.0005845655687153,-0.247641459107399,0.2376386374235153
1756,1629709045567,0.2983324527740478,-0.0185548178851604,-0.2224757075309753,0.2810576856136322
1757,1629709045660,0.2878329753875732,-0.0410765297710895,-0.2016166895627975,0.29776531457901
1758,1629709045723,0.2788911461830139,-0.0690158233046531,-0.1883066147565841,0.3003873527050018
1759,1629709045866,0.2691684067249298,-0.1151712983846664,-0.181873008608818,0.2997558414936065
1760,1629709045990,0.2548966407775879,-0.1880140751600265,-0.1790122538805008,0.3042832612991333
1761,1629709046068,0.2439261525869369,-0.2849409282207489,-0.1780967563390731,0.3255038559436798
1762,1629709046193,0.2492149025201797,-0.3925181925296783,-0.1735740005970001,0.3658534288406372
1763,1629709046272,0.2747082114219665,-0.4856871366500854,-0.1720473170280456,0.4136476814746856
1764,1629709046365,0.311305820941925,-0.5419847369194031,-0.1853057742118835,0.4567230641841888
1765,1629709046475,0.3247297406196594,-0.5627010464668274,-0.2176290303468704,0.4732736945152282
1766,1629709046521,0.3420673608779907,-0.5625634789466858,-0.2588551640510559,0.49409019947052
1767,1629709046725,0.3564866781234741,-0.5635159015655518,-0.2940551042556762,0.5111373662948608
1768,1629709046771,0.3615736067295074,-0.5675475597381592,-0.3088484108448028,0.5164362788200378
1769,1629709046883,0.3547105193138122,-0.5743062496185303,-0.30631223320961,0.5077212452888489
1770,1629709046993,0.3463707268238067,-0.581819474697113,-0.2986651360988617,0.4917711615562439
1771,1629709047055,0.3534677028656006,-0.5878481268882751,-0.291592389345169,0.4871990978717804
1772,1629709047180,0.3854674398899078,-0.5844561457633972,-0.2722368538379669,0.5116556286811829
1773,1629709047290,0.4363598823547363,-0.5724477767944336,-0.2338355034589767,0.5621200203895569
1774,1629709047415,0.4991621971130371,-0.5464882850646973,-0.191145971417427,0.6292259097099304
1775,1629709047461,0.5674295425415039,-0.509894609451294,-0.1554428488016128,0.7002053260803223
1777,1629709047680,0.5674295425415039,-0.4709101915359497,-0.138993963599205,0.7002053260803223
1776,1629709047696,0.5674295425415039,-0.425777792930603,-0.1307846754789352,0.7002053260803223
1778,1629709047789,0.5674295425415039,-0.3803793787956238,-0.1241199523210525,0.7002053260803223
1779,1629709047888,0.5674295425415039,-0.3282157480716705,-0.0881486162543296,0.7002053260803223
1780,1629709047995,0.3007184565067291,-0.2691742777824402,-0.0022715434897691,0.2173234522342682
1781,1629709048104,0.5307835340499878,-0.2232117801904678,0.1130340620875358,0.5163165926933289
1782,1629709048198,0.82546067237854,-0.1897279471158981,0.2241420596837997,0.8364691734313965
1783,1629709048326,1.079344630241394,-0.1549137979745865,0.3067629039287567,0.8364691734313965
1784,1629709048436,1.262713074684143,-0.1094910353422164,0.3566623628139496,0.8364691734313965
1785,1629709048498,1.262713074684143,-0.0639144852757453,0.3846320509910583,0.8364691734313965
1786,1629709048623,1.262713074684143,-0.0303437821567058,0.4056664705276489,0.8364691734313965
1787,1629709048670,1.262713074684143,-0.0158766433596611,0.4198111891746521,0.8364691734313965
1788,1629709048779,1.262713074684143,-0.0155178382992744,0.4246978461742401,0.8364691734313965
1789,1629709048889,1.262713074684143,-0.023977231234312,0.4253910481929779,0.8364691734313965
1790,1629709049001,1.262713074684143,-0.0364360772073268,0.4242782890796661,0.8364691734313965
1791,1629709049111,1.262713074684143,-0.0515768080949783,0.4248594641685486,0.8364691734313965
1792,1629709049204,1.266058325767517,-0.0693749338388443,0.4260498583316803,0.861488938331604
1793,1629709049282,1.2772220373153689,-0.0858800932765007,0.4259377419948578,0.9060856699943542
1794,1629709049407,1.289597988128662,-0.1080958098173141,0.416952908039093,0.9482160210609436
1795,1629709049470,1.2962507009506226,-0.1432076096534729,0.3897689282894134,0.9696805477142334
1796,1629709049579,1.2813857793807983,-0.1836022287607193,0.3392103314399719,0.9221887588500975
1797,1629709049704,1.2166755199432373,-0.2212021648883819,0.2638384103775024,0.6633740663528442
1798,1629709049848,1.0473521947860718,-0.2557686269283294,0.1739313155412674,0.6180741190910339
1799,1629709049910,0.543371319770813,-0.2891597747802734,0.0876938924193382,0.5793666839599609
1800,1629709050003,0.512328565120697,-0.3093466162681579,0.0136967748403549,0.5513823628425598
1801,1629709050097,0.5034744143486023,-0.3105600476264953,-0.0610610507428646,0.5406058430671692
1802,1629709050222,0.516197681427002,-0.2964562475681305,-0.1336100697517395,0.5424755811691284
1803,1629709050347,0.5363255739212036,-0.2821534276008606,-0.1937488913536071,0.5433963537216187
1804,1629709050456,0.5483038425445557,-0.2758201658725738,-0.2453730553388595,0.5347607731819153
1805,1629709050535,0.5434076189994812,-0.2769444584846496,-0.2815519571304321,0.5151883363723755
1806,1629709050644,0.5264192223548889,-0.278099775314331,-0.2963565587997436,0.4889463782310486
1807,1629709050691,0.5125267505645752,-0.2812554836273193,-0.3017274737358093,0.4571600258350372
1808,1629709050818,0.4775376319885254,-0.2903176248073578,-0.3038660287857055,0.3990830481052398
1809,1629709050943,0.4306268393993377,-0.3002167344093323,-0.3130778074264526,0.3222799897193908
1810,1629709051084,0.3903053998947143,-0.3044469356536865,-0.3331390917301178,0.2379792034626007
1811,1629709051115,0.378566175699234,-0.3020942211151123,-0.3630573451519012,0.173567920923233
1812,1629709051271,0.3912871479988098,-0.302199125289917,-0.3958188593387604,0.1404973417520523
1813,1629709051334,0.4167374968528747,-0.3157682716846466,-0.419312059879303,0.1323525160551071
1814,1629709051427,0.4525722563266754,-0.3507937490940094,-0.4243817925453186,0.1415551304817199
1815,1629709051568,0.4933291971683502,-0.4024456143379211,-0.4145695269107818,0.1602082401514053
1816,1629709051646,0.5206524729728699,-0.4574030637741089,-0.3951036036014557,0.1605970561504364
1817,1629709051755,0.5208808183670044,-0.4972673952579498,-0.3630675673484802,0.134654551744461
1818,1629709051896,0.4988785088062286,-0.5164572596549988,-0.319925457239151,0.0977794080972671
1819,1629709051943,0.4710105061531067,-0.5219342112541199,-0.2744738459587097,0.0701510682702064
1820,1629709051990,0.4533949494361877,-0.5209487676620483,-0.2441848218441009,0.0632327646017074
1821,1629709052162,0.4481122493743896,-0.5093653798103333,-0.2355454266071319,0.0790533944964408
1822,1629709052271,0.447791039943695,-0.494032621383667,-0.2342698723077774,0.1072176173329353
1823,1629709052349,0.4480970203876495,-0.4721796810626983,-0.2218878716230392,0.1408431679010391
1824,1629709052412,0.4460219442844391,-0.4409331083297729,-0.1923753470182418,0.1740276515483856
1825,1629709052600,0.436743289232254,-0.3946427404880523,-0.1541291177272796,0.2023042291402816
1826,1629709052631,0.4161188900470733,-0.3390378952026367,-0.1137831881642341,0.2184035629034042
1827,1629709052787,0.388452798128128,-0.2862924039363861,-0.0723665431141853,0.2324868142604828
1828,1629709052899,0.3546411097049713,-0.2472442388534546,-0.0300471279770135,0.2507149577140808
1829,1629709052961,0.3127162456512451,-0.2213644385337829,0.0041204476729035,0.2681692838668823
1830,1629709053055,0.2658097147941589,-0.2090055346488952,0.0244483351707458,0.2771578729152679
1831,1629709053149,0.2214380800724029,-0.2055252343416214,0.0309604443609714,0.2826597094535827
1832,1629709053227,0.1950858682394027,-0.2062448263168335,0.026158794760704,0.2862302958965301
1833,1629709053368,0.1833738684654235,-0.2053493559360504,0.0092840874567627,0.2872614562511444
1834,1629709053477,0.1772753745317459,-0.1976101845502853,-0.0177506115287542,0.2986968159675598
1835,1629709053586,0.1747592687606811,-0.1807170808315277,-0.0445561930537223,0.3251270949840545
1836,1629709053648,0.1735082268714904,-0.1610566228628158,-0.0568232610821723,0.3505654335021972
1837,1629709053789,0.1623269170522689,-0.1429213881492614,-0.0472104661166667,0.3595810830593109
1838,1629709053820,0.1425816267728805,-0.1330986320972442,-0.0253765191882848,0.3537728488445282
1839,1629709054011,0.1193813532590866,-0.1397921293973922,-0.0093702785670757,0.3396693468093872
1840,1629709054073,0.0997377336025238,-0.1652569472789764,-0.0117288623005151,0.3268738090991974
1841,1629709054182,0.0910336598753929,-0.1996082365512848,-0.0305737238377332,0.3252202272415161
1842,1629709054307,0.0924583151936531,-0.225002259016037,-0.056160032749176,0.3276324868202209
1843,1629709054417,0.0934778675436973,-0.2303139865398407,-0.0917267352342605,0.323222815990448
1844,1629709054479,0.0794599801301956,-0.2160037755966186,-0.126974880695343,0.3049308359622955
1845,1629709054651,0.0347150154411792,-0.1976942270994186,-0.1439041495323181,0.274150401353836
1846,1629709054776,-0.0395465865731239,-0.1863920390605926,-0.1330167204141616,0.2369254678487777
1847,1629709054823,-0.1199005469679832,-0.1848205775022506,-0.0947372987866401,0.2034283280372619
1848,1629709054875,-0.163848340511322,-0.1897491067647934,-0.0426498353481292,0.1816522628068924
1849,1629709054982,-0.1392842531204223,-0.201243445277214,0.0023647660855203,0.1586121469736099
1850,1629709055122,-0.0594579167664051,-0.2231107652187347,0.0279833190143108,0.1269481927156448
1851,1629709055232,0.0331709720194339,-0.253636747598648,0.0309056658297777,0.1005394980311393
1852,1629709055278,0.1153512448072433,-0.2843673825263977,0.0148007543757557,0.1019804030656814
1853,1629709055435,0.175825834274292,-0.3070326447486877,-0.0122753018513321,0.1273448914289474
1854,1629709055513,0.229197084903717,-0.3176045715808868,-0.0387918800115585,0.1627606451511383
1855,1629709055607,0.2852427661418915,-0.3217866420745849,-0.0506564900279045,0.191879466176033
1856,1629709055685,0.3438554406166076,-0.3338469564914703,-0.0518656596541404,0.2051743268966674
1857,1629709055810,0.3957934975624084,-0.3642577528953552,-0.0540096499025821,0.2016369104385376
1858,1629709055939,0.4340136647224426,-0.4150916337966919,-0.0596778020262718,0.1888416409492492
1859,1629709056033,0.4578084051609039,-0.4700258076190948,-0.0650562345981597,0.186708003282547
1860,1629709056095,0.4718864262104034,-0.5007085204124451,-0.0715849697589874,0.2016999125480651
1861,1629709056220,0.480166494846344,-0.4987454712390899,-0.0856623724102974,0.2219516336917877
1862,1629709056283,0.4846020638942718,-0.4784343838691711,-0.1219059601426124,0.2359091490507125
1863,1629709056455,0.4834341704845428,-0.4528692066669464,-0.1794944852590561,0.2394511550664901
1864,1629709056517,0.4742039442062378,-0.4257574081420898,-0.2444543987512588,0.2423998862504959
1865,1629709056611,0.4575238525867462,-0.3975353837013244,-0.2952578663825989,0.2547089159488678
1866,1629709056705,0.4420285522937774,-0.3775510489940643,-0.3184868395328522,0.27998948097229
1867,1629709056814,0.4384393393993377,-0.3630234897136688,-0.3233406841754913,0.3219795525074005
1868,1629709056964,0.4470779299736023,-0.3482263684272766,-0.3151740729808807,0.3750472068786621
1869,1629709057043,0.4580091536045074,-0.3272177875041961,-0.295105367898941,0.432839423418045
1870,1629709057168,0.4618545472621918,-0.3037711679935455,-0.2732447683811188,0.4858408868312835
1871,1629709057261,0.4525679647922516,-0.280735433101654,-0.25792196393013,0.5288213491439819
1872,1629709057371,0.4303369522094726,-0.2687242329120636,-0.2578615546226501,0.5615871548652649
1873,1629709057402,0.4053770005702972,-0.2644243836402893,-0.2631040215492248,0.5936303734779358
1874,1629709057543,0.3836205303668976,-0.270869493484497,-0.2639084160327911,0.6212785243988037
1875,1629709057636,0.3710169196128845,-0.2804607152938843,-0.2618849277496338,0.6471002101898193
1876,1629709057761,0.3689663708209991,-0.2785601615905761,-0.2491853833198547,0.6753477454185486
1877,1629709057855,0.3730839490890503,-0.2570745646953583,-0.2256377935409546,0.7067300081253052
1878,1629709057949,0.3788764178752899,-0.2204111069440841,-0.205205425620079,0.7363469004631042
1879,1629709058029,0.3852053880691528,-0.1771961599588394,-0.1880852580070495,0.7598968148231506
1880,1629709058139,0.3990829586982727,-0.1364701688289642,-0.1699365675449371,0.774298906326294
1881,1629709058264,0.4261085987091064,-0.1027467399835586,-0.1464320421218872,0.7809812426567078
1882,1629709058373,0.4619984626770019,-0.0818035751581192,-0.1144828051328659,0.7800354361534119
1883,1629709058436,0.4963054656982422,-0.0716963112354278,-0.0886792615056037,0.7710394263267517
1884,1629709058514,0.5131276249885559,-0.0628194585442543,-0.0812038779258728,0.7538010478019714
1885,1629709058639,0.5095986723899841,-0.0472605861723423,-0.0900943130254745,0.7272647619247437
1886,1629709058717,0.4932953119277954,-0.0267566312104463,-0.1012677401304245,0.6998752355575562
1887,1629709058877,0.4776122570037842,-0.004809464327991,-0.0891580805182457,0.6795318722724915
1888,1629709058955,0.4686937034130096,0.0128415739163756,-0.0493040010333061,0.6626864075660706
1889,1629709059049,0.4686949253082275,0.0244326423853635,-0.0016581596573814,0.6511395573616028
1890,1629709059189,0.4741714894771576,0.0282299611717462,0.0395888425409793,0.6435017585754395
1891,1629709059267,0.48215451836586,0.0193889625370502,0.0585735216736793,0.6357513666152954
1892,1629709059424,0.4916362464427948,0.0018381433328613,0.0553496666252613,0.6239679455757141
1893,1629709059533,0.5013984441757202,-0.021321777254343,0.0443216748535633,0.6096376180648804
1894,1629709059580,0.5079389214515686,-0.0517233610153198,0.0363490656018257,0.5900233387947083
1895,1629709059658,0.5044133067131042,-0.0867153480648994,0.0310102403163909,0.5651072263717651
1896,1629709059752,0.4821463525295257,-0.1216170787811279,0.0194946248084306,0.5349435806274414
1897,1629709059848,0.4406367838382721,-0.1532423198223114,0.0006438305135816,0.4982094466686249
1898,1629709059989,0.395436942577362,-0.1804901212453842,-0.0143732670694589,0.4672346413135528
1899,1629709060098,0.3770211637020111,-0.2130871415138244,-0.017017850652337,0.4566997289657593
1900,1629709060192,0.3975420892238617,-0.2593942880630493,-0.0086414264515042,0.4812236726284027
1901,1629709060285,0.4394987821578979,-0.3185607492923736,0.0006383627769537,0.5238478183746338
1902,1629709060410,0.4758350551128387,-0.3776021897792816,-0.0085765644907951,0.5574961304664612
1903,1629709060442,0.4951613545417785,-0.4233715832233429,-0.0410499051213264,0.5681929588317871
1904,1629709060582,0.5009128451347351,-0.4618884325027466,-0.0929923132061958,0.5552781224250793
1905,1629709060692,0.5004239082336426,-0.4955771565437317,-0.1502734869718551,0.5239094495773315
1906,1629709060770,0.4949789941310882,-0.507645308971405,-0.1789496093988418,0.4832617342472076
1907,1629709060991,0.487087219953537,-0.5039157867431641,-0.1602502167224884,0.4431365728378296
1908,1629709061022,0.4777683317661285,-0.4983222484588623,-0.1194318085908889,0.4115578830242157
1909,1629709061085,0.465332567691803,-0.4959161877632141,-0.089184433221817,0.3939052224159241
1910,1629709061163,0.4475826919078827,-0.4996249675750732,-0.0795627310872078,0.3867807388305664
1911,1629709061272,0.4263855218887329,-0.5034070611000061,-0.0828109979629516,0.3867931067943573
1912,1629709061366,0.4029213786125183,-0.4920035302639007,-0.0946229994297027,0.3977076411247253
1913,1629709061506,0.3721635341644287,-0.4721759259700775,-0.1128923147916793,0.4118148684501648
1914,1629709061647,0.3327795565128326,-0.4581449329853058,-0.128640204668045,0.4170643091201782
1915,1629709061678,0.2825318276882171,-0.4477255046367645,-0.137138545513153,0.4005143642425537
1916,1629709061772,0.2260746508836746,-0.4365004301071167,-0.1361432522535324,0.3584213554859161
1917,1629709061916,0.1863054484128952,-0.4224877655506134,-0.1241887733340263,0.3082729578018188
1918,1629709061994,0.1739948540925979,-0.4176539480686188,-0.1092106774449348,0.272830605506897
1919,1629709062103,0.1791983097791671,-0.4171779155731201,-0.0933391600847244,0.26028972864151
1920,1629709062181,0.1838041841983795,-0.4210360050201416,-0.0822549536824226,0.261448472738266
1921,1629709062306,0.1886995434761047,-0.4329901933670044,-0.080752432346344,0.2714308798313141
1922,1629709062400,0.1981729567050933,-0.4539127349853515,-0.0940902829170227,0.2968538105487823
1923,1629709062509,0.2224371284246444,-0.4781025648117065,-0.1148850992321968,0.3412080407142639
1924,1629709062634,0.2581675350666046,-0.499831348657608,-0.1272649019956588,0.3907226920127868
1925,1629709062728,0.2901831567287445,-0.5187012553215027,-0.119058720767498,0.4296806156635284
1926,1629709062821,0.3094748258590698,-0.5289687514305115,-0.0910846516489982,0.4501045644283294
1927,1629709062915,0.3219238221645355,-0.5280969142913818,-0.0577761977910995,0.4511442184448242
1928,1629709063012,0.3323333859443664,-0.5254815816879272,-0.0326408892869949,0.4362230002880096
1929,1629709063137,0.3386081755161285,-0.5190916061401367,-0.0253832172602415,0.4131669700145721
1930,1629709063230,0.3401774168014526,-0.514876127243042,-0.0320069305598735,0.3860928416252136
1931,1629709063355,0.3383996188640594,-0.5188292860984802,-0.043922197073698,0.3685878813266754
1932,1629709063418,0.3440899550914764,-0.5269281268119812,-0.0531279519200325,0.3708722293376922
1933,1629709063512,0.3729815483093261,-0.5203219652175903,-0.0588191710412502,0.3993969857692718
1934,1629709063637,0.4353130161762237,-0.491584300994873,-0.0628962963819503,0.4553574323654175
1935,1629709063730,0.5193783640861511,-0.4483201205730438,-0.0647700428962707,0.5299800634384155
1936,1629709063856,0.6018669605255127,-0.4059517085552215,-0.0709182620048523,0.600762128829956
1937,1629709063933,0.6664706468582153,-0.3704309165477752,-0.0840240865945816,0.649059534072876
1938,1629709064044,0.7138233780860901,-0.3416512310504913,-0.1051299199461937,0.6736687421798706
1939,1629709064139,0.7497158050537109,-0.3153002560138702,-0.1313741207122802,0.6857269406318665
1940,1629709064201,0.7784163355827332,-0.2891622185707092,-0.1618101000785827,0.6985626816749573
1941,1629709064341,0.8003597855567932,-0.2627842426300049,-0.2003082484006881,0.7168865203857422
1942,1629709064451,0.8189772963523865,-0.2431031614542007,-0.2449791878461837,0.7417826056480408
1943,1629709064560,0.8337293863296509,-0.226323589682579,-0.2872006893157959,0.7663513422012329
1944,1629709064654,0.8460332155227661,-0.2170427292585373,-0.3104609251022339,0.7922780513763428
1945,1629709064716,0.859289288520813,-0.2164046615362167,-0.3160593211650848,0.8237407207489014
1946,1629709064857,0.869290828704834,-0.2212653756141662,-0.3179806172847748,0.8497012257575989
1947,1629709064950,0.8704970479011536,-0.2312898635864257,-0.334008127450943,0.8636642098426819
1948,1629709065064,0.8615995049476624,-0.242666870355606,-0.3592706620693207,0.8661843538284302
1949,1629709065142,0.8373534083366394,-0.2593542337417602,-0.3911056518554687,0.853891909122467
1950,1629709065252,0.7988262176513672,-0.2815028131008148,-0.4347149133682251,0.8274598121643066
1951,1629709065330,0.7569910883903503,-0.3062987327575683,-0.4837810695171356,0.7957509160041809
1952,1629709065408,0.7248594164848328,-0.3301715850830078,-0.5210044980049133,0.7692305445671082
1953,1629709065564,0.6995611786842346,-0.3492988646030426,-0.5396451950073242,0.7483022212982178
1954,1629709065689,0.6706840991973877,-0.3639147877693176,-0.5502015352249146,0.7261984944343567
1955,1629709065752,0.6353244781494141,-0.371053546667099,-0.5514662265777588,0.6987353563308716
1956,1629709065826,0.5994477868080139,-0.3832283914089203,-0.5393033623695374,0.6666309237480164
1957,1629709065990,0.5608969330787659,-0.4012566804885864,-0.5200003981590271,0.6288229823112488
1958,1629709066068,0.5235208868980408,-0.4203690588474273,-0.4953279197216034,0.5892110466957092
1959,1629709066209,0.4934056997299194,-0.4261212944984436,-0.4657153785228729,0.5447853207588196
1960,1629709066271,0.4790970385074615,-0.4202669858932495,-0.4304582476615906,0.5049119591712952
1961,1629709066396,0.5033547282218933,-0.4116765856742859,-0.387380450963974,0.5091080665588379
1962,1629709066505,0.5589432120323181,-0.4061644375324249,-0.3383955061435699,0.5715550780296326
1963,1629709066568,0.6138228178024292,-0.4015980064868927,-0.2943078875541687,0.6485077738761902
1964,1629709066615,0.6532903909683228,-0.3876468539237976,-0.2582759261131286,0.7105458974838257
1965,1629709066771,0.672538697719574,-0.355409562587738,-0.2221599519252777,0.7439932227134705
1966,1629709066883,0.6732742786407471,-0.3069447875022888,-0.1730330735445022,0.7539626359939575
1967,1629709066992,0.6606437563896179,-0.2556423842906952,-0.1118289679288864,0.7514785528182983
1968,1629709067101,0.6453882455825806,-0.2165282964706421,-0.0489220544695854,0.7485098838806152
1969,1629709067195,0.6410861015319824,-0.1929475963115692,-0.0010826762299984,0.7569558620452881
1970,1629709067273,0.6557185053825378,-0.1813537776470184,0.0238554887473583,0.7831516265869141
1971,1629709067383,0.6917169690132141,-0.1707784384489059,0.0318388193845748,0.823157012462616
1972,1629709067523,0.7496716976165771,-0.1550853848457336,0.0358773656189441,0.8706347346305847
1973,1629709067602,0.7756173610687256,-0.140720933675766,0.0400855354964733,0.9314979910850524
1974,1629709067664,0.7992655634880066,-0.124406911432743,0.0459869094192981,1.016402244567871
1975,1629709067773,0.8133186101913452,-0.1064749807119369,0.0475662723183631,1.1145856380462646
1976,1629709067867,0.8093652129173279,-0.0868227183818817,0.0434856601059436,1.202430009841919
1977,1629709068011,0.7861623167991638,-0.0720781981945037,0.0381737314164638,1.2073880434036257
1978,1629709068104,0.7554128766059875,-0.0679566487669944,0.0370630584657192,1.2088804244995115
1979,1629709068213,0.7370181679725647,-0.0744939893484115,0.044847272336483,1.215008020401001
1980,1629709068307,0.7742159962654114,-0.0920517593622207,0.0563198961317539,1.2103298902511597
1981,1629709068416,0.7844899296760559,-0.1187245473265647,0.0559375844895839,1.2080508470535278
1982,1629709068463,0.7841619253158569,-0.1525713950395584,0.0351664796471595,1.2113630771636963
1983,1629709068651,0.7728912234306335,-0.1883590817451477,-0.0048359110951423,1.215436339378357
1984,1629709068729,0.760799765586853,-0.2197226285934448,-0.048882819712162,1.215254783630371
1985,1629709068838,0.7431151270866394,-0.2443307787179947,-0.082960158586502,1.2075738906860352
1986,1629709068869,0.7009900808334351,-0.2647778689861297,-0.1044527515769004,1.1927918195724487
1987,1629709068979,0.5994344353675842,-0.2893524467945099,-0.122558869421482,1.172240138053894
1988,1629709069104,0.5995985865592957,-0.3194943964481354,-0.1363838613033294,1.1410012245178225
1989,1629709069244,0.6210423111915588,-0.365362137556076,-0.146555095911026,1.0810863971710205
1990,1629709069369,0.6465053558349609,-0.4197578132152557,-0.1468585133552551,0.96311354637146
1991,1629709069416,0.6601970791816711,-0.4723708033561706,-0.1478810161352157,0.740169882774353
1992,1629709069510,0.6555602550506592,-0.5038855671882629,-0.1606677323579788,0.7357627153396606
1993,1629709069603,0.6395329833030701,-0.5092958807945251,-0.1842912137508392,0.7193333506584167
1994,1629709069713,0.6234028339385986,-0.5082011222839355,-0.2095256000757217,0.7037144899368286
1995,1629709069838,0.5826804637908936,-0.51506108045578,-0.2105022966861724,0.689014196395874
1996,1629709069932,0.5915997624397278,-0.5262119770050049,-0.166525661945343,0.7052042484283447
1997,1629709070029,0.6332886815071106,-0.5290774703025818,-0.0995684787631034,0.7294214367866516
1998,1629709070123,0.6895294189453125,-0.5155028700828552,-0.0442901328206062,0.752829372882843
1999,1629709070217,0.7360928058624268,-0.4933541417121887,-0.0116355083882808,0.7712550163269043
2000,1629709070326,0.7650892734527588,-0.4801129996776581,0.0064256591722369,0.7830235362052917
2001,1629709070435,0.7797834873199463,-0.4826692044734955,0.0175472740083932,0.7883990406990051
2002,1629709070544,0.7860328555107117,-0.4884353876113891,0.0238256733864545,0.7880375981330872
2003,1629709070654,0.7814717888832092,-0.4683641195297241,0.0253678318113088,0.779168963432312
2004,1629709070701,0.7659494876861572,-0.4029496908187866,0.0204483121633529,0.7597319483757019
2005,1629709070876,0.7466835379600525,-0.3096104264259338,0.0100588919594883,0.7408919334411621
2006,1629709070954,0.7420291900634766,-0.2192103117704391,0.0037055381108075,0.7432191967964172
2007,1629709071079,0.7666544318199158,-0.1467970460653305,0.0057084131985902,0.7746140956878662
2008,1629709071204,0.8097265958786011,-0.0972641706466674,0.0127626881003379,0.8162212371826172
2009,1629709071235,0.8482222557067871,-0.067257821559906,0.0137418005615472,0.8457599878311157
2010,1629709071360,0.8660634756088257,-0.0493598729372024,-0.0027250812854617,0.8530168533325195
2011,1629709071437,0.8594403862953186,-0.0424922071397304,-0.0405645817518234,0.8396115899085999
2012,1629709071503,0.8325247168540955,-0.0449168980121612,-0.0849210247397422,0.8147702813148499
2013,1629709071631,0.7988686561584473,-0.0537566095590591,-0.1014099642634391,0.7971886992454529
2014,1629709071728,0.7697060704231262,-0.0648231580853462,-0.0777802392840385,0.7956541180610657
2015,1629709071838,0.7587713599205017,-0.0753841921687126,-0.037504643201828,0.8104084730148315
2016,1629709071996,0.760538637638092,-0.0820168331265449,-0.0078500881791114,0.8270605802536011
2017,1629709072041,0.7756310105323792,-0.0864162296056747,0.0069954679347574,0.8425062894821167
2018,1629709072167,0.8126732707023621,-0.0892879664897918,0.0109798107296228,0.8640837669372559
2019,1629709072254,0.8712576031684875,-0.0941457599401474,0.0134517457336187,0.8970877528190613
2020,1629709072401,0.9373942613601683,-0.1059099733829498,0.0217632502317428,0.9317999482154846
2021,1629709072468,0.9879815578460692,-0.1294509917497635,0.0351116061210632,0.9530068635940552
2022,1629709072555,1.009063482284546,-0.1664668470621109,0.0497805699706077,0.9516552090644836
2023,1629709072622,1.0020064115524292,-0.2109227478504181,0.0597701296210289,0.9315813183784484
2024,1629709072714,0.981676459312439,-0.249332308769226,0.0636172369122505,0.9057213068008424
2025,1629709072901,0.9688483476638794,-0.2757715284824371,0.0605338625609874,0.8865671753883362
2026,1629709072997,0.9669846296310424,-0.2883487045764923,0.0504104867577552,0.873507022857666
2027,1629709073041,0.968162715435028,-0.2861284017562866,0.0329328700900077,0.8595483303070068
2028,1629709073173,0.9629115462303162,-0.2738605439662933,0.0032527351286262,0.8352712392807007
2029,1629709073281,0.9504393339157104,-0.2617486715316772,-0.0387685000896453,0.8003976345062256
2030,1629709073340,0.9309221506118774,-0.2537950277328491,-0.086569994688034,0.7579535245895386
2031,1629709073456,0.9151532053947448,-0.2499356567859649,-0.1228520050644874,0.7273905873298645
2032,1629709073587,0.9055989980697632,-0.2449524402618408,-0.1364116072654724,0.7186161279678345
2033,1629709073720,0.8922677636146545,-0.2465488761663437,-0.1285849511623382,0.7202103734016418
2034,1629709073766,0.8588439226150513,-0.2667419016361236,-0.113576740026474,0.7068761587142944
2035,1629709073856,0.7944729328155518,-0.3084805309772491,-0.1104113012552261,0.6670088171958923
2036,1629709073974,0.704677402973175,-0.3552515804767608,-0.1208345368504524,0.6041820645332336
2037,1629709074078,0.6133841276168823,-0.3839344084262848,-0.1384470611810684,0.540253758430481
2038,1629709074172,0.5513632297515869,-0.3861874043941498,-0.1546070724725723,0.5010478496551514
2039,1629709074276,0.5217234492301941,-0.3748526573181152,-0.1692689955234527,0.4896000623703003
2040,1629709074383,0.4961090683937073,-0.3596143424510956,-0.1859055906534195,0.4885667264461517
2041,1629709074520,0.4659769237041473,-0.343408465385437,-0.2035688608884811,0.4927563369274139
2042,1629709074562,0.437265545129776,-0.3320536911487579,-0.2208681553602218,0.5012127757072449
2043,1629709074702,0.4175996780395508,-0.3247471153736114,-0.2339959889650344,0.5171180963516235
2044,1629709074848,0.4097402095794678,-0.3177492618560791,-0.2426627278327942,0.5403054356575012
2045,1629709074889,0.4104509353637695,-0.3091307580471039,-0.2478494048118591,0.5670763254165649
2046,1629709074981,0.4069977402687073,-0.3044152855873108,-0.2530446052551269,0.5827401280403137
2047,1629709075089,0.3862243592739105,-0.3083986043930053,-0.2632573544979095,0.5775713920593262
2048,1629709075147,0.3463602066040039,-0.3193977773189544,-0.2838049829006195,0.552144467830658
2049,1629709075389,0.2947960197925567,-0.3327114284038543,-0.3166815638542175,0.5135747194290161
2050,1629709075429,0.2482549101114273,-0.3479582369327545,-0.3506100475788116,0.4749186933040619
2051,1629709075474,0.2189099490642547,-0.3694588243961334,-0.3814548552036285,0.4492613971233368
2052,1629709075636,0.2093914598226547,-0.3993871510028839,-0.4016880989074707,0.4383313953876495
2053,1629709075690,0.2126814424991607,-0.4358277916908264,-0.4083870649337768,0.4343652725219726
2054,1629709075797,0.2356476634740829,-0.4712955951690674,-0.3887369930744171,0.4411401152610779
2055,1629709075891,0.3043596148490906,-0.4944601953029632,-0.3400841355323791,0.4653428196907043
2056,1629709076015,0.4136052131652832,-0.4909365475177765,-0.2779687941074371,0.5120959281921387
2057,1629709076095,0.5500858426094055,-0.4372958242893219,-0.212354689836502,0.5911058783531189
2058,1629709076213,0.6787766218185425,-0.3330014944076538,-0.1425324380397796,0.6806692481040955
2059,1629709076282,0.7831400036811829,-0.2050149142742157,-0.070910520851612,0.7607197761535645
2060,1629709076379,0.8517886996269226,-0.0948436483740806,-0.0068824188783764,0.815981388092041
2061,1629709076536,0.8898243308067322,-0.0116574661806225,0.0466185398399829,0.8478541970252991
2062,1629709076597,0.9114615321159364,0.0461420901119709,0.090387187898159,0.8637800812721252
2063,1629709076725,0.9256786704063416,0.0886688753962516,0.11680868268013,0.8696413636207581
2064,1629709076799,0.9322717189788818,0.1137505173683166,0.1380032002925872,0.8686503767967224
2065,1629709076898,0.9356839060783386,0.1310415118932724,0.1680025905370712,0.8666068911552429
2066,1629709077007,0.9397658109664916,0.1452548205852508,0.2106702923774719,0.8682610988616943
2067,1629709077142,0.9459222555160522,0.1555509716272354,0.2576320469379425,0.8764359951019287
2068,1629709077219,0.9550009965896606,0.1616463959217071,0.2961717545986175,0.8900944590568542
2069,1629709077354,0.963247299194336,0.1630371361970901,0.3163450956344604,0.9033215641975404
2070,1629709077400,0.9619527459144592,0.1599180996417999,0.3190723657608032,0.909670352935791
2071,1629709077523,0.9443771839141846,0.1509923189878463,0.3112085461616516,0.9019676446914672
2072,1629709077610,0.904837131500244,0.1297086328268051,0.2964849472045898,0.8715241551399231
2073,1629709077728,0.8457052707672119,0.0877288654446601,0.2728985249996185,0.8174012899398804
2074,1629709077830,0.7839277982711792,0.0192346628755331,0.2402615547180175,0.7495290637016296
2075,1629709077933,0.758861243724823,-0.0640115514397621,0.202615350484848,0.6952258944511414
2076,1629709078014,0.7804573774337769,-0.1477229297161102,0.1630740910768509,0.6755602359771729
2077,1629709078114,0.8118618726730347,-0.2213739156723022,0.1222770288586616,0.6803152561187744
2078,1629709078201,0.8272899985313416,-0.2957293689250946,0.0902592614293098,0.6914140582084656
2079,1629709078332,0.8317337036132812,-0.3552949726581573,0.0632426887750625,0.7067692279815674
2080,1629709078461,0.8355152606964111,-0.4032672941684723,0.03013745136559,0.7267878651618958
2081,1629709078602,0.8494506478309631,-0.4376430511474609,-0.0196636989712715,0.7533473372459412
2082,1629709078616,0.8709335923194885,-0.457707405090332,-0.0907683074474334,0.7810428142547607
2083,1629709078729,0.8897559642791748,-0.4594223797321319,-0.1742500364780426,0.7995392680168152
2084,1629709078829,0.9009221792221068,-0.4485415518283844,-0.2411978393793106,0.8056017160415649
2085,1629709078928,0.9059737920761108,-0.4417796432971954,-0.2671792507171631,0.8077103495597839
2086,1629709079072,0.91023850440979,-0.4437765777111053,-0.2644313871860504,0.8168340921401978
2087,1629709079158,0.9138377904891968,-0.4515508115291595,-0.2535176575183868,0.8323784470558167
2088,1629709079257,0.9152210354804992,-0.4573306143283844,-0.2424439191818237,0.8477310538291931
2089,1629709079339,0.9093307852745056,-0.4552246928215027,-0.2348301708698272,0.8557540774345398
2090,1629709079437,0.8910375833511353,-0.4480473399162292,-0.2299802750349044,0.8525204658508301
2091,1629709079570,0.86388099193573,-0.4424753785133362,-0.22513347864151,0.8426499962806702
2092,1629709079669,0.8383491039276123,-0.4423774182796478,-0.2125525772571563,0.8341374397277832
2093,1629709079776,0.8200238943099976,-0.446705013513565,-0.1879808604717254,0.8274224400520325
2094,1629709079865,0.8112753033638,-0.4507820904254913,-0.157929465174675,0.8191085457801819
2095,1629709079963,0.8098002672195435,-0.4562290012836456,-0.1370099931955337,0.8061124682426453
2096,1629709080022,0.8070899248123169,-0.4663287699222564,-0.1362539827823639,0.7843562364578247
2097,1629709080171,0.7982775568962097,-0.477467268705368,-0.1554930061101913,0.7539553046226501
2098,1629709080309,0.787526547908783,-0.4875892698764801,-0.1810375452041626,0.7248378992080688
2099,1629709080402,0.7771880626678467,-0.4866895973682403,-0.2005119025707245,0.7019878625869751
2100,1629709080476,0.7678377628326416,-0.46926149725914,-0.2169439047574997,0.6807376742362976
2101,1629709080584,0.7568956613540649,-0.4475430846214294,-0.2357044368982315,0.6550761461257935
2102,1629709080688,0.7467508316040039,-0.4288334548473358,-0.2531555294990539,0.6326444149017334
2103,1629709080818,0.7498467564582825,-0.4149092435836792,-0.2570386230945587,0.6450841426849365
2104,1629709080878,0.7734615802764893,-0.4020695686340332,-0.2381974160671234,0.708798348903656
2105,1629709080987,0.7983211278915405,-0.3982311189174652,-0.1993091106414795,0.7869313955307007
2106,1629709081100,0.8251057863235474,-0.4004124104976654,-0.1557123064994812,0.8506910800933838
2107,1629709081163,0.8812423944473267,-0.3753104209899902,-0.1301836669445037,0.8978643417358398
2108,1629709081254,0.9780804514884948,-0.3078120648860931,-0.1314651370048523,0.94781094789505
2109,1629709081397,1.0919086933135986,-0.2161455750465393,-0.1595422029495239,1.0076987743377686
2110,1629709081507,1.190373778343201,-0.1281058192253112,-0.2034368515014648,1.0657175779342651
2111,1629709081583,1.2532544136047363,-0.0646647810935974,-0.2402672469615936,1.1033045053482056
2112,1629709081686,1.28757905960083,-0.0269963331520557,-0.2495302706956863,1.1235524415969849
2113,1629709081806,1.3036110401153564,-0.0082120252773165,-0.233620673418045,1.133854866027832
2114,1629709081913,1.315867304801941,0.003356517991051,-0.2078516781330108,1.1447539329528809
2115,1629709082020,1.332220196723938,0.0168884862214326,-0.1869242489337921,1.161296844482422
2116,1629709082108,1.3507378101348877,0.0341200679540634,-0.1767005324363708,1.1797609329223633
2117,1629709082212,1.3659380674362185,0.051870472729206,-0.1781352162361145,1.1918615102767944
2118,1629709082282,1.3723423480987549,0.0668282061815261,-0.191867709159851,1.1894854307174685
2119,1629709082371,1.3675578832626345,0.0833455100655555,-0.2192828357219696,1.1673190593719482
2120,1629709082513,1.3571721315383911,0.1068606302142143,-0.2588385343551636,1.1323108673095703
2121,1629709082631,1.3416508436203003,0.131874606013298,-0.3083179295063019,1.091251015663147
2122,1629709082705,1.3129756450653076,0.1420596688985824,-0.3546528816223144,1.0463892221450806
2123,1629709082812,1.2614785432815552,0.1312238723039627,-0.391110748052597,0.9888936281204224
2124,1629709082911,1.178874373435974,0.1005643308162689,-0.4138619005680084,0.9081642031669616
2125,1629709083008,1.065673828125,0.0599660240113735,-0.42249196767807,0.8048811554908752
2126,1629709083090,0.9485533833503724,0.0244945101439952,-0.425034761428833,0.7124966382980347
2127,1629709083194,0.8598613739013672,0.0079046366736292,-0.4295299351215362,0.6600262522697449
2128,1629709083354,0.8309585452079773,0.0055198967456817,-0.4336290061473846,0.6665027141571045
2129,1629709083416,0.8441546559333801,0.0062160287052392,-0.4349458813667297,0.7086819410324097
2130,1629709083512,0.8593300580978394,0.0026729479432106,-0.4299772977828979,0.7488958239555359
2131,1629709083615,0.8565578460693359,-0.0052411407232284,-0.4172310829162597,0.7656397223472595
2132,1629709083749,0.8350212574005127,-0.0172107238322496,-0.3999336957931518,0.7616473436355591
2133,1629709083846,0.8097161054611206,-0.0327450819313526,-0.3902696073055267,0.746769905090332
2134,1629709083914,0.7932872176170349,-0.0591754801571369,-0.3874305486679077,0.7329703569412231
2135,1629709084062,0.7824623584747314,-0.1036641374230384,-0.3942933082580566,0.7213860154151917
2136,1629709084176,0.7721510529518127,-0.1600121408700943,-0.3987627923488617,0.7107917070388794
2137,1629709084228,0.7645971775054932,-0.2101227194070816,-0.3724109828472137,0.7065564393997192
2138,1629709084323,0.7608208060264587,-0.2412478178739547,-0.3097391128540039,0.7098831534385681
2139,1629709084437,0.7605734467506409,-0.2540916204452514,-0.233937919139862,0.7193620204925537
2140,1629709084545,0.7617777585983276,-0.2655593752861023,-0.1705465614795684,0.7317612767219543
2141,1629709084623,0.7589763402938843,-0.2876108288764953,-0.1312851160764694,0.7425006628036499
2142,1629709084715,0.7430140376091003,-0.3219718635082245,-0.1162012293934822,0.7418275475502014
2143,1629709084818,0.6949339509010315,-0.3544294834136963,-0.1231068074703216,0.7110980749130249
2144,1629709084917,0.603658139705658,-0.3816778361797333,-0.1417600065469741,0.6398430466651917
2145,1629709085038,0.4830655753612518,-0.4096263349056244,-0.1601147055625915,0.5345365405082703
2146,1629709085169,0.3835011720657348,-0.4405823349952698,-0.1738446801900863,0.4298323094844818
2147,1629709085258,0.3550944030284881,-0.4685853719711303,-0.1790340989828109,0.3640647530555725
2148,1629709085352,0.383188247680664,-0.4903800785541534,-0.175329253077507,0.3503284156322479
2149,1629709085461,0.4266967177391052,-0.5092697739601135,-0.1704173237085342,0.3646746277809143
2150,1629709085529,0.4693675339221954,-0.5259556770324707,-0.1694136261940002,0.3918688595294952
2151,1629709085704,0.5115215182304382,-0.542092502117157,-0.1696227490901947,0.4252782464027405
2152,1629709085785,0.5613524317741394,-0.5561637282371521,-0.1783654242753982,0.465391993522644
2153,1629709085886,0.6300375461578369,-0.5711502432823181,-0.1955414563417434,0.5232827663421631
2154,1629709085915,0.7140470743179321,-0.5837870836257935,-0.2156362980604171,0.6037130951881409
2155,1629709086032,0.7946289777755737,-0.5920249819755554,-0.2335287034511566,0.6847847700119019
2156,1629709086134,0.8501361012458801,-0.5803846716880798,-0.2394587993621826,0.7433133125305176
2157,1629709086266,0.8783887028694153,-0.5587488412857056,-0.226016029715538,0.776320219039917
2158,1629709086366,0.8849257230758667,-0.5269862413406372,-0.1941068768501281,0.7873653173446655
2159,1629709086471,0.8778788447380066,-0.4845142960548401,-0.156944140791893,0.7860772013664246
2160,1629709086612,0.8605387210845947,-0.4355065524578094,-0.1198424026370048,0.7793683409690857
2161,1629709086664,0.8347635269165039,-0.3937500119209289,-0.0914486870169639,0.7690884470939636
2162,1629709086741,0.8061236143112183,-0.3527205288410187,-0.0689487382769584,0.7576249241828918
2163,1629709086934,0.7784578800201416,-0.3112730085849762,-0.050176914781332,0.7470244765281677
2164,1629709086984,0.7526417970657349,-0.2721047401428222,-0.0361195094883441,0.7356876134872437
2165,1629709087097,0.7297540307044983,-0.2359941899776458,-0.025637088343501,0.7218851447105408
2166,1629709087168,0.7119431495666504,-0.1999106407165527,-0.0227778777480125,0.7084370851516724
2167,1629709087253,0.6902806758880615,-0.1660289168357849,-0.0313502550125122,0.6895373463630676
2168,1629709087368,0.6475644111633301,-0.1382770538330078,-0.0523866415023803,0.6573101282119751
2169,1629709087509,0.5775593519210815,-0.1196264028549194,-0.0801761746406555,0.6107947826385498
2170,1629709087590,0.5022485852241516,-0.1085003763437271,-0.1011540219187736,0.5830612778663635
2171,1629709087693,0.4723720252513885,-0.1022847965359687,-0.1093363389372825,0.6049637198448181
2172,1629709087821,0.4943566918373108,-0.1007501706480979,-0.1126620545983314,0.6561619639396667
2173,1629709087862,0.5431786179542542,-0.1104181036353111,-0.1219955161213874,0.7095118165016174
2174,1629709087984,0.5984500050544739,-0.1300283819437027,-0.1425638794898986,0.7504355907440186
2175,1629709088172,0.6633204221725464,-0.156145766377449,-0.178815096616745,0.7877267003059387
2176,1629709088218,0.729680061340332,-0.1765556633472442,-0.20973601937294,0.8275976777076721
2177,1629709088312,0.7863113880157471,-0.1935333907604217,-0.2234648317098617,0.8668089509010315
2178,1629709088390,0.8323623538017273,-0.2106269747018814,-0.2001115381717682,0.9015716910362244
2179,1629709088453,0.8746093511581421,-0.2317206710577011,-0.1262015849351883,0.9359609484672546
2180,1629709088593,0.9143683910369872,-0.2573734223842621,-0.0276632215827703,0.9707741141319276
2181,1629709088703,0.9478991627693176,-0.2898818254470825,0.0602833516895771,1.0041382312774658
2182,1629709088781,0.975134253501892,-0.3218778669834137,0.1290497928857803,1.0373005867004397
2183,1629709088940,0.9985398650169371,-0.3263084888458252,0.1791210919618606,1.0685478448867798
2184,1629709089033,1.025795817375183,-0.2918955981731415,0.2176956236362457,1.1035850048065186
2185,1629709089064,1.0554574728012085,-0.2279132604598999,0.2466669827699661,1.1375210285186768
2186,1629709089189,1.0871596336364746,-0.1663573533296585,0.2666265666484833,1.166936278343201
2187,1629709089346,1.1143348217010498,-0.121430367231369,0.2753388881683349,1.1871343851089478
2188,1629709089439,1.1340489387512207,-0.0887577459216117,0.2760843932628631,1.1898372173309326
2189,1629709089486,1.1463805437088013,-0.0648072957992553,0.2760340273380279,1.201166033744812
2190,1629709089627,1.1521623134613037,-0.0455886162817478,0.2834957540035248,1.2161155939102173
2191,1629709089721,1.1503286361694336,-0.0289359502494335,0.2953319549560547,1.2314049005508425
2192,1629709089845,1.1430045366287231,-0.0144089944660663,0.3001902997493744,1.2485250234603882
2193,1629709089958,1.134920597076416,-0.0069094095379114,0.2906967401504516,1.2397303581237793
2194,1629709090067,1.1275817155838013,-0.0009028663043864,0.2596349716186523,1.2300620079040527
2195,1629709090161,1.1238704919815063,0.0072492086328566,0.2082372009754181,1.224685549736023
2196,1629709090239,1.1261584758758545,0.016766469925642,0.1474122852087021,1.2268433570861816
2197,1629709090332,1.142916560173035,0.0277067627757787,0.0832294449210167,1.2403931617736816
2198,1629709090410,1.1709686517715454,0.0330587401986122,0.0226328168064355,1.247772455215454
2199,1629709090520,1.1918853521347046,0.0265942197293043,-0.0381974540650844,1.2550764083862305
2200,1629709090645,1.1916872262954712,0.0036623475607484,-0.1030111610889434,1.2270948886871338
2201,1629709090738,1.169561505317688,-0.0324247740209102,-0.1710112243890762,1.1622508764266968
2202,1629709090848,1.138485074043274,-0.0726042762398719,-0.216945543885231,1.0796799659729004
2203,1629709090927,1.1082056760787964,-0.1106462478637695,-0.2246008962392807,1.0408939123153689
2204,1629709091038,1.0841560363769531,-0.1412450522184372,-0.2100035697221756,1.002857685089111
2205,1629709091210,1.0691014528274536,-0.1643688678741455,-0.2021114826202392,0.9747352004051208
2206,1629709091257,1.066946506500244,-0.1868290305137634,-0.2008946388959884,0.9556015133857728
2207,1629709091398,1.076264500617981,-0.2064452767372131,-0.193428948521614,0.9421387910842896
2208,1629709091476,1.085855484008789,-0.2119087725877761,-0.1847746074199676,0.9373927712440492
2209,1629709091554,1.086316466331482,-0.2120391577482223,-0.1818945854902267,0.9273585677146912
2210,1629709091647,1.074481964111328,-0.218830868601799,-0.1880000084638595,0.902826964855194
2211,1629709091741,1.0520075559616089,-0.2384650260210037,-0.1988887190818786,0.8590054512023926
2212,1629709091882,1.0094698667526243,-0.2760731875896454,-0.2031155973672866,0.7803614139556885
2213,1629709091962,0.9427314400672911,-0.3347857892513275,-0.2011590451002121,0.7573416829109192
2215,1629709092166,0.8635255098342896,-0.4111691415309906,-0.1982155442237854,0.6309962868690491
2214,1629709092182,0.7963531613349915,-0.492993414402008,-0.1947565972805023,0.5160787105560303
2216,1629709092244,0.749681293964386,-0.5582726001739502,-0.1931835263967514,0.4408868253231048
2217,1629709092354,0.7194750905036926,-0.593054473400116,-0.2001298069953918,0.4053006470203399
2218,1629709092525,0.7019397616386414,-0.6009340286254883,-0.220364049077034,0.3992956280708313
2219,1629709092603,0.6848876476287842,-0.5972714424133301,-0.2537474334239959,0.3981380462646484
2220,1629709092635,0.6496434807777405,-0.5866864919662476,-0.2983578741550445,0.3743179440498352
2221,1629709092775,0.5886241793632507,-0.5599126219749451,-0.3597085177898407,0.3271543383598327
2222,1629709092853,0.5035254955291748,-0.5173280835151672,-0.4280305802822113,0.2607479095458984
2223,1629709093012,0.4123812317848205,-0.4684812724590301,-0.4881689250469208,0.1864473968744278
2224,1629709093090,0.3433575332164764,-0.4270861148834228,-0.5213555097579956,0.1244393363595008
2225,1629709093184,0.3058562874794006,-0.4030575752258301,-0.5330978631973267,0.0872666835784912
2226,1629709093262,0.2977043390274048,-0.3915733993053436,-0.5324560403823853,0.0864587575197219
2227,1629709093387,0.3289111852645874,-0.3862308859825134,-0.5119740962982178,0.1588702499866485
2228,1629709093465,0.4077401459217071,-0.3837287724018097,-0.4690971076488495,0.3069594204425812
2229,1629709093574,0.5000729560852051,-0.3825567066669464,-0.4218373298645019,0.4561394155025482
2230,1629709093715,0.5757014751434326,-0.3827341794967651,-0.3895775973796844,0.5583730340003967
2231,1629709093809,0.6291471123695374,-0.3820497691631317,-0.3717997968196869,0.6131706237792969
2232,1629709093902,0.6618462800979614,-0.3814775347709656,-0.3658144176006317,0.6337036490440369
2233,1629709093965,0.680722177028656,-0.3827763199806213,-0.3614108264446258,0.6411494612693787
2234,1629709094090,0.6921474933624268,-0.391525536775589,-0.3369491398334503,0.6507211923599243
2235,1629709094215,0.7006924748420715,-0.4114502966403961,-0.2943308353424072,0.6675090193748474
2236,1629709094308,0.706070601940155,-0.4487471878528595,-0.2439886480569839,0.6840457916259766
2237,1629709094387,0.7146319150924683,-0.509434700012207,-0.1914920210838318,0.6981838941574097
2238,1629709094511,0.7250644564628601,-0.5932250618934631,-0.1397962868213653,0.7092269062995911
2239,1629709094605,0.732052743434906,-0.6884052753448486,-0.0953378230333328,0.7156686186790466
2240,1629709094715,0.7316796779632568,-0.7593747973442078,-0.0534283816814422,0.7175002694129944
2241,1629709094871,0.7231789231300354,-0.7935558557510376,-0.0163759291172027,0.7143185138702393
2242,1629709094933,0.7038175463676453,-0.7973719239234924,0.007135275285691,0.6950880289077759
2243,1629709095011,0.6654675006866455,-0.785426914691925,0.0244074780493974,0.6465446949005127
2244,1629709095136,0.6101603507995605,-0.7701619267463684,0.0497360751032829,0.5680440068244934
2245,1629709095214,0.5545383095741272,-0.7503374218940735,0.0800850987434387,0.4788203537464142
2246,1629709095293,0.5133454203605652,-0.7262288331985474,0.1088274717330932,0.4073315560817718
2247,1629709095418,0.4937219619750976,-0.6998299956321716,0.1290091574192047,0.3718460202217102
2248,1629709095527,0.4876766204833984,-0.6761634945869446,0.1365320980548858,0.3538218736648559
2249,1629709095621,0.4875659942626953,-0.6622260212898254,0.1328746676445007,0.3312723338603973
2250,1629709095746,0.482185035943985,-0.6628443002700806,0.1230276376008987,0.2923641502857208
2251,1629709095839,0.4757527709007263,-0.6776524186134338,0.1090060174465179,0.2485423684120178
2252,1629709095902,0.4625571966171264,-0.7040626406669617,0.0891044959425926,0.2023851722478866
2253,1629709096027,0.4468504190444946,-0.740411639213562,0.063314713537693,0.1602939814329147
2254,1629709096183,0.4368845820426941,-0.7765105962753296,0.0357078090310096,0.1271748840808868
2255,1629709096277,0.4352306723594665,-0.8132595419883728,0.0043934937566518,0.1038305684924125
2256,1629709096339,0.4364559948444366,-0.8398101329803467,-0.030411384999752,0.0787211135029792
2257,1629709096417,0.426047682762146,-0.8524267673492432,-0.0601379685103893,0.0473442189395427
2258,1629709096511,0.399850457906723,-0.832069993019104,-0.0885209143161773,0.0074127791449427
2259,1629709096652,0.357034295797348,-0.7616042494773865,-0.1189677119255065,-0.0475183278322219
2260,1629709096730,0.3007254898548126,-0.6709657907485962,-0.1358783692121505,-0.1027966141700744
2261,1629709096823,0.2404050976037979,-0.5780035853385925,-0.1343127489089965,-0.1252209097146988
2262,1629709096933,0.1838987618684768,-0.4944803714752197,-0.1219854801893234,-0.1120033115148544
2263,1629709097060,0.1535331904888153,-0.4315495491027832,-0.1111127883195877,-0.051757164299488
2264,1629709097154,0.1760594397783279,-0.3817134797573089,-0.1109400689601898,0.0522246584296226
2265,1629709097263,0.253766268491745,-0.3451433479785919,-0.1201561167836189,0.1713459640741348
2266,1629709097372,0.342922955751419,-0.3220053613185882,-0.1334030926227569,0.293648898601532
2267,1629709097466,0.4098069965839386,-0.3087647557258606,-0.1432277262210846,0.40137779712677
2268,1629709097528,0.4465510845184326,-0.2990398705005646,-0.1468649208545684,0.4854586124420166
2269,1629709097607,0.4582225382328033,-0.2881565690040588,-0.1481738239526748,0.5428074598312378
2270,1629709097700,0.459722101688385,-0.2778829634189605,-0.147908329963684,0.5780819654464722
2271,1629709097861,0.4569950997829437,-0.2651735246181488,-0.1464223563671112,0.5962823629379272
2272,1629709097970,0.4648192524909973,-0.2515392303466797,-0.1504036337137222,0.609584629535675
2273,1629709098064,0.4896348416805267,-0.2428732514381408,-0.165645495057106,0.6255903840065002
2274,1629709098204,0.5233696699142456,-0.2483752518892288,-0.2033523619174957,0.6436008810997009
2275,1629709098283,0.5598136186599731,-0.2671224474906921,-0.2722624242305755,0.6629922986030579
2276,1629709098361,0.59663325548172,-0.2988243997097015,-0.3736017346382141,0.6817770004272461
2277,1629709098454,0.6290221810340881,-0.3445987701416015,-0.4806126654148102,0.6967736482620239
2278,1629709098611,0.6535775065422058,-0.3909724652767181,-0.54787677526474,0.7083298563957214
2279,1629709098689,0.6570584177970886,-0.4372230172157287,-0.5532834529876709,0.7078677415847778
2280,1629709098787,0.6480038166046143,-0.4691232740879059,-0.5178706645965576,0.6971620917320251
2281,1629709098832,0.6449835896492004,-0.4710091650485992,-0.4628156423568725,0.6775659918785095
2282,1629709098942,0.6601313948631287,-0.451914370059967,-0.4069699645042419,0.6558594107627869
2283,1629709099082,0.6929385662078857,-0.4359154403209686,-0.3626133501529693,0.6360012888908386
2284,1629709099145,0.7344698905944824,-0.4364344775676727,-0.3335738182067871,0.6220943331718445
2285,1629709099270,0.7679973840713501,-0.4367944896221161,-0.3203795552253723,0.61089026927948
2286,1629709099379,0.7910921573638916,-0.4214155972003937,-0.3207533657550812,0.6055221557617188
2287,1629709099473,0.8049624562263489,-0.3803715109825134,-0.3260252773761749,0.6034175157546997
2288,1629709099535,0.8156152367591858,-0.3151836991310119,-0.3318542838096618,0.5992366075515747
2289,1629709099723,0.8300748467445374,-0.2439076155424118,-0.3373224437236786,0.5944430828094482
2290,1629709099769,0.8456857204437256,-0.1887050420045852,-0.343848705291748,0.5880988836288452
2291,1629709099897,0.8525402545928955,-0.1578951776027679,-0.3458562791347503,0.5737403631210327
2292,1629709099959,0.8519279956817627,-0.1449503898620605,-0.3423613309860229,0.554672360420227
2293,1629709100069,0.8465783596038818,-0.1422268897294998,-0.3347178995609283,0.5262709259986877
2294,1629709100147,0.8453337550163269,-0.1446994990110397,-0.3346031606197357,0.4978122413158417
2295,1629709100303,0.8412252068519592,-0.1510161161422729,-0.3512164652347564,0.4699767231941223
2296,1629709100366,0.8242431879043579,-0.1614682525396347,-0.3899290263652801,0.4380909502506256
2297,1629709100459,0.7927937507629395,-0.1727791428565979,-0.4525215029716491,0.4027568697929382
2298,1629709100585,0.7532349824905396,-0.1774147450923919,-0.5249298810958862,0.3844948709011078
2299,1629709100647,0.7135539054870605,-0.1739443242549896,-0.5880901217460632,0.3905237913131714
2300,1629709100837,0.6835243701934814,-0.1718701124191284,-0.6163637042045593,0.4123112857341766
2301,1629709100946,0.6677847504615784,-0.184964433312416,-0.5993627905845642,0.4319237470626831
2302,1629709101040,0.6570757627487183,-0.2211284935474395,-0.553665816783905,0.4343239367008209
2303,1629709101087,0.6404755711555481,-0.2870318591594696,-0.482470840215683,0.4211080968379974
2304,1629709101212,0.610233724117279,-0.3747354447841644,-0.3938352167606354,0.3967433571815491
2305,1629709101290,0.5680666565895081,-0.4612412452697754,-0.2971232831478119,0.365493506193161
2306,1629709101399,0.526606023311615,-0.5150597095489502,-0.2059518098831176,0.3365196287631988
2307,1629709101524,0.4911737143993377,-0.5294273495674133,-0.1352653056383133,0.3171179592609405
2308,1629709101602,0.4574096202850342,-0.5278787612915039,-0.0926435142755508,0.3103769421577453
2309,1629709101743,0.418156623840332,-0.5145604014396667,-0.0706528276205062,0.3142428398132324
2310,1629709101822,0.3797057569026947,-0.5010413527488708,-0.0543986111879348,0.3272385895252228
2311,1629709101870,0.359516829252243,-0.4975883662700653,-0.0381453819572925,0.3520258665084839
2312,1629709101995,0.3672263622283935,-0.5071861743927002,-0.0208880957216024,0.3900825679302215
2313,1629709102120,0.380939781665802,-0.5223310589790344,-0.0050525516271591,0.4171494841575622
2314,1629709102276,0.3813042044639587,-0.5324936509132385,0.0062163318507373,0.427082747220993
2315,1629709102370,0.3817771375179291,-0.5285691618919373,0.0114627433940768,0.4329639971256256
2316,1629709102417,0.4166328608989715,-0.4990952610969543,0.0100433938205242,0.4586632549762726
2317,1629709102511,0.4956251978874206,-0.4546000063419342,0.0020959135144948,0.5173225402832031
2318,1629709102589,0.5811325311660767,-0.406476229429245,-0.0178419351577758,0.5866789221763611
2319,1629709102761,0.6478474736213684,-0.3677173852920532,-0.0497333146631717,0.6494780778884888
2320,1629709102839,0.6845216751098633,-0.35380619764328,-0.0919648110866546,0.6927260160446167
2321,1629709102935,0.703349232673645,-0.356905072927475,-0.1424338817596435,0.7168158292770386
2322,1629709103029,0.7172114253044128,-0.364700973033905,-0.1918560564517974,0.7289303541183472
2323,1629709103107,0.7253656387329102,-0.3662641942501068,-0.2289073318243026,0.7326921820640564
2324,1629709103263,0.7342571020126343,-0.3526378571987152,-0.2537868022918701,0.7332407236099243
2325,1629709103357,0.7456537485122681,-0.3208338916301727,-0.2804867923259735,0.7307919263839722
2326,1629709103482,0.7561310529708862,-0.2777109146118164,-0.312946081161499,0.7225895524024963
2327,1629709103544,0.7603229880332947,-0.2322130650281906,-0.3492592275142669,0.7016372680664062
2328,1629709103654,0.758631706237793,-0.1935730874538421,-0.3822642564773559,0.6705887317657471
2329,1629709103747,0.7544456720352173,-0.1669287979602813,-0.3911519348621368,0.6368393898010254
2330,1629709103779,0.7440499067306519,-0.1518613696098327,-0.3770181536674499,0.6051139235496521
2331,1629709103985,0.7141865491867065,-0.1511406749486923,-0.3499336242675781,0.5698344707489014
2332,1629709104048,0.6591082811355591,-0.1625371873378753,-0.3122538626194,0.521425187587738
2333,1629709104157,0.5945823788642883,-0.1820858120918274,-0.2551026940345764,0.4734299182891845
2334,1629709104251,0.5480974316596985,-0.2066759169101715,-0.1821383535861969,0.4527310729026794
2335,1629709104360,0.5512591600418091,-0.2167584896087646,-0.1105479374527931,0.4876731634140014
2336,1629709104470,0.5847358703613281,-0.2097695022821426,-0.0605240128934383,0.5595033764839172
2337,1629709104626,0.6160465478897095,-0.196047306060791,-0.0412317402660846,0.6323271989822388
2338,1629709104641,0.6436152458190918,-0.1887875199317932,-0.04233955219388,0.6895714402198792
2339,1629709104782,0.6657889485359192,-0.1992542892694473,-0.0489809438586235,0.7317929267883301
2340,1629709104860,0.6779894828796387,-0.2256205081939697,-0.0534997954964637,0.758396327495575
2341,1629709104923,0.6810758709907532,-0.2578287124633789,-0.0558383613824844,0.7764970660209656
2342,1629709105048,0.6786620020866394,-0.2894486486911773,-0.0507765784859657,0.7927712798118591
2343,1629709105188,0.6841325163841248,-0.3190788924694061,-0.0377377644181251,0.814789891242981
2344,1629709105282,0.7015315294265747,-0.345558613538742,-0.0244793239980936,0.8407102823257446
2345,1629709105391,0.7254576683044434,-0.3718514144420624,-0.0101668592542409,0.8670507669448853
2346,1629709105469,0.7453705072402954,-0.3902430832386017,0.0062709273770451,0.8878214955329895
2347,1629709105563,0.7554224133491516,-0.3945459127426147,0.0229480434209108,0.9018288254737854
2348,1629709105657,0.7548710703849792,-0.3882175087928772,0.036207478493452,0.909727931022644
2349,1629709105797,0.7456530928611755,-0.3768374621868133,0.0401277467608451,0.9088545441627502
2350,1629709105875,0.7266128659248352,-0.3744138777256012,0.0296915061771869,0.8949846029281616
2351,1629709105969,0.7020424008369446,-0.3954430818557739,0.0102781159803271,0.8684390783309937
2352,1629709106063,0.6751598715782166,-0.4338242709636688,-0.0045947092585265,0.8319151401519775
2353,1629709106172,0.6480749249458313,-0.4690040051937103,-0.0124189481139183,0.793761134147644
2354,1629709106250,0.6186758279800415,-0.4821887910366058,-0.0147541854530572,0.7584778070449829
2355,1629709106453,0.5908371210098267,-0.4671205282211303,-0.0147433225065469,0.7323358058929443
2356,1629709106485,0.5686610341072083,-0.4325011074542999,-0.0138511965051293,0.712881326675415
2357,1629709106578,0.5512875318527222,-0.3905785679817199,-0.0178188253194093,0.6947041749954224
2358,1629709106672,0.5269032120704651,-0.347566157579422,-0.0323317795991897,0.6681380867958069
2359,1629709106828,0.4913244247436523,-0.3082912862300873,-0.057625163346529,0.6330654621124268
2360,1629709106875,0.4479313790798187,-0.2758822739124298,-0.0955905765295028,0.5910847783088684
2361,1629709106985,0.4086205065250397,-0.2568760812282562,-0.1458840519189834,0.5504499673843384
2362,1629709107156,0.3821023404598236,-0.2534961402416229,-0.2097574919462204,0.5160955786705017
2363,1629709107203,0.3693319261074066,-0.2624741792678833,-0.2953150272369385,0.4883030652999878
2364,1629709107281,0.3730868399143219,-0.2716335356235504,-0.4130927920341491,0.4655978381633758
2365,1629709107422,0.4030797481536865,-0.2694149613380432,-0.5564146041870117,0.4506179094314575
2366,1629709107485,0.4595545530319214,-0.2539118528366089,-0.6863873600959778,0.4486564695835113
2367,1629709107625,0.5222209692001343,-0.2365077137947082,-0.7577101588249207,0.4614610970020294
2368,1629709107703,0.5705632567405701,-0.2260250598192215,-0.7428219318389893,0.4798426926136017
2369,1629709107828,0.5966357588768005,-0.2251660823822021,-0.6862047910690308,0.4891172349452972
2370,1629709107909,0.6074631214141846,-0.2353036105632782,-0.620664119720459,0.4869504570960998
2371,1629709108018,0.6110091805458069,-0.2537101209163666,-0.5642620325088501,0.4783348143100738
2372,1629709108081,0.6126075983047485,-0.2741971611976623,-0.524783194065094,0.4689126908779144
2373,1629709108221,0.611552357673645,-0.2889430224895477,-0.4977819621562958,0.4601755440235138
2374,1629709108299,0.6095641255378723,-0.2939284741878509,-0.4667853713035583,0.4501812756061554
2375,1629709108440,0.6074209213256836,-0.2891967892646789,-0.4210452139377594,0.438460111618042
2376,1629709108502,0.6053510904312134,-0.2694011926651001,-0.3640933036804199,0.4234450459480285
2377,1629709108643,0.6025018095970154,-0.2391047179698944,-0.308284044265747,0.4027789235115051
2378,1629709108721,0.5985575914382935,-0.2089618742465973,-0.2678181529045105,0.3776671886444092
2379,1629709108830,0.5962774753570557,-0.1936472803354263,-0.2456225007772445,0.365630954504013
2380,1629709108927,0.5980477333068848,-0.1966263055801391,-0.2403762936592102,0.3878204524517059
2381,1629709109005,0.600358784198761,-0.2122889310121536,-0.2462273091077804,0.4386286437511444
2382,1629709109177,0.5987905263900757,-0.2290609180927276,-0.2565132975578308,0.4906739294528961
2383,1629709109224,0.5961257219314575,-0.2377023249864578,-0.2719938158988952,0.5319005250930786
2384,1629709109302,0.6001824736595154,-0.2287951856851577,-0.289742648601532,0.5694430470466614
2385,1629709109458,0.6140957474708557,-0.194001168012619,-0.3139051795005798,0.6168165802955627
2386,1629709109505,0.6380923986434937,-0.1394998282194137,-0.3423621356487274,0.6807291507720947
2387,1629709109661,0.6696664690971375,-0.0864668637514114,-0.3653172552585602,0.7538498640060425
2388,1629709109724,0.7106425166130066,-0.0562234371900558,-0.3713812232017517,0.8302465081214905
2389,1629709109817,0.7491012811660767,-0.0544458962976932,-0.3687722384929657,0.8973126411437988
2390,1629709109895,0.7842888236045837,-0.0709500983357429,-0.3679525554180145,0.9560644030570984
2391,1629709110071,0.8212665319442749,-0.0927371382713317,-0.3824732005596161,1.01130211353302
2392,1629709110150,0.8564150929450989,-0.1049457266926765,-0.410654753446579,1.058449625968933
2393,1629709110259,0.8804726004600525,-0.1032094433903694,-0.4288924038410187,1.0893313884735107
2394,1629709110337,0.8838520646095276,-0.0842488408088684,-0.4186436235904693,1.0984768867492676
2395,1629709110446,0.8674629330635071,-0.0563200451433658,-0.3910041749477386,1.0887442827224731
2396,1629709110509,0.8382336497306824,-0.0230344757437706,-0.3629344403743744,1.066447615623474
2397,1629709110634,0.8084836006164551,0.0158632006496191,-0.3345751762390136,1.0410189628601074
2398,1629709110743,0.7885201573371887,0.0528231114149093,-0.3050949573516845,1.0196367502212524
2399,1629709110852,0.7777424454689026,0.0757561698555946,-0.2817716002464294,1.0025397539138794
2400,1629709110915,0.7671836018562317,0.0729870796203613,-0.2644540071487427,0.9847893118858336
2401,1629709111043,0.7515212297439575,0.0450999028980731,-0.2537887692451477,0.9600636959075928
2402,1629709111137,0.7280592322349548,0.0018676553154364,-0.2488009929656982,0.9242962002754213
2403,1629709111246,0.6936302185058594,-0.039444375783205,-0.2533828914165497,0.872477114200592
2404,1629709111355,0.6591770052909851,-0.0639962777495384,-0.2661955654621124,0.8092843890190125
2405,1629709111465,0.6251708269119263,-0.0722341835498809,-0.2902818620204925,0.7324522137641907
2406,1629709111527,0.5790355801582336,-0.0754433423280716,-0.3173757493495941,0.6294461488723755
2407,1629709111637,0.5157566070556641,-0.0848211124539375,-0.339311420917511,0.4960309565067291
2408,1629709111746,0.446141630411148,-0.0977407991886138,-0.3575340509414673,0.3577914535999298
2409,1629709111934,0.390855997800827,-0.1086097657680511,-0.3713335692882538,0.2630954682826996
2410,1629709111965,0.3528664410114288,-0.1126226708292961,-0.3688312172889709,0.2224763184785843
2411,1629709112074,0.3356198668479919,-0.1120522618293762,-0.3471890687942505,0.2198072671890258
2412,1629709112183,0.3417268693447113,-0.1220447495579719,-0.3315773904323578,0.2375311702489853
2413,1629709112277,0.3741734325885772,-0.1344725638628006,-0.3153478801250458,0.2600876986980438
2414,1629709112355,0.4181794226169586,-0.1170750856399536,-0.284004271030426,0.2722102701663971
2415,1629709112465,0.4604570269584656,-0.0607094690203666,-0.2284833043813705,0.2661224007606506
2416,1629709112590,0.4936276078224182,0.0014262911863625,-0.1527220010757446,0.2590159177780151
2417,1629709112668,0.5170340538024902,0.0482387766242027,-0.0787823498249054,0.2803283929824829
2418,1629709112746,0.5252785086631775,0.0775257498025894,-0.0203259158879518,0.3317696452140808
2419,1629709112874,0.5131146907806396,0.0949657782912254,0.0182541068643331,0.3909780085086822
2420,1629709112952,0.4887343943119049,0.1056594178080558,0.0420415103435516,0.4364334046840668
2421,1629709113124,0.4643909931182861,0.1157521456480026,0.0538029186427593,0.4623889029026031
2422,1629709113171,0.4482069909572601,0.1193252950906753,0.0581096597015857,0.4729205965995788
2423,1629709113311,0.4422558844089508,0.1223649680614471,0.0562250837683677,0.4746623039245605
2425,1629709113421,0.4425588250160217,0.1242301687598228,0.0491975657641887,0.476787805557251
2424,1629709113452,0.4426338672637939,0.1237927004694938,0.0362343154847621,0.4819231033325195
2426,1629709113592,0.4286029934883117,0.1189700439572334,0.0177745819091796,0.4868714511394501
2427,1629709113686,0.3949806988239288,0.1128503680229187,0.0013242601417005,0.4873503148555755
2428,1629709113796,0.334578663110733,0.1025029718875885,-0.0154064539819955,0.482094258069992
2429,1629709113892,0.2590767741203308,0.0756031647324562,-0.0380828417837619,0.4786633253097534
2430,1629709113985,0.1903420090675354,0.0261585358530282,-0.0708249285817146,0.4813942909240722
2431,1629709114079,0.1327833384275436,-0.0349632464349269,-0.1174757778644561,0.4792626798152923
2432,1629709114173,0.0963497310876846,-0.083266481757164,-0.17689248919487,0.4612965285778045
2433,1629709114313,0.1148101687431335,-0.102881908416748,-0.2409998178482055,0.4295941293239593
2434,1629709114438,0.1767251789569854,-0.0994020625948906,-0.3042548596858978,0.3896158933639526
2435,1629709114517,0.2476702332496643,-0.0882002413272857,-0.3436191976070404,0.3619399666786194
2436,1629709114595,0.3102200031280517,-0.0873473435640335,-0.3321065306663513,0.3626144826412201
2437,1629709114720,0.3703807592391968,-0.0916559472680091,-0.283085286617279,0.3963244259357452
2438,1629709114813,0.4243310987949371,-0.1088540107011795,-0.2298845797777176,0.4399201571941376
2439,1629709114910,0.4660790562629699,-0.1361484378576278,-0.1923429816961288,0.4735305309295654
2440,1629709115003,0.4890958964824676,-0.1692325323820114,-0.17527636885643,0.4878019094467163
2441,1629709115113,0.503902018070221,-0.1976941674947738,-0.169753223657608,0.4915065169334411
2442,1629709115207,0.52073734998703,-0.2141519039869308,-0.1664927303791046,0.4985120296478271
2443,1629709115300,0.5535224080085754,-0.2208342850208282,-0.1606711149215698,0.5348289012908936
2444,1629709115425,0.6119621992111206,-0.2274110615253448,-0.145751491189003,0.6111785173416138
2445,1629709115519,0.6817573308944702,-0.238135278224945,-0.1283248513936996,0.7010254263877869
2446,1629709115644,0.7436569929122925,-0.2552121579647064,-0.1153250709176063,0.7758611440658569
2447,1629709115706,0.7853107452392578,-0.2879332900047302,-0.1091363653540611,0.8230219483375549
2448,1629709115847,0.8006414771080017,-0.341347336769104,-0.1066393479704856,0.8425018191337585
2449,1629709115925,0.7991657257080078,-0.4107030630111694,-0.0999236032366752,0.8471462726593018
2450,1629709116008,0.7907048463821411,-0.4805402457714081,-0.0964751988649368,0.8440618515014648
2451,1629709116164,0.7785688042640686,-0.5304548740386963,-0.1089742928743362,0.8354943990707397
2452,1629709116258,0.7595634460449219,-0.5492681860923767,-0.1433807909488678,0.8201538324356079
2453,1629709116336,0.7376669049263,-0.5549831986427307,-0.1864542365074157,0.8017241358757019
2454,1629709116461,0.7170836329460144,-0.5647304058074951,-0.2198152393102646,0.7839975357055664
2455,1629709116523,0.7071537971496582,-0.5755557417869568,-0.2249216437339782,0.7733463048934937
2456,1629709116601,0.7105580568313599,-0.583442211151123,-0.2054826617240905,0.76826411485672
2457,1629709116773,0.7222027778625488,-0.5925895571708679,-0.1778953224420547,0.7633162140846252
2458,1629709116867,0.7287327647209167,-0.6050196290016174,-0.157379001379013,0.7456221580505371
2459,1629709116929,0.7135397791862488,-0.6129228472709656,-0.1541805565357208,0.7007566094398499
2460,1629709117042,0.6754685640335083,-0.610170841217041,-0.1660414934158325,0.6287018060684204
2461,1629709117105,0.6231586933135986,-0.5981370210647583,-0.1719498187303543,0.540272057056427
2462,1629709117261,0.5723221302032471,-0.5834682583808899,-0.1560635268688202,0.4556164741516113
2463,1629709117386,0.5379889607429504,-0.5680854320526123,-0.1340690851211547,0.3922997415065765
2464,1629709117495,0.5220512747764587,-0.5433359146118164,-0.1103955507278442,0.3469733893871307
2465,1629709117558,0.5173102617263794,-0.5175947546958923,-0.0973760262131691,0.3112111091613769
2466,1629709117699,0.5191287398338318,-0.497775137424469,-0.0937313586473465,0.2831673920154571
2467,1629709117761,0.5296916961669922,-0.4796324670314789,-0.0903514921665191,0.2688497304916382
2468,1629709117855,0.5416644811630249,-0.454719603061676,-0.0841664671897888,0.2612087726593017
2469,1629709117980,0.5534650683403015,-0.4231294393539428,-0.0812883004546165,0.2591939568519592
2470,1629709118124,0.55813068151474,-0.3941243290901184,-0.0875523537397384,0.2601349353790283
2471,1629709118171,0.546442449092865,-0.3762925565242767,-0.1051069721579551,0.2671647369861603
2472,1629709118218,0.5159905552864075,-0.3710588812828064,-0.1324550807476043,0.2837424874305725
2473,1629709118374,0.4671059548854828,-0.3736332356929779,-0.1642011553049087,0.2997111678123474
2474,1629709118484,0.407046914100647,-0.3795486688613891,-0.1967291235923767,0.2965673804283142
2475,1629709118562,0.3587214052677154,-0.3861514627933502,-0.2239554673433303,0.2838743031024933
2476,1629709118702,0.354952335357666,-0.388363242149353,-0.2575782239437103,0.280269980430603
2477,1629709118749,0.4044672846794128,-0.3847739994525909,-0.3120228052139282,0.3107766807079315
2478,1629709118878,0.4784349501132965,-0.3794225752353668,-0.368060439825058,0.3734973967075348
2479,1629709118956,0.5384986400604248,-0.3827873468399048,-0.4239415526390075,0.4436030983924866
2480,1629709119034,0.5763609409332275,-0.3941657245159149,-0.4588661193847656,0.5082252025604248
2481,1629709119190,0.6129406094551086,-0.4050253033638,-0.4517208933830261,0.579967737197876
2482,1629709119299,0.6667012572288513,-0.4068496525287628,-0.4071831107139587,0.6706685423851013
2483,1629709119393,0.733931839466095,-0.3921791017055511,-0.3486665785312652,0.7671177983283997
2484,1629709119456,0.7947118878364563,-0.3586422801017761,-0.3027511537075043,0.8404513001441956
2485,1629709119549,0.847549319267273,-0.3149450421333313,-0.2618754208087921,0.8945806622505188
2486,1629709119659,0.8899962902069092,-0.2761281132698059,-0.2183207124471664,0.9342029690742492
2487,1629709119815,0.9268286228179932,-0.2480470091104507,-0.1735464334487915,0.964962899684906
2488,1629709119898,0.959851324558258,-0.2255181223154068,-0.136050671339035,0.987671434879303
2489,1629709120038,0.9842745661735536,-0.1979728043079376,-0.1115356236696243,1.002583384513855
2490,1629709120117,0.9926958084106444,-0.1668881624937057,-0.1050824597477912,1.0049844980239868
2491,1629709120241,0.9867023825645448,-0.1402413994073867,-0.1119433715939521,0.9989399313926696
2492,1629709120273,0.9698954224586488,-0.1199066936969757,-0.1225967556238174,0.987208604812622
2493,1629709120429,0.949107587337494,-0.1093654409050941,-0.1338632255792617,0.9720458388328552
2494,1629709120491,0.9314550757408142,-0.1042661741375923,-0.1453165262937545,0.9573373794555664
2495,1629709120570,0.918426752090454,-0.0961398482322692,-0.1582242548465728,0.9440832734107972
2496,1629709120679,0.9025297164916992,-0.078873872756958,-0.1815128177404403,0.9254268407821656
2497,1629709120773,0.8723342418670654,-0.0561726205050945,-0.221502423286438,0.8884902596473694
2498,1629709120900,0.8225826621055603,-0.0328073650598526,-0.2726129293441772,0.8282083868980408
2499,1629709121025,0.7627859711647034,-0.0151714058592915,-0.3085546791553497,0.7615752816200256
2500,1629709121119,0.6945200562477112,-0.0051506613381206,-0.3293944895267486,0.6934557557106018
2501,1629709121197,0.6244244575500488,-0.002739637857303,-0.3499412834644317,0.6276212334632874
2502,1629709121291,0.5517364740371704,-0.0098779005929827,-0.3733965456485748,0.5601657032966614
2503,1629709121400,0.4705214202404022,-0.0218164566904306,-0.3952104449272156,0.4891095459461212
2504,1629709121478,0.4170169830322265,-0.0361794531345367,-0.4027007222175598,0.4427753090858459
2505,1629709121666,0.434701919555664,-0.0514930486679077,-0.3888018727302551,0.4515910744667053
2506,1629709121697,0.4930006861686706,-0.065803624689579,-0.3679289817810058,0.4918876588344574
2507,1629709121822,0.5443654656410217,-0.0798264369368553,-0.3548046946525574,0.5302800536155701
2508,1629709121900,0.5671433210372925,-0.0906905233860015,-0.3516599237918854,0.5521472692489624
2509,1629709122041,0.5714674592018127,-0.0995574370026588,-0.3547538220882416,0.5548750162124634
2510,1629709122119,0.5760558247566223,-0.1113667413592338,-0.3610024750232696,0.5475603938102722
2511,1629709122259,0.5960899591445923,-0.1290974617004394,-0.3632884621620178,0.540804386138916
2512,1629709122337,0.6477806568145752,-0.154842808842659,-0.3508563339710235,0.5631886720657349
2513,1629709122416,0.727641761302948,-0.1800850629806518,-0.3085952699184418,0.6226044297218323
2514,1629709122541,0.8167610168457031,-0.1817067116498947,-0.2333040088415146,0.7061483263969421
2515,1629709122603,0.8905551433563232,-0.1559182107448578,-0.1353054195642471,0.7802265882492065
2516,1629709122697,0.9395151138305664,-0.1153310239315033,-0.0437929965555667,0.8304452896118164
2517,1629709122853,0.9645363092422484,-0.0743348598480224,0.0177588388323783,0.8579040765762329
2518,1629709122962,0.975153386592865,-0.050071682780981,0.0522972829639911,0.8741801977157593
2519,1629709123076,0.9732496738433838,-0.042760569602251,0.0711397752165794,0.8825417160987854
2520,1629709123107,0.9593635201454164,-0.0446609035134315,0.0841514095664024,0.8803795576095581
2521,1629709123232,0.9366841316223145,-0.049154058098793,0.0959436073899269,0.8680751323699951
2522,1629709123294,0.9144408106803894,-0.0557727888226509,0.1106596663594245,0.8548224568367004
2523,1629709123451,0.9010457992553712,-0.0620162896811962,0.1258649379014969,0.8487103581428528
2524,1629709123560,0.8949970006942749,-0.065961830317974,0.1410695910453796,0.8496305346488953
2525,1629709123685,0.892472505569458,-0.0677480474114418,0.1548236757516861,0.8541017174720764
2526,1629709123716,0.8853726387023926,-0.0731873661279678,0.1655571907758712,0.856768012046814
2527,1629709123841,0.8605578541755676,-0.0834121853113174,0.1687392890453338,0.8435164093971252
2528,1629709123966,0.8066287040710449,-0.1087550148367881,0.1587991118431091,0.8039808869361877
2529,1629709124078,0.7151278853416443,-0.1689905673265457,0.1286185681819915,0.7303260564804077
2530,1629709124172,0.5954906940460205,-0.2756691873073578,0.0734119862318039,0.6351253986358643
2531,1629709124266,0.4734469354152679,-0.4300937354564667,-0.0030715207103639,0.5378761887550354
2532,1629709124359,0.3815045058727264,-0.6135112643241882,-0.0827728286385536,0.4581318199634552
2533,1629709124469,0.3368402421474457,-0.7497015595436096,-0.148094892501831,0.4097970724105835
2534,1629709124578,0.3401866853237152,-0.7821516394615173,-0.1854974329471588,0.4012272357940674
2535,1629709124703,0.3647300601005554,-0.7470396757125854,-0.1933422982692718,0.4317373633384704
2536,1629709124832,0.3959672152996063,-0.7069640159606934,-0.1878110319375991,0.4785802960395813
2537,1629709124895,0.4160805642604828,-0.6793714761734009,-0.1919244974851608,0.5076520442962646
2538,1629709124942,0.4239506125450134,-0.6591692566871643,-0.2053785175085067,0.51011061668396
2539,1629709125069,0.4322804510593414,-0.6361529231071472,-0.2196866422891616,0.5000733137130737
2540,1629709125148,0.4400835931301117,-0.6130337119102478,-0.2259314358234405,0.4856486320495605
2541,1629709125319,0.4477190673351288,-0.5949280858039856,-0.2182616293430328,0.4726031124591827
2542,1629709125366,0.4536163508892059,-0.5835004448890686,-0.1915784031152725,0.464273452758789
2543,1629709125491,0.4576636850833893,-0.5781850218772888,-0.1495556980371475,0.4652709364891052
2544,1629709125554,0.4590432047843933,-0.5709046125411987,-0.0982178226113319,0.4759840667247772
