timestamp,TP9,AF7,AF8,TP10
1629894289817,0.768573522567749,0.5071126818656921,0.5388562083244324,0.4101340174674988
1629894289911,0.768573522567749,0.5071126818656921,0.5711769461631775,0.4101340174674988
1629894289989,0.768573522567749,0.5071126818656921,0.6037756204605103,0.4101340174674988
1629894290067,0.768573522567749,0.5071126818656921,0.6313237547874451,0.4101340174674988
1629894290192,0.768573522567749,0.7289406061172485,0.6502243876457214,0.4101340174674988
1629894290301,0.5392380356788635,0.6969910264015198,0.6592322587966919,0.4101340174674988
1629894290437,0.5392380356788635,0.6668796539306641,0.657383918762207,0.4101340174674988
1629894290518,0.5392380356788635,0.6668796539306641,0.6425220370292664,0.4101340174674988
1629894290628,0.5392380356788635,0.6668796539306641,0.6162359714508057,0.4101340174674988
1629894290706,0.5392380356788635,0.6668796539306641,0.5867654085159302,0.4101340174674988
1629894290800,0.5392380356788635,0.6668796539306641,0.5652413964271545,0.4101340174674988
1629894290909,0.5392380356788635,0.6668796539306641,0.5562616586685181,0.4101340174674988
1629894291003,0.5392380356788635,0.6668796539306641,0.547947883605957,0.4101340174674988
1629894291128,0.5392380356788635,0.6668796539306641,0.5402300357818604,0.4101340174674988
1629894291237,0.5392380356788635,0.6668796539306641,0.530722439289093,0.4101340174674988
1629894291362,0.5392380356788635,0.6668796539306641,0.5156630277633667,0.4101340174674988
1629894291409,0.5392380356788635,0.6367617845535278,0.4946821928024292,0.4101340174674988
1629894291505,0.5392380356788635,0.5932660102844238,0.4666015803813934,0.4101340174674988
1629894291662,0.5392380356788635,0.5089249014854431,0.4331830739974975,0.4101340174674988
1629894291740,0.5392380356788635,0.4534205198287964,0.3984522819519043,0.4101340174674988
1629894291865,0.5392380356788635,0.4236950874328613,0.3685007095336914,0.4101340174674988
1629894291927,0.5392380356788635,0.4116804003715515,0.3483170568943023,0.4101340174674988
1629894292052,0.459741473197937,0.4162000119686126,0.3409649133682251,0.4402318596839905
1629894292083,0.5213822722434998,0.420699268579483,0.345907986164093,0.4673182666301727
1629894292271,0.5705023407936096,0.4213669896125793,0.3581361770629883,0.4922848045825958
1629894292333,0.5956199169158936,0.4149399101734161,0.3711684942245483,0.5045738816261292
1629894292427,0.5987273454666138,0.4067815840244293,0.381594181060791,0.500201404094696
1629894292539,0.5899181962013245,0.404607892036438,0.3906876146793365,0.4842083156108856
1629894292648,0.578260064125061,0.408577412366867,0.4007023572921753,0.4653201401233673
1629894292742,0.5674099326133728,0.4115235805511474,0.4105406999588012,0.451909989118576
1629894292851,0.5579426288604736,0.4081726968288421,0.4160972535610199,0.4476880729198456
1629894292930,0.5500671863555908,0.3996497690677643,0.4147665202617645,0.4494439959526062
1629894293086,0.5434335470199585,0.3902429938316345,0.4089660942554474,0.4507092237472534
1629894293164,0.5374253392219543,0.3842789232730865,0.4030835032463074,0.4490256905555725
1629894293258,0.5481572151184082,0.3785032331943512,0.4018100202083587,0.4494678676128387
1629894293367,0.5582758188247681,0.3792841732501983,0.4070023596286773,0.4503317177295685
1629894293495,0.5651358366012573,0.3909960091114044,0.4169214069843292,0.4510140120983124
1629894293573,0.5591189861297607,0.4108769297599792,0.4281115233898163,0.4474373757839203
1629894293698,0.5429497957229614,0.4317109286785126,0.4383588135242462,0.4364410638809204
1629894293823,0.514447033405304,0.4479216933250427,0.4488439857959747,0.4180999398231506
1629894293869,0.4838640987873077,0.4575206339359283,0.4616463780403137,0.3992567658424377
1629894293916,0.4634254276752472,0.4650623500347137,0.4743231534957886,0.3908618092536926
1629894294073,0.455994039773941,0.4706796407699585,0.4805970788002014,0.3979835212230682
1629894294166,0.4559457898139953,0.4726432859897613,0.4765484631061554,0.4161751866340637
1629894294307,0.4589237570762634,0.4752676784992218,0.4636607468128204,0.4342324435710907
1629894294354,0.4641493260860443,0.45943284034729,0.4478590786457062,0.4410722851753235
1629894294463,0.4641493260860443,0.4506731033325195,0.4362517595291137,0.4335345923900604
1629894294544,0.4641493260860443,0.4427648186683655,0.4337761700153351,0.4335345923900604
1629894294685,0.4641493260860443,0.4301845133304596,0.4403791725635528,0.4335345923900604
1629894294778,0.4641493260860443,0.4114390611648559,0.4507908821105957,0.4335345923900604
1629894294888,0.4641493260860443,0.3821967542171478,0.459431529045105,0.4335345923900604
1629894294935,0.4641493260860443,0.3360880613327026,0.4649398028850555,0.4335345923900604
1629894295106,0.4641493260860443,0.2663603127002716,0.4691428244113922,0.4335345923900604
1629894295153,0.4641493260860443,0.1943263113498687,0.4707383215427398,0.4335345923900604
1629894295294,0.4641493260860443,0.1041384264826774,0.4630066454410553,0.4335345923900604
1629894295403,0.4641493260860443,0.0091346213594079,0.4403620660305023,0.4335345923900604
1629894295466,0.4641493260860443,0.0091346213594079,0.4062405228614807,0.4335345923900604
1629894295581,0.4641493260860443,0.0091346213594079,0.3737730681896209,0.4335345923900604
1629894295690,0.4641493260860443,0.0091346213594079,0.3576147556304931,0.4335345923900604
1629894295753,0.4641493260860443,0.0091346213594079,0.3605863451957702,0.4335345923900604
1629894295971,0.4641493260860443,0.0015397294191643,0.3725559413433075,0.4335345923900604
1629894296003,0.4641493260860443,-0.015150967054069,0.3820193111896515,0.4335345923900604
1629894296112,0.4641493260860443,-0.0313857682049274,0.3854227066040039,0.4335345923900604
1629894296221,0.4641493260860443,0.0681735500693321,0.3885171413421631,0.4335345923900604
1629894296268,0.4641493260860443,0.0946853160858154,0.3977153301239013,0.4335345923900604
1629894296378,0.4641493260860443,0.0946853160858154,0.4117120206356048,0.4335345923900604
1629894296518,0.4641493260860443,0.0946853160858154,0.4234107136726379,0.4335345923900604
1629894296565,0.4641493260860443,0.0946853160858154,0.4275856912136078,0.4335345923900604
1629894296753,0.4641493260860443,0.0946853160858154,0.425587922334671,0.4335345923900604
1629894296799,0.4641493260860443,0.0946853160858154,0.4263626933097839,0.4335345923900604
1629894296862,0.4641493260860443,0.0946853160858154,0.4383179247379303,0.4335345923900604
1629894297003,0.4641493260860443,0.0946853160858154,0.4608184397220611,0.4335345923900604
1629894297174,0.4641493260860443,0.0946853160858154,0.484292596578598,0.4335345923900604
1629894297252,0.4641493260860443,0.0946853160858154,0.4991291165351867,0.4335345923900604
1629894297362,0.4641493260860443,0.0946853160858154,0.5050506591796875,0.4335345923900604
1629894297409,0.4641493260860443,0.0946853160858154,0.5131973028182983,0.4335345923900604
1629894297534,0.4641493260860443,0.0946853160858154,0.5354248881340027,0.4335345923900604
1629894297612,0.4641493260860443,0.0946853160858154,0.5706030130386353,0.4335345923900604
1629894297768,0.4641493260860443,0.0946853160858154,0.6067354083061218,0.4335345923900604
1629894297877,0.4641493260860443,0.0946853160858154,0.6345489025115967,0.4335345923900604
1629894297909,0.4641493260860443,0.0946853160858154,0.654331624507904,0.4335345923900604
1629894297987,0.4641493260860443,0.0946853160858154,0.6708663702011108,0.4335345923900604
1629894298174,0.4641493260860443,0.0946853160858154,0.6855037212371826,0.4335345923900604
1629894298205,0.4641493260860443,0.0946853160858154,0.697091817855835,0.4335345923900604
1629894298346,0.4641493260860443,0.0946853160858154,0.705277681350708,0.4335345923900604
1629894298490,0.4641493260860443,0.0946853160858154,0.7150055766105652,0.4335345923900604
1629894298553,0.4641493260860443,0.0946853160858154,0.7334603071212769,0.4335345923900604
1629894298693,0.4641493260860443,0.0946853160858154,0.7623575329780579,0.4335345923900604
1629894298756,0.4641493260860443,0.6728843450546265,0.7940707802772522,0.4335345923900604
1629894298834,0.4641493260860443,0.7359089255332947,0.8097078204154968,0.4335345923900604
1629894298943,0.4641493260860443,0.7750608921051025,0.8235276937484741,0.4335345923900604
1629894299068,0.4641493260860443,0.7852115631103516,0.8113067746162415,0.4335345923900604
1629894299131,0.4641493260860443,0.7710656523704529,0.786952018737793,0.4335345923900604
1629894299256,0.4641493260860443,0.7428669929504395,0.7615005373954773,0.4335345923900604
1629894299318,0.4641493260860443,0.7102930545806885,0.742786169052124,0.4335345923900604
1629894299396,0.4641493260860443,0.6787617802619934,0.7299476861953735,0.4335345923900604
1629894299540,0.4641493260860443,0.650985062122345,0.7175334095954895,0.4335345923900604
1629894299634,0.4641493260860443,0.6280094981193542,0.704055905342102,0.4335345923900604
1629894299712,0.4641493260860443,0.6100708842277527,0.6922373175621033,0.4335345923900604
1629894299853,0.4641493260860443,0.5966694355010986,0.6837602853775024,0.4335345923900604
1629894299946,0.4641493260860443,0.5933108329772949,0.6721078157424927,0.4335345923900604
1629894300025,0.4641493260860443,0.5855662226676941,0.6448457837104797,0.4335345923900604
1629894300196,0.4641493260860443,0.5679042935371399,0.5949751138687134,0.4335345923900604
1629894300243,0.4244501292705536,0.5335038900375366,0.5311311483383179,0.0010513355955481
1629894300337,0.4037640988826751,0.4806886911392212,0.529208242893219,-0.0012804641155526
1629894300446,0.4037640988826751,0.4186393320560455,0.5323185324668884,-0.0012804641155526
1629894300509,0.4037640988826751,0.3659300208091736,0.539582371711731,-0.0012804641155526
1629894300634,0.4037640988826751,0.3378372490406036,0.5475167036056519,-0.0012804641155526
1629894300743,0.4037640988826751,0.3323656618595123,0.5435479879379272,-0.0012804641155526
1629894300837,0.4037640988826751,0.3370178937911987,0.5259584784507751,-0.0012804641155526
1629894300962,0.4037640988826751,0.3418610394001007,0.50197434425354,-0.0012804641155526
1629894301040,0.4037640988826751,0.3553833067417145,0.481764405965805,-0.0012804641155526
1629894301134,0.4037640988826751,0.3668540120124817,0.4723466634750366,-0.0012804641155526
1629894301259,0.4037640988826751,0.3743543922901153,0.4709009826183319,-0.0012804641155526
1629894301384,0.4037640988826751,0.3768571019172668,0.4679539799690246,-0.0012804641155526
1629894301479,0.3895267248153686,0.3734789490699768,0.4575087130069732,-0.0532792769372463
1629894301559,0.3895267248153686,0.3417380452156067,0.4430049359798431,-0.0532792769372463
1629894301668,0.3895267248153686,0.3073612153530121,0.4312235116958618,-0.0532792769372463
1629894301731,0.3895267248153686,0.2778498828411102,0.4230168163776397,-0.0532792769372463
1629894301824,0.3895267248153686,0.2601098418235779,0.4117470383644104,-0.0532792769372463
1629894301981,0.3895267248153686,0.2554316222667694,0.3919008374214172,-0.0532792769372463
1629894302074,0.6303668022155762,0.2576363980770111,0.3666463494300842,0.2064360678195953
1629894302168,0.6480384469032288,0.2579048573970794,0.3434413969516754,0.2073168456554412
1629894302246,0.6546752452850342,0.2546494007110595,0.3271803855895996,0.2124557346105575
1629894302356,0.6479966640472412,0.2549512088298797,0.3180979490280151,0.2135585993528366
1629894302449,0.630188524723053,0.2656894326210022,0.3130206763744354,0.2058179229497909
1629894302577,0.6067739129066467,0.2697035670280456,0.3076743483543396,0.190012440085411
1629894302671,0.5839413404464722,0.2695777416229248,0.2987599074840545,0.1703550666570663
1629894302749,0.566659688949585,0.2645685970783233,0.2913303971290588,0.1518091410398483
1629894302873,0.566659688949585,0.2591311931610107,0.2945235669612884,0.1518091410398483
1629894302968,0.566659688949585,0.2589076161384582,0.3088860511779785,0.1518091410398483
1629894303046,0.566659688949585,0.2756684422492981,0.3233751356601715,0.1518091410398483
1629894303200,0.566659688949585,0.2940573692321777,0.3280510008335113,0.1518091410398483
1629894303306,0.5630914568901062,0.3041813373565674,0.3234614729881286,0.1438037157058715
1629894303401,0.5595948696136475,0.3083943128585815,0.3154850006103515,0.1339604705572128
1629894303478,0.549669086933136,0.3038241267204284,0.308242917060852,0.1257908642292022
1629894303576,0.5255657434463501,0.2933582961559295,0.3030586540699005,0.1172027066349983
1629894303654,0.4848266839981079,0.2844482660293579,0.3010015487670898,0.0994313508272171
1629894303809,0.4302251040935516,0.2820880711078644,0.3041378557682037,0.0657092258334159
1629894303904,0.372534304857254,0.2826656103134155,0.3125777244567871,0.0166884753853082
1629894303998,0.372534304857254,0.2801591753959656,0.321977287530899,0.0166884753853082
1629894304091,0.372534304857254,0.3221111297607422,0.3272865712642669,0.0166884753853082
1629894304186,0.372534304857254,0.3601513206958771,0.3260234296321869,0.0166884753853082
1629894304313,0.372534304857254,0.3883204162120819,0.3165939152240753,0.0166884753853082
1629894304405,0.243215799331665,0.4034358859062195,0.2995578944683075,0.0166884753853082
1629894304549,0.2389126271009445,0.4068222045898437,0.2785098552703857,0.0166884753853082
1629894304611,0.2447340935468673,0.4074384868144989,0.2606079876422882,0.2155471444129943
1629894304718,0.251197338104248,0.4153686165809631,0.2515863180160522,0.238376036286354
1629894304795,0.2526784539222717,0.4223772287368774,0.2499260008335113,0.2454167604446411
1629894304888,0.2483796924352646,0.4251506924629211,0.2513549625873565,0.2474368810653686
1629894305015,0.2402711808681488,0.4227429032325744,0.2549743950366974,0.2503459453582763
1629894305125,0.2311438918113708,0.4194730818271637,0.2612910866737366,0.2505255043506622
1629894305203,0.2263735383749008,0.417415976524353,0.2680492401123047,0.2429120987653732
1629894305328,0.2330681532621383,0.4137830734252929,0.2701147794723511,0.2280062586069107
1629894305407,0.2513490617275238,0.4066245853900909,0.2642847299575805,0.2099642604589462
1629894305470,0.2739032208919525,0.3986802995204925,0.252846747636795,0.1936704367399215
1629894305643,0.2928550541400909,0.3833678960800171,0.2417860925197601,0.1820011436939239
1629894305721,0.3115001618862152,0.3733527958393097,0.2348518371582031,0.1762172728776931
1629894305817,0.3326968252658844,0.3694777190685272,0.231321632862091,0.1795966625213623
1629894305909,0.3584687411785126,0.3684002757072449,0.2285297214984893,0.1873910129070282
1629894305988,0.3860936164855957,0.3670998811721802,0.2280866950750351,0.1926911324262619
1629894306097,0.4093285799026489,0.3644071519374847,0.235283687710762,0.1930184066295623
1629894306239,0.4239149391651153,0.3611100316047668,0.250560462474823,0.1902787089347839
1629894306332,0.4301662743091583,0.3597144484519958,0.2687322199344635,0.1858493685722351
1629894306423,0.4319591522216797,0.3632561564445495,0.2847782671451568,0.1797448545694351
1629894306551,0.4335801601409912,0.3709957897663116,0.2992684543132782,0.1727040857076645
1629894306616,0.4361087083816528,0.3776067197322845,0.3163087069988251,0.1668644696474075
1629894306707,0.439468502998352,0.3795806765556335,0.3368827998638153,0.1637749522924423
1629894306848,0.4421717226505279,0.3810328543186188,0.3567821383476257,0.1637081205844879
1629894306935,0.4462671875953674,0.3881776928901672,0.3724257349967956,0.1680792719125747
1629894307022,0.4538743197917938,0.400158554315567,0.3844035565853119,0.1778028011322021
1629894307113,0.4650265276432037,0.4104582965373993,0.3967892527580261,0.1905710250139236
1629894307242,0.4755284786224365,0.4172439277172088,0.4139284491539001,0.2015228867530822
1629894307351,0.4816403090953827,0.4246421158313751,0.4366757869720459,0.2068658322095871
1629894307446,0.4803674817085266,0.4346896111965179,0.4610055983066559,0.2069872319698333
1629894307584,0.4711105823516845,0.4432156682014465,0.4811921417713165,0.2040530890226364
1629894307645,0.4575760066509247,0.4450162053108215,0.4940322935581207,0.2008342742919922
1629894307743,0.4466326832771301,0.4399828314781189,0.5022516250610352,0.1989827156066894
1629894307819,0.4417974352836609,0.4324807524681091,0.5103881359100342,0.1990467607975006
1629894307930,0.4421252608299255,0.4253720343112945,0.5188455581665039,0.2003040760755539
1629894308103,0.4441893696784973,0.418249249458313,0.5221747756004333,0.200945109128952
1629894308161,0.4459937214851379,0.4102967977523803,0.5147574543952942,0.2003315240144729
1629894308256,0.446326732635498,0.4022497534751892,0.4970846474170685,0.1997257769107818
1629894308368,0.4436852633953094,0.3938707411289215,0.475717157125473,0.1985319107770919
1629894308462,0.435870885848999,0.3839420080184936,0.4587551653385162,0.1943674981594085
1629894308604,0.4246160984039306,0.373651921749115,0.4504218101501465,0.1858176589012146
1629894308685,0.4145967364311218,0.3679484724998474,0.448923259973526,0.1763201206922531
1629894308762,0.4079619348049164,0.3670788407325744,0.4493885934352875,0.1695522665977478
1629894308873,0.4010705351829529,0.3653195798397064,0.4489156603813171,0.1653458774089813
1629894308968,0.3903269171714782,0.3579518795013428,0.4494737684726715,0.1614445298910141
1629894309063,0.3764790892601013,0.3470454216003418,0.4539472162723541,0.1598744094371795
1629894309144,0.3633797466754913,0.337383896112442,0.4600211381912231,0.1662561595439911
1629894309285,0.3517544269561767,0.3290183842182159,0.459902822971344,0.1829919517040252
1629894309393,0.3417544662952423,0.3176836967468261,0.4479322135448456,0.2029650509357452
1629894309489,0.3330684304237366,0.3004494905471802,0.4266686737537384,0.21705362200737
1629894309568,0.3266163170337677,0.2790617644786834,0.4056706130504608,0.2233178913593292
1629894309660,0.3239504098892212,0.2584461867809295,0.3929644525051117,0.226978987455368
1629894309754,0.3236415088176727,0.2431283742189407,0.3880480527877807,0.2337727546691894
1629894309928,0.322753369808197,0.2345260977745056,0.385785847902298,0.2458444833755493
1629894309993,0.3180221915245056,0.2305491864681244,0.3806814849376678,0.2596271634101867
1629894310100,0.3055003583431244,0.2269507795572281,0.3695012927055359,0.2697676122188568
1629894310180,0.2827034294605255,0.2189426273107528,0.3526671826839447,0.2713050842285156
1629894310269,0.2523265480995178,0.2062829583883285,0.3341742753982544,0.2634370923042297
1629894310362,0.2228785455226898,0.1933675408363342,0.3168341815471649,0.2497376352548599
1629894310502,0.2041975855827331,0.1859170645475387,0.2974522709846496,0.2339350134134292
1629894310613,0.2002946138381958,0.1868263185024261,0.2697618305683136,0.2324166148900985
1629894310691,0.2030031234025955,0.1944620162248611,0.2339585274457931,0.2217399179935455
1629894310785,0.2103101909160614,0.2056342959403991,0.2018083333969116,0.198647141456604
1629894310865,0.2210214585065841,0.216423824429512,0.1903304755687713,0.1685235053300857
1629894311007,0.2335498631000518,0.2255930751562118,0.203246384859085,0.1417982727289199
1629894311149,0.2445437014102935,0.2353215515613556,0.2280657738447189,0.1238071098923683
1629894311212,0.2506328821182251,0.2487888932228088,0.2509185671806335,0.1098278164863586
1629894311290,0.2497165501117706,0.2656233608722687,0.2672640383243561,0.0904768034815788
1629894311401,0.2420742511749267,0.2831658124923706,0.2789409458637237,0.058518961071968
1629894311479,0.2267729341983795,0.2987941205501556,0.2875530421733856,0.0131283700466156
1629894311589,0.2048763185739517,0.3131150305271148,0.2926984429359436,-0.0432150289416313
1629894311716,0.2048763185739517,0.3284877240657806,0.293797492980957,-0.0432150289416313
1629894311810,0.2048763185739517,0.3466689884662628,0.2904544770717621,-0.0432150289416313
1629894311936,0.2048763185739517,0.3667119443416595,0.28272345662117,-0.0432150289416313
1629894312014,0.2048763185739517,0.3863041996955871,0.2716613709926605,-0.0432150289416313
1629894312093,0.2659919857978821,0.4019476175308227,0.2598802447319031,0.1973950564861297
1629894312206,0.2739863097667694,0.4116850793361664,0.2499409466981887,0.194597452878952
1629894312328,0.2891284227371216,0.4157700836658478,0.241582378745079,0.1830565184354782
1629894312440,0.3143313527107239,0.4165688157081604,0.232185423374176,0.1709079295396804
1629894312549,0.3420930802822113,0.4164868891239166,0.2233577668666839,0.1604511141777038
1629894312612,0.366453468799591,0.4162746667861938,0.222175195813179,0.1496960073709488
1629894312754,0.3855639398097992,0.415613979101181,0.2329014241695404,0.1366377174854278
1629894312817,0.3990170061588287,0.4153077006340027,0.2501489222049713,0.1240374967455864
1629894312943,0.4058708548545837,0.4163163006305694,0.264634221792221,0.1153559833765029
1629894313022,0.4037556648254394,0.4187582433223724,0.2727740705013275,0.1102735325694084
1629894313103,0.3943857550621032,0.4206098020076751,0.2768888771533966,0.1084010154008865
1629894313212,0.381970465183258,0.4185636937618255,0.278531014919281,0.1095977053046226
1629894313335,0.3781175315380096,0.4096895754337311,0.2771165370941162,0.1120391190052032
1629894313432,0.3780268132686615,0.3945017755031585,0.2735028564929962,0.1132948696613311
1629894313540,0.3798800408840179,0.3761827349662781,0.2717492878437042,0.1095203608274459
1629894313651,0.3824281990528106,0.3582166135311126,0.2748951017856598,0.1013708263635635
1629894313758,0.3835558891296386,0.3419194519519806,0.2815845608711242,0.0956320837140083
1629894313837,0.3787950873374939,0.3274527192115783,0.2876803278923034,0.0956648886203765
1629894313946,0.3740015923976898,0.3163904845714569,0.2887368500232696,0.0960753783583641
1629894314025,0.3627690076828003,0.3215430974960327,0.2810423970222473,0.097345195710659
1629894314166,0.3462216556072235,0.3293917179107666,0.2617184519767761,0.1008839458227157
1629894314228,0.325231671333313,0.3369252979755401,0.2321378588676452,0.1091930866241455
1629894314388,0.3008157312870025,0.3397924900054931,0.1994943618774414,0.1207569912075996
1629894314465,0.2763479053974151,0.3346565365791321,0.1736843883991241,0.1317969113588333
1629894314530,0.2618656754493713,0.3201730847358703,0.160130888223648,0.1416077762842178
1629894314655,0.2635916471481323,0.2961314618587494,0.1559949070215225,0.1493341475725174
1629894314746,0.2792216539382934,0.2631675601005554,0.1557303071022033,0.1531019061803817
1629894314853,0.2988187968730926,0.2245714962482452,0.1553063541650772,0.1486484259366989
1629894314946,0.3121945858001709,0.1843642443418502,0.1532935053110122,0.1355015933513641
1629894315039,0.3121945858001709,0.144787847995758,0.1496726721525192,0.1355015933513641
1629894315133,0.3121945858001709,0.2331643849611282,0.1473066657781601,0.1355015933513641
1629894315243,0.3121945858001709,0.3191492259502411,0.1503460258245468,0.1355015933513641
1629894315417,0.3121945858001709,0.4008909463882446,0.1649540364742279,0.1355015933513641
1629894315480,0.3121945858001709,0.4754864573478699,0.1932043433189392,0.1355015933513641
1629894315591,0.4354195296764374,0.4867815673351288,0.2274109125137329,0.1355015933513641
1629894315669,0.4445619881153106,0.5036255717277527,0.2555405795574188,0.2904283404350281
1629894315747,0.4691669046878814,0.5182422399520874,0.2707400023937225,0.3004799783229828
1629894315872,0.500062882900238,0.5230973958969116,0.2779344022274017,0.3020515739917755
1629894315981,0.52647864818573,0.516297459602356,0.2885528206825256,0.3001593649387359
1629894316121,0.5456149578094482,0.5014985203742981,0.3085903823375702,0.2958966195583343
1629894316199,0.5586839318275452,0.4841567277908325,0.3346079587936401,0.2885250747203827
1629894316279,0.5650926232337952,0.4684204161167145,0.3612582981586456,0.2783188223838806
1629894316391,0.5648389458656311,0.4559712409973144,0.3868651390075683,0.2691302895545959
1629894316486,0.5605936646461487,0.4458197355270386,0.4122884273529053,0.2657464444637298
1629894316595,0.5579644441604614,0.4360270202159881,0.436121255159378,0.269938975572586
1629894316703,0.5612254738807678,0.4222612380981445,0.4545977711677551,0.2798381745815277
1629894316797,0.5741696953773499,0.4072998166084289,0.4658862650394439,0.2900900840759277
1629894316890,0.5852681994438171,0.3907197713851928,0.4698737561702728,0.3041336834430694
1629894316984,0.5928672552108765,0.37137371301651,0.4686185419559479,0.3100408017635345
1629894317063,0.5969957113265991,0.3467233777046203,0.4668536186218261,0.3098382949829101
1629894317201,0.5956866145133972,0.3154055178165436,0.4689634442329407,0.3080787360668182
1629894317329,0.5858036279678345,0.2808718979358673,0.4755785763263702,0.3096010684967041
1629894317403,0.5675169229507446,0.251536875963211,0.4823772311210632,0.3161151707172394
1629894317483,0.5437860488891602,0.2338352054357528,0.4852405488491058,0.325183629989624
1629894317560,0.5165236592292786,0.2268411815166473,0.4842716753482818,0.3350664973258972
1629894317685,0.4861356616020202,0.2248935848474502,0.481501817703247,0.3458648920059204
1629894317826,0.4558670222759247,0.2262893468141555,0.4759078621864319,0.3570853173732757
1629894317888,0.431478887796402,0.2320460081100464,0.4647652208805084,0.364380270242691
1629894317983,0.4155111610889435,0.2418824285268783,0.4468766748905182,0.3626866936683655
1629894318092,0.4034219980239868,0.2530646026134491,0.4256234467029571,0.3515516221523285
1629894318204,0.3884301483631134,0.2636304497718811,0.406883180141449,0.3352125287055969
1629894318264,0.3722808361053467,0.2749077379703522,0.3944188356399536,0.3215608596801758
1629894318452,0.3608153462409973,0.2873201072216034,0.3877732753753662,0.3160823583602905
1629894318532,0.3576556742191314,0.2974925935268402,0.3840641379356384,0.3189594447612762
1629894318613,0.3450075984001159,0.3021039664745331,0.3821264505386352,0.3180886209011078
1629894318703,0.3354906737804413,0.3030463457107544,0.3836525678634643,0.3172199726104736
1629894318812,0.3311009705066681,0.3052022457122803,0.3899991512298584,0.3135193288326263
1629894318904,0.332216203212738,0.3097161054611206,0.3980286121368408,0.3048992753028869
1629894319062,0.3391542434692383,0.3136415481567383,0.4008548855781555,0.2922071814537048
1629894319171,0.3533290028572082,0.3186436593532562,0.3937598466873169,0.276915043592453
1629894319232,0.3767561912536621,0.3259570002555847,0.3798449635505676,0.2592891454696655
1629894319329,0.4084629118442535,0.3318650424480438,0.3678729236125946,0.2402404397726059
1629894319451,0.4425145089626312,0.33073690533638,0.3631056249141693,0.2275510281324386
1629894319499,0.4735327363014221,0.3210510313510895,0.3626347780227661,0.2346174865961074
1629894319653,0.4989998042583465,0.3076245486736297,0.3608401119709015,0.2660410702228546
1629894319748,0.4989998042583465,0.2948768734931946,0.3562625050544739,0.2660410702228546
1629894319810,0.4989998042583465,0.2762858867645263,0.3503841459751129,0.2660410702228546
1629894319921,0.4989998042583465,0.2698783576488495,0.3436835706233978,0.2660410702228546
1629894320031,0.4989998042583465,0.2565241158008575,0.3356849253177643,0.2660410702228546
1629894320123,0.4989998042583465,0.2596102654933929,0.3247519731521606,0.2660410702228546
1629894320233,0.4989998042583465,0.2596102654933929,0.3091056048870086,0.2660410702228546
1629894320360,0.4989998042583465,0.2596102654933929,0.2889015078544616,0.2660410702228546
1629894320438,0.4989998042583465,0.2596102654933929,0.2705484330654144,0.2660410702228546
1629894320531,0.4989998042583465,0.2596102654933929,0.2628569900989532,0.2660410702228546
1629894320671,0.4989998042583465,0.2596102654933929,0.2679824233055115,0.2660410702228546
1629894320751,0.4989998042583465,0.2596102654933929,0.2773756086826324,0.2660410702228546
1629894320861,0.4989998042583465,0.2596102654933929,0.2833614349365234,0.2660410702228546
1629894321001,0.4989998042583465,0.2596102654933929,0.2869520783424377,0.2660410702228546
1629894321047,0.4989998042583465,0.2596102654933929,0.2952770888805389,0.2660410702228546
1629894321156,0.4989998042583465,0.2596102654933929,0.3113375306129455,0.2660410702228546
1629894321251,0.4989998042583465,0.2596102654933929,0.3301315605640411,0.2660410702228546
1629894321340,0.4989998042583465,0.2596102654933929,0.3446517288684845,0.2660410702228546
1629894321499,0.4989998042583465,0.2596102654933929,0.3508517146110534,0.2660410702228546
1629894321627,0.4989998042583465,0.2596102654933929,0.3496428728103637,0.2660410702228546
1629894321685,0.4989998042583465,0.2596102654933929,0.3443858325481415,0.2660410702228546
1629894321751,0.4989998042583465,0.2596102654933929,0.3390817940235138,0.2660410702228546
1629894321845,0.4989998042583465,0.2596102654933929,0.3361838161945343,0.2660410702228546
1629894321922,0.4989998042583465,0.2596102654933929,0.3343679308891296,0.2660410702228546
1629894322093,0.4989998042583465,0.2596102654933929,0.3297906517982483,0.2660410702228546
1629894322170,0.4989998042583465,0.2596102654933929,0.3206767439842224,0.2660410702228546
1629894322263,0.4989998042583465,0.2596102654933929,0.3106261193752289,0.2660410702228546
1629894322374,0.4989998042583465,0.2596102654933929,0.3042322993278503,0.2660410702228546
1629894322466,0.4989998042583465,0.2596102654933929,0.3039604425430298,0.2660410702228546
1629894322543,0.4989998042583465,0.2596102654933929,0.3080146014690399,0.2660410702228546
1629894322700,0.4989998042583465,0.2596102654933929,0.3138264417648315,0.2660410702228546
1629894322780,0.4989998042583465,0.5370444655418396,0.3188276886940002,0.2660410702228546
1629894322873,0.5391385555267334,0.5370444655418396,0.3124044239521026,0.2660410702228546
1629894322953,0.5296852588653564,0.5370444655418396,0.311051070690155,0.3456961214542389
1629894323048,0.5105962157249451,0.5370444655418396,0.3152236640453338,0.3357423543930053
1629894323158,0.5105962157249451,0.5370444655418396,0.3218676149845123,0.331741452217102
1629894323317,0.5105962157249451,0.5370444655418396,0.3278934061527252,0.3296343386173248
1629894323412,0.5105962157249451,0.5370444655418396,0.332988291978836,0.3230853974819183
1629894323521,0.5105962157249451,0.5370444655418396,0.3383605182170868,0.309751808643341
1629894323585,0.5105962157249451,0.5370444655418396,0.3464551270008087,0.2921068668365478
1629894323677,0.5105962157249451,0.5370444655418396,0.3601649403572082,0.2763403356075287
1629894323759,0.5105962157249451,0.5370444655418396,0.3812033832073211,0.270119309425354
1629894323900,0.5105962157249451,0.5370444655418396,0.4096739292144775,0.2752620875835418
1629894324011,0.5105962157249451,0.5370444655418396,0.4096739292144775,0.2859679162502289
1629894324104,0.5158520936965942,0.5370444655418396,0.4096739292144775,0.2954687774181366
1629894324227,0.5075381398200989,0.5370444655418396,0.4096739292144775,0.2918297350406647
1629894324322,0.5075381398200989,0.5370444655418396,0.4096739292144775,0.2846270203590393
1629894324368,0.5075381398200989,0.5370444655418396,0.4096739292144775,0.2784149944782257
1629894324495,0.5075381398200989,0.5370444655418396,0.4096739292144775,0.2756613194942474
1629894324636,0.5075381398200989,0.5370444655418396,0.1315099149942398,0.2738389670848846
1629894324714,0.5075381398200989,0.5370444655418396,0.1445395201444625,0.269486516714096
1629894324794,0.5075381398200989,0.5370444655418396,0.1697534918785095,0.2631966769695282
1629894324886,0.5075381398200989,0.5370444655418396,0.1900659203529358,0.2615944445133209
1629894324980,0.5075381398200989,0.5370444655418396,0.1972440481185913,0.2731229066848755
1629894325121,0.5075381398200989,0.5370444655418396,0.1948164999485016,0.3021155297756195
1629894325214,0.5075381398200989,0.5370444655418396,0.1948164999485016,0.3441027104854584
1629894325325,0.5075381398200989,0.5370444655418396,0.1948164999485016,0.3441027104854584
1629894325402,0.5075381398200989,0.5370444655418396,0.1948164999485016,0.3441027104854584
1629894325482,0.5075381398200989,0.5370444655418396,0.1948164999485016,0.3441027104854584
1629894325591,0.5075381398200989,0.5370444655418396,0.2334513962268829,0.3441027104854584
1629894325717,0.5075381398200989,0.407323956489563,0.259437620639801,0.3441027104854584
1629894325810,0.5075381398200989,0.3990914523601532,0.2732503712177276,0.3441027104854584
1629894325919,0.5075381398200989,0.3893170654773712,0.2814461886882782,0.3441027104854584
1629894326028,0.5075381398200989,0.3893170654773712,0.2826321423053741,0.3441027104854584
1629894326121,0.5075381398200989,0.3893170654773712,0.2790533006191253,0.3441027104854584
1629894326215,0.5075381398200989,0.3893170654773712,0.2742261290550232,0.3441027104854584
1629894326373,0.5075381398200989,0.3893170654773712,0.2726854383945465,0.3441027104854584
1629894326464,0.5075381398200989,0.4364210367202759,0.2793119549751282,0.3441027104854584
1629894326527,0.5075381398200989,0.4563886821269989,0.2980411350727081,0.3441027104854584
1629894326621,0.5075381398200989,0.4546344578266144,0.3267611563205719,0.3441027104854584
1629894326700,0.5075381398200989,0.4406799376010895,0.3434782028198242,0.3441027104854584
1629894326824,0.5075381398200989,0.4238788783550262,0.3554273843765259,0.3441027104854584
1629894326982,0.6945098042488098,0.4099149107933044,0.3605798482894897,0.4996777772903442
1629894327044,0.6654831171035767,0.4098520576953888,0.3593026995658874,0.4511980712413788
1629894327136,0.6615359783172607,0.4084112048149109,0.3435350060462951,0.4073713719844818
1629894327218,0.6703554391860962,0.4084097146987915,0.3251866996288299,0.3709345459938049
1629894327312,0.6751054525375366,0.4143344759941101,0.3110087513923645,0.3449237048625946
1629894327421,0.6751054525375366,0.426004558801651,0.3053460419178009,0.3449237048625946
1629894327576,0.6751054525375366,0.426004558801651,0.3098649978637695,0.3449237048625946
1629894327653,0.6751054525375366,0.426004558801651,0.3245510160923004,0.3449237048625946
1629894327778,0.6751054525375366,0.426004558801651,0.3367621302604675,0.3449237048625946
1629894327841,0.6751054525375366,0.426004558801651,0.366338700056076,0.3449237048625946
1629894327933,0.6751054525375366,0.3649282157421112,0.3867488801479339,0.3449237048625946
1629894328027,0.6751054525375366,0.2914375364780426,0.3917174041271209,0.3449237048625946
1629894328181,0.6599786281585693,0.2914375364780426,0.3821843564510345,0.304391473531723
1629894328277,0.6391761898994446,0.2914375364780426,0.3653901815414428,0.2353641837835312
1629894328354,0.6330897212028503,0.2914375364780426,0.3494004011154175,0.1579164266586303
1629894328477,0.654793381690979,0.2914375364780426,0.3404895663261413,0.102255143225193
1629894328540,0.654793381690979,0.2914375364780426,0.3422819077968597,0.102255143225193
1629894328652,0.654793381690979,0.2914375364780426,0.3558599948883056,0.102255143225193
1629894328762,0.654793381690979,0.2914375364780426,0.3678918480873108,0.102255143225193
1629894328903,0.654793381690979,0.2914375364780426,0.3842284083366394,0.102255143225193
1629894328982,0.654793381690979,0.2914375364780426,0.4036597907543182,0.102255143225193
1629894329061,0.654793381690979,0.2914375364780426,0.4225890040397644,0.102255143225193
1629894329188,0.654793381690979,0.2914375364780426,0.4225890040397644,0.102255143225193
1629894329280,0.654793381690979,0.2914375364780426,0.4225890040397644,0.102255143225193
1629894329391,0.654793381690979,0.2914375364780426,0.3979951739311218,0.102255143225193
1629894329501,0.654793381690979,0.2914375364780426,0.3659644722938537,0.102255143225193
1629894329592,0.654793381690979,0.2914375364780426,0.342935174703598,0.102255143225193
1629894329686,0.654793381690979,0.2914375364780426,0.339315265417099,0.102255143225193
1629894329768,0.654793381690979,0.2914375364780426,0.3516535460948944,0.102255143225193
1629894329867,0.654793381690979,0.2914375364780426,0.3516535460948944,0.102255143225193
1629894329999,0.654793381690979,0.2914375364780426,0.3516535460948944,0.102255143225193
1629894330112,0.654793381690979,0.2914375364780426,0.3516535460948944,0.102255143225193
1629894330191,0.654793381690979,0.2914375364780426,0.3516535460948944,0.102255143225193
1629894330287,0.654793381690979,0.2914375364780426,0.3516535460948944,0.102255143225193
1629894330383,0.654793381690979,0.2914375364780426,0.4209935963153839,0.102255143225193
1629894330472,0.654793381690979,0.2914375364780426,0.4371772110462188,0.102255143225193
1629894330600,0.654793381690979,0.5244998931884766,0.4524934291839599,0.102255143225193
1629894330694,0.654793381690979,0.5244998931884766,0.4601246118545532,0.102255143225193
1629894330791,0.654793381690979,0.5244998931884766,0.4616941213607788,0.102255143225193
1629894330900,0.654793381690979,0.5244998931884766,0.4657531678676605,0.102255143225193
1629894330994,0.654793381690979,0.5244998931884766,0.477155864238739,0.102255143225193
1629894331072,0.654793381690979,0.5244998931884766,0.4933038651943207,0.102255143225193
1629894331213,0.654793381690979,0.5244998931884766,0.508160412311554,0.102255143225193
1629894331307,0.654793381690979,0.4922599494457245,0.5186489820480347,0.102255143225193
1629894331385,0.654793381690979,0.4743611216545105,0.5239995718002319,0.102255143225193
1629894331510,0.654793381690979,0.4741013050079345,0.5252186059951782,0.102255143225193
1629894331588,0.654793381690979,0.4741013050079345,0.5314802527427673,0.102255143225193
1629894331713,0.654793381690979,0.4741013050079345,0.5394980311393738,0.102255143225193
1629894331840,0.654793381690979,0.482551634311676,0.5501211881637573,0.102255143225193
1629894331949,0.654793381690979,0.4809288382530212,0.5589884519577026,0.102255143225193
1629894332043,0.654793381690979,0.4562895894050598,0.5610372424125671,0.102255143225193
1629894332121,0.654793381690979,0.4562895894050598,0.556661069393158,0.102255143225193
1629894332199,0.654793381690979,0.4562895894050598,0.5498405694961548,0.102255143225193
1629894332309,0.654793381690979,0.4562895894050598,0.5422534942626953,0.102255143225193
1629894332434,0.654793381690979,0.4562895894050598,0.5310933589935303,0.102255143225193
1629894332559,0.654793381690979,0.4562895894050598,0.5147465467453003,0.102255143225193
1629894332621,0.654793381690979,0.3608011305332184,0.4957315325736999,0.102255143225193
1629894332718,0.654793381690979,0.3608011305332184,0.4791167378425598,0.102255143225193
1629894332827,0.654793381690979,0.3608011305332184,0.4684045016765594,0.102255143225193
1629894332905,0.654793381690979,0.3608011305332184,0.4652479887008667,0.102255143225193
1629894333046,0.654793381690979,0.3608011305332184,0.4676063954830169,0.102255143225193
1629894333139,0.654793381690979,0.3608011305332184,0.4690750241279602,0.102255143225193
1629894333233,0.654793381690979,0.3608011305332184,0.4636960625648498,0.102255143225193
1629894333327,0.654793381690979,0.3608011305332184,0.4533891677856445,0.102255143225193
1629894333436,0.654793381690979,0.3608011305332184,0.4472205936908722,0.102255143225193
1629894333546,0.654793381690979,0.3608011305332184,0.4513131380081177,0.102255143225193
1629894333656,0.654793381690979,0.3608011305332184,0.4623022973537445,0.102255143225193
1629894333742,0.654793381690979,0.3608011305332184,0.4740184247493744,0.102255143225193
1629894333851,0.654793381690979,0.3608011305332184,0.4857561886310577,0.102255143225193
1629894333961,0.654793381690979,0.3608011305332184,0.4982132315635681,0.102255143225193
1629894334039,0.654793381690979,0.3924458026885986,0.5078862309455872,0.102255143225193
1629894334133,0.4416193068027496,0.4370399713516235,0.5098842978477478,0.102255143225193
1629894334304,0.445412665605545,0.4345889985561371,0.5026142597198486,0.1922268718481063
1629894334383,0.4472909867763519,0.4292342960834503,0.4875902831554413,0.2111526429653167
1629894334461,0.4440202414989471,0.4268178045749664,0.4691559672355652,0.2281390130519867
1629894334554,0.4343250393867492,0.4340510666370392,0.4536596238613128,0.2458167821168899
1629894334648,0.4210070669651031,0.4503579139709472,0.4464473128318786,0.2608881592750549
1629894334760,0.4100438356399536,0.4690636396408081,0.446182370185852,0.2684928476810455
1629894334870,0.4100438356399536,0.4835272431373596,0.4435588419437408,0.2684928476810455
1629894334982,0.4100438356399536,0.4835272431373596,0.4296327829360962,0.2684928476810455
1629894335070,0.4100438356399536,0.4835272431373596,0.4030963480472564,0.2684928476810455
1629894335149,0.4100438356399536,0.4835272431373596,0.3706021308898926,0.2684928476810455
1629894335242,0.4100438356399536,0.4835272431373596,0.3405387997627258,0.2684928476810455
1629894335383,0.4070627987384796,0.4913400113582611,0.3166355490684509,0.2684928476810455
1629894335495,0.4033458530902862,0.4959125816822052,0.2989268004894256,0.2828314304351806
1629894335588,0.3974592387676239,0.5004627108573914,0.2877819836139679,0.2983064353466034
1629894335682,0.3876414000988006,0.508015513420105,0.2856873273849487,0.3112715482711792
1629894335776,0.3715371191501617,0.5204778909683228,0.2964372932910919,0.3211264312267303
1629894335870,0.3473986983299255,0.5408200025558472,0.3203775584697723,0.330927163362503
1629894335963,0.3473986983299255,0.5678251385688782,0.3487258851528168,0.330927163362503
1629894336104,0.3473986983299255,0.5431774854660034,0.3696058690547943,0.330927163362503
1629894336229,0.3473986983299255,0.5003919005393982,0.3772862553596496,0.330927163362503
1629894336291,0.3473986983299255,0.4368731081485748,0.3758740723133087,0.330927163362503
1629894336401,0.3473986983299255,0.3626219630241394,0.3758389949798584,0.330927163362503
1629894336480,0.4792865514755249,0.3650037348270416,0.3851042687892914,0.4002024531364441
1629894336576,0.5138903856277466,0.3679821789264679,0.4048720300197601,0.3950369954109192
1629894336716,0.5550259947776794,0.3697777986526489,0.430513858795166,0.3878613114356994
1629894336810,0.5919417142868042,0.3704172372817993,0.4559852182865143,0.3820077180862427
1629894336904,0.6157212257385254,0.3712232708930969,0.4763100743293762,0.3771123886108398
1629894336982,0.6231778264045715,0.3736005127429962,0.4906558990478515,0.3686144351959228
1629894337091,0.6174382567405701,0.3792544305324554,0.5014288425445557,0.3532653450965881
1629894337185,0.6049803495407104,0.3890144228935241,0.5097464919090271,0.3343570828437805
1629894337326,0.5909664630889893,0.401074081659317,0.5121639370918274,0.3172153830528259
1629894337419,0.5772756934165955,0.4109838008880615,0.5052350163459778,0.3050851821899414
1629894337516,0.5651022791862488,0.4146798551082611,0.4899078607559204,0.2983641922473907
1629894337594,0.5651022791862488,0.41646808385849,0.4712642729282379,0.2983641922473907
1629894337688,0.5704925656318665,0.4196367263793945,0.4550956189632416,0.2835578024387359
1629894337828,0.580213189125061,0.4232892394065857,0.4441070556640625,0.2742182612419128
1629894337906,0.5900772213935852,0.4277365207672119,0.4369612336158752,0.2642225325107574
1629894338031,0.5951836109161377,0.4322753846645355,0.4312199652194977,0.2498444318771362
1629894338109,0.5911433100700378,0.4369463324546814,0.4245944023132324,0.2336145937442779
1629894338188,0.5725089311599731,0.442797988653183,0.416696697473526,0.2165865898132324
1629894338297,0.5364941954612732,0.4505882561206817,0.4091892540454864,0.1946735978126526
1629894338391,0.4868797063827514,0.4600793719291687,0.4046525061130523,0.1646089851856231
1629894338550,0.4357759654521942,0.4701172709465027,0.4039227068424225,0.1333984136581421
1629894338644,0.3974995613098144,0.4773406684398651,0.4079666137695312,0.1199555397033691
1629894338769,0.3974995613098144,0.475661963224411,0.4186998307704925,0.1199555397033691
1629894338816,0.3974995613098144,0.475661963224411,0.4369828402996063,0.1199555397033691
1629894338909,0.3974995613098144,0.475661963224411,0.4599132835865021,0.1199555397033691
1629894339003,0.3974995613098144,0.475661963224411,0.4830182492733001,0.1199555397033691
1629894339159,0.3974995613098144,0.475661963224411,0.5033571720123291,0.1199555397033691
1629894339222,0.3974995613098144,0.3328225612640381,0.5190955400466919,0.1199555397033691
1629894339362,0.3974995613098144,0.3667495846748352,0.5289995074272156,0.1199555397033691
1629894339425,0.3974995613098144,0.3667495846748352,0.5324950218200684,0.1199555397033691
1629894339537,0.3974995613098144,0.3667495846748352,0.530214786529541,0.1199555397033691
1629894339599,0.3974995613098144,0.3667495846748352,0.5234102606773376,0.1199555397033691
1629894339771,0.3974995613098144,0.3667495846748352,0.5138598680496216,0.1199555397033691
1629894339834,0.3974995613098144,0.3667495846748352,0.5027686953544617,0.1199555397033691
1629894339943,0.3974995613098144,0.3667495846748352,0.4897331297397613,0.1199555397033691
1629894340052,0.3974995613098144,0.3667495846748352,0.4730139374732971,0.1199555397033691
1629894340146,0.3974995613098144,0.3667495846748352,0.4503056704998016,0.1199555397033691
1629894340240,0.3974995613098144,0.3667495846748352,0.4209423363208771,0.1199555397033691
1629894340365,0.3974995613098144,0.3667495846748352,0.3876433372497558,0.1199555397033691
1629894340471,0.3974995613098144,0.3965456485748291,0.3546234965324402,0.1199555397033691
1629894340549,0.3974995613098144,0.3965456485748291,0.3235049843788147,0.1199555397033691
1629894340643,0.3974995613098144,0.3965456485748291,0.2913317680358886,0.1199555397033691
1629894340768,0.3974995613098144,0.3965456485748291,0.268532395362854,0.1199555397033691
1629894340815,0.3974995613098144,0.3965456485748291,0.2579222917556762,0.1199555397033691
1629894340971,0.3974995613098144,0.3965456485748291,0.2588876187801361,0.1199555397033691
1629894341096,0.3974995613098144,0.3965456485748291,0.2659366726875305,0.1199555397033691
1629894341190,0.3974995613098144,0.3965456485748291,0.2755002975463867,0.1199555397033691
1629894341237,0.3974995613098144,0.3965456485748291,0.2889137864112854,0.1199555397033691
1629894341330,0.3974995613098144,0.3965456485748291,0.3091976642608642,0.1199555397033691
1629894341440,0.3974995613098144,0.1585055291652679,0.3349847197532654,0.1199555397033691
1629894341596,0.3274714052677154,0.1836859136819839,0.3605572581291199,0.3219362795352936
1629894341690,0.330856055021286,0.234603613615036,0.379252016544342,0.3505207002162933
1629894341770,0.3400376737117767,0.2906373143196106,0.3869713842868805,0.3725556433200836
1629894341863,0.3535857796669006,0.3350731432437897,0.3839218020439148,0.3822128176689148
1629894341957,0.3622791171073913,0.3624162375926971,0.3737953305244446,0.3798908591270447
1629894342098,0.3619244694709778,0.3755353689193725,0.3592418432235718,0.3710010051727295
1629894342191,0.3526005744934082,0.3785794377326965,0.3460706770420074,0.3603891730308532
1629894342285,0.3526005744934082,0.3758528232574463,0.3321274518966675,0.3603891730308532
1629894342379,0.3526005744934082,0.370086669921875,0.3151969313621521,0.3603891730308532
1629894342473,0.3526005744934082,0.3668520152568817,0.3103470802307129,0.3603891730308532
1629894342582,0.3526005744934082,0.3692623972892761,0.3058191537857055,0.3603891730308532
1629894342676,0.3526005744934082,0.387982428073883,0.3114617764949798,0.3603891730308532
1629894342773,0.3563576936721802,0.407602310180664,0.3218633234500885,0.371968924999237
1629894342914,0.3600141108036041,0.4254126250743866,0.3228961527347564,0.3808344602584839
1629894343023,0.363708883523941,0.4387564361095428,0.3071666061878204,0.3861718773841858
1629894343101,0.3685802519321441,0.4451777338981628,0.2784493863582611,0.3842544257640838
1629894343195,0.3733080923557281,0.4435908198356628,0.2466132193803787,0.3700383901596069
1629894343273,0.3707887530326843,0.4350249171257019,0.2215635776519775,0.3414755165576935
1629894343429,0.3707887530326843,0.422696053981781,0.2042506635189056,0.3414755165576935
1629894343496,0.3707887530326843,0.4112643599510193,0.1915017217397689,0.3414755165576935
1629894343605,0.3707887530326843,0.4040418565273285,0.1800642907619476,0.3414755165576935
1629894343714,0.3707887530326843,0.4015585482120514,0.1692399084568023,0.3414755165576935
1629894343777,0.3707887530326843,0.4036925733089447,0.1595682948827743,0.3414755165576935
1629894343886,0.3707887530326843,0.4105528891086578,0.1516074985265731,0.3414755165576935
1629894344027,0.3707887530326843,0.4166439473628998,0.1410672813653946,0.3414755165576935
1629894344136,0.3707887530326843,0.417868435382843,0.1400337219238281,0.3414755165576935
1629894344183,0.3707887530326843,0.4122616648674011,0.1231962218880653,0.3414755165576935
1629894344292,0.3707887530326843,0.4024111926555633,0.1003236249089241,0.3414755165576935
1629894344417,0.3707887530326843,0.393121987581253,0.0745901688933372,0.3414755165576935
1629894344499,0.3707887530326843,0.3881731927394867,0.0529567264020442,0.3414755165576935
1629894344640,0.3707887530326843,0.3871662020683288,0.0444285534322261,0.3414755165576935
1629894344718,0.3707887530326843,0.384949266910553,0.0564483180642128,0.3414755165576935
1629894344827,0.3707887530326843,0.3802337646484375,0.0856070518493652,0.3414755165576935
1629894344921,0.3707887530326843,0.3760323226451874,0.1213385611772537,0.3414755165576935
1629894345015,0.3707887530326843,0.4305048584938049,0.1520541161298751,0.3414755165576935
1629894345108,0.3707887530326843,0.4676540493965149,0.1760199069976806,0.3414755165576935
1629894345249,0.3707887530326843,0.4676540493965149,0.1998494565486908,0.3414755165576935
1629894345343,0.3707887530326843,0.4676540493965149,0.2324160933494568,0.3414755165576935
1629894345436,0.3707887530326843,0.4676540493965149,0.2752804458141327,0.3414755165576935
1629894345515,0.3707887530326843,0.4676540493965149,0.3216603696346283,0.3414755165576935
1629894345609,0.3707887530326843,0.4676540493965149,0.3621376156806946,0.3414755165576935
1629894345748,0.3707887530326843,0.4676540493965149,0.3929449915885925,0.3414755165576935
1629894345868,0.3707887530326843,0.4676540493965149,0.4161497950553894,0.3414755165576935
1629894345941,0.3707887530326843,0.4676540493965149,0.436251550912857,0.3414755165576935
1629894346045,0.3707887530326843,0.4676540493965149,0.4551924467086792,0.3414755165576935
1629894346124,0.3707887530326843,0.4676540493965149,0.4713982939720154,0.3414755165576935
1629894346216,0.3707887530326843,0.4676540493965149,0.4821059703826904,0.3414755165576935
1629894346339,0.3707887530326843,0.47508105635643,0.4865892231464386,0.3414755165576935
1629894346480,0.3707887530326843,0.47508105635643,0.4879652261734009,0.3414755165576935
1629894346558,0.3707887530326843,0.47508105635643,0.491170585155487,0.3414755165576935
1629894346652,0.3707887530326843,0.47508105635643,0.4977340698242187,0.3414755165576935
1629894346747,0.3707887530326843,0.47508105635643,0.5050194263458252,0.3414755165576935
1629894346841,0.3707887530326843,0.47508105635643,0.5084370374679565,0.3414755165576935
1629894346919,0.3707887530326843,0.47508105635643,0.5054109692573547,0.3414755165576935
1629894347059,0.3707887530326843,0.47508105635643,0.4959249496459961,0.3414755165576935
1629894347137,0.3707887530326843,0.47508105635643,0.4825017750263214,0.3414755165576935
1629894347278,0.3707887530326843,0.2832450568675995,0.4687139987945556,0.3414755165576935
1629894347371,0.3707887530326843,0.250242680311203,0.4577674567699432,0.3414755165576935
1629894347449,0.3707887530326843,0.2335734814405441,0.4521322548389435,0.3414755165576935
1629894347530,0.3707887530326843,0.2377226054668426,0.4522908329963684,0.3414755165576935
1629894347707,0.3707887530326843,0.261865884065628,0.456312894821167,0.3414755165576935
1629894347772,0.3707887530326843,0.2725520133972168,0.4600338637828827,0.3414755165576935
1629894347850,0.3707887530326843,0.299342006444931,0.459075003862381,0.3414755165576935
1629894347959,0.5720454454421997,0.3226733803749084,0.4513969719409942,0.5531273484230042
1629894348038,0.5476224422454834,0.3361392617225647,0.4382455050945282,0.5186176896095276
1629894348116,0.5509443879127502,0.3451569676399231,0.4231611490249634,0.4992868304252624
1629894348274,0.5631665587425232,0.3504410684108734,0.4094821810722351,0.4910232126712799
1629894348399,0.5631665587425232,0.3501604795455932,0.3974657952785492,0.48790442943573
1629894348493,0.5631665587425232,0.345386654138565,0.3901295363903045,0.48790442943573
1629894348571,0.5631665587425232,0.340372234582901,0.3814000785350799,0.48790442943573
1629894348665,0.5631665587425232,0.3478474617004394,0.3727307915687561,0.48790442943573
1629894348777,0.5631665587425232,0.3605616986751556,0.3636235892772674,0.48790442943573
1629894348886,0.5631665587425232,0.3737194240093231,0.3510736227035522,0.48790442943573
1629894348996,0.5631665587425232,0.3846794664859772,0.3300557732582092,0.48790442943573
1629894349121,0.5631665587425232,0.3930980265140533,0.2973896861076355,0.48790442943573
1629894349183,0.5280418395996094,0.3925076425075531,0.2536891996860504,0.4587459564208984
1629894349292,0.5036975145339966,0.3843589425086975,0.2071485072374344,0.4261262416839599
1629894349417,0.510812520980835,0.3805799186229706,0.1752594709396362,0.4072637856006622
1629894349496,0.510812520980835,0.3765456676483154,0.2190347611904144,0.4111251533031463
1629894349605,0.510812520980835,0.3777626752853393,0.2985766530036926,0.4111251533031463
1629894349683,0.510812520980835,0.3888506293296814,0.3761448860168457,0.4111251533031463
1629894349775,0.510812520980835,0.3875049948692322,0.4325031638145447,0.4111251533031463
1629894349868,0.510812520980835,0.3910247385501861,0.4706814289093017,0.4111251533031463
1629894349962,0.510812520980835,0.4008624255657196,0.4741891026496887,0.4111251533031463
1629894350134,0.510812520980835,0.4137681424617767,0.4742743968963623,0.4111251533031463
1629894350212,0.510812520980835,0.4251062870025635,0.4711224138736725,0.4111251533031463
1629894350306,0.510812520980835,0.4344456493854522,0.4665479362010956,0.4111251533031463
1629894350399,0.510812520980835,0.4460929632186889,0.4637022316455841,0.4111251533031463
1629894350505,0.510812520980835,0.461652934551239,0.4651079177856445,0.4111251533031463
1629894350567,0.510812520980835,0.474794328212738,0.4705007076263428,0.4111251533031463
1629894350755,0.510812520980835,0.474794328212738,0.4776430428028106,0.4111251533031463
1629894350833,0.510812520980835,0.474794328212738,0.4860092997550964,0.4111251533031463
1629894350911,0.510812520980835,0.474794328212738,0.4960359632968902,0.4111251533031463
1629894351005,0.510812520980835,0.474794328212738,0.5147029161453247,0.4111251533031463
1629894351083,0.510812520980835,0.474794328212738,0.5272653698921204,0.4111251533031463
1629894351192,0.510812520980835,0.474794328212738,0.5323693752288818,0.4111251533031463
1629894351321,0.510812520980835,0.474794328212738,0.5316351652145386,0.4111251533031463
1629894351415,0.510812520980835,0.474794328212738,0.5281704664230347,0.4111251533031463
1629894351527,0.510812520980835,0.474794328212738,0.5251219868659973,0.4111251533031463
1629894351621,0.510812520980835,0.474794328212738,0.525220513343811,0.4111251533031463
1629894351699,0.510812520980835,0.474794328212738,0.5288615822792053,0.4111251533031463
1629894351793,0.510812520980835,0.474794328212738,0.5327425003051758,0.4111251533031463
1629894351918,0.510812520980835,0.474794328212738,0.5330654978752136,0.4111251533031463
1629894352027,0.510812520980835,0.474794328212738,0.5290619730949402,0.4111251533031463
1629894352137,0.510812520980835,0.474794328212738,0.5226892232894897,0.4111251533031463
1629894352215,0.510812520980835,0.474794328212738,0.5155909061431885,0.4111251533031463
1629894352308,0.510812520980835,0.474794328212738,0.5056823492050171,0.4111251533031463
1629894352402,0.510812520980835,0.474794328212738,0.4903814196586609,0.4111251533031463
1629894352530,0.510812520980835,0.474794328212738,0.4718009233474731,0.4111251533031463
1629894352655,0.510812520980835,0.474794328212738,0.4564373791217804,0.4111251533031463
1629894352733,0.510812520980835,0.2441500276327133,0.4498703181743622,0.4111251533031463
1629894352827,0.510812520980835,0.2519845962524414,0.4515476822853088,0.4111251533031463
1629894352952,0.510812520980835,0.2519845962524414,0.4573355615139007,0.4111251533031463
1629894353045,0.510812520980835,0.2519845962524414,0.4629249572753906,0.4111251533031463
1629894353170,0.510812520980835,0.2519845962524414,0.4655117690563202,0.4111251533031463
1629894353248,0.510812520980835,0.2519845962524414,0.4634741544723511,0.4111251533031463
1629894353326,0.510812520980835,0.2519845962524414,0.4572867155075073,0.4111251533031463
1629894353436,0.510812520980835,0.2519845962524414,0.4493716359138489,0.4111251533031463
1629894353516,0.510812520980835,0.2519845962524414,0.4419122040271759,0.4111251533031463
1629894353626,0.510812520980835,0.2519845962524414,0.4361862242221832,0.4111251533031463
1629894353798,0.510812520980835,0.2519845962524414,0.4340473115444183,0.4111251533031463
1629894353874,0.510812520980835,0.2519845962524414,0.4369421899318695,0.4111251533031463
1629894353968,0.510812520980835,0.2652966678142547,0.4436506032943725,0.4111251533031463
1629894354077,0.510812520980835,0.3168023228645324,0.4496162533760071,0.4111251533031463
1629894354155,0.510812520980835,0.3975131511688232,0.4499646425247192,0.4111251533031463
1629894354264,0.3482773602008819,0.4797039031982422,0.4437086582183838,0.082604132592678
1629894354374,0.3291953206062317,0.5400981903076172,0.4345199763774872,0.1009112522006034
1629894354468,0.3291953206062317,0.5429394245147705,0.4263158142566681,0.1009112522006034
1629894354595,0.3291953206062317,0.5429394245147705,0.4211024641990661,0.1009112522006034
1629894354657,0.3291953206062317,0.5429394245147705,0.4189381599426269,0.1009112522006034
1629894354751,0.3291953206062317,0.5429394245147705,0.4203701019287109,0.1009112522006034
1629894354845,0.3291953206062317,0.5429394245147705,0.4266530573368072,0.1009112522006034
1629894354985,0.3291953206062317,0.5429394245147705,0.4368131756782532,0.1009112522006034
1629894355079,0.3291953206062317,0.5429394245147705,0.4469335675239563,0.1009112522006034
1629894355173,0.3291953206062317,0.5429394245147705,0.452871173620224,0.1009112522006034
1629894355251,0.3291953206062317,0.5429394245147705,0.4522414207458496,0.1009112522006034
1629894355392,0.3291953206062317,0.5429394245147705,0.4465703964233398,0.1009112522006034
1629894355470,0.2952297925949096,0.5681837797164917,0.4397632181644439,0.1122815161943435
1629894355598,0.2952297925949096,0.5909510850906372,0.4359281063079834,0.1122815161943435
1629894355676,0.2952297925949096,0.5229972004890442,0.436197280883789,0.1122815161943435
1629894355769,0.2952297925949096,0.42613685131073,0.4378887116909027,0.1122815161943435
1629894355894,0.2952297925949096,0.3059526979923248,0.4370375573635101,0.1122815161943435
1629894355957,0.2952297925949096,0.1842318028211593,0.4318382740020752,0.1122815161943435
1629894356066,0.2952297925949096,0.1958678960800171,0.4245378375053406,0.3486872911453247
1629894356207,0.3015123307704925,0.2117186188697815,0.4193311333656311,0.3865557909011841
1629894356285,0.3426685929298401,0.2302571237087249,0.4174906015396118,0.4087833166122436
1629894356379,0.3631036877632141,0.2487654089927673,0.4163290560245514,0.407925933599472
1629894356492,0.3631036877632141,0.2635407745838165,0.4121377468109131,0.407925933599472
1629894356570,0.3631036877632141,0.2725657522678375,0.4032804071903229,0.407925933599472
1629894356679,0.3631036877632141,0.2759698629379272,0.392561137676239,0.407925933599472
1629894356835,0.3631036877632141,0.2759698629379272,0.3847703635692596,0.407925933599472
1629894356960,0.3631036877632141,0.2759698629379272,0.3831536471843719,0.407925933599472
1629894357023,0.3631036877632141,0.2759698629379272,0.387622982263565,0.407925933599472
1629894357116,0.3631036877632141,0.2759698629379272,0.3941714465618133,0.407925933599472
1629894357195,0.3631036877632141,0.2875787019729614,0.3987340033054352,0.407925933599472
1629894357320,0.3631036877632141,0.297781765460968,0.4005411863327026,0.4096174538135528
1629894357429,0.4015908241271972,0.3085645139217376,0.4004501402378082,0.431526243686676
1629894357541,0.4405349195003509,0.3208266496658325,0.3975433707237243,0.461929589509964
1629894357666,0.4405349195003509,0.3659090399742126,0.3891298770904541,0.461929589509964
1629894357697,0.4405349195003509,0.3938136100769043,0.3744556009769439,0.461929589509964
1629894357838,0.4405349195003509,0.4063166677951813,0.3598780333995819,0.461929589509964
1629894357916,0.4405349195003509,0.4138660132884979,0.3561672568321228,0.461929589509964
1629894358025,0.4405349195003509,0.4277794361114502,0.3685356676578522,0.461929589509964
1629894358135,0.3121515810489654,0.4521628618240356,0.3903147280216217,0.4983049631118774
1629894358228,0.3230288624763489,0.4829101860523224,0.4088195860385895,0.4865988194942474
1629894358337,0.3411706387996673,0.488042265176773,0.4172821640968323,0.474642276763916
1629894358430,0.3599556684494018,0.484866738319397,0.4180868566036224,0.4644157886505127
1629894358511,0.3752909004688263,0.4755947291851043,0.4164352118968963,0.4532665908336639
1629894358652,0.3863371610641479,0.4641082286834717,0.4153263568878174,0.4397971630096435
1629894358745,0.3929165601730346,0.4529764354228973,0.4157674312591553,0.4256265759468078
1629894358839,0.3938056230545044,0.4441051185131073,0.4179406464099884,0.4142423868179321
1629894358948,0.3909117579460144,0.4401396512985229,0.4224825799465179,0.4099733829498291
1629894359073,0.3901228010654449,0.4420180022716522,0.4298472106456756,0.4137410819530487
1629894359120,0.3954407572746277,0.4416217505931854,0.438916802406311,0.421914666891098
1629894359230,0.4046508371829986,0.4446850121021271,0.4468930959701538,0.4292405843734741
1629894359339,0.4172413945198059,0.4479782879352569,0.449524313211441,0.4292086958885193
1629894359448,0.4317031502723694,0.4475597143173218,0.4438950717449188,0.4234615564346313
1629894359529,0.445492148399353,0.4412625432014465,0.4307363331317901,0.4150936603546142
1629894359623,0.4548713564872741,0.4297812581062317,0.4166027307510376,0.4101861715316772
1629894359701,0.4575466215610504,0.4170629382133484,0.4101662635803222,0.4126170873641968
1629894359889,0.4548624157905578,0.4091238677501678,0.412996232509613,0.4212064445018768
1629894359967,0.4504950046539306,0.4095290005207062,0.4177264273166656,0.4322174191474914
1629894360045,0.4466113448143005,0.4156760275363922,0.4179145991802215,0.4421530961990356
1629894360170,0.4419683218002319,0.4231915771961212,0.4138559103012085,0.4482593834400177
1629894360248,0.4358374774456024,0.4299022853374481,0.4095121920108795,0.4489754736423492
1629894360342,0.4308728873729706,0.4357306659221649,0.4096838235855102,0.4438847601413727
1629894360467,0.430512011051178,0.4400341212749481,0.418382465839386,0.4330034554004669
1629894360579,0.4321577548980713,0.4419808089733124,0.4368197321891784,0.4178244769573211
1629894360673,0.4301578998565674,0.4359515607357025,0.4595918357372284,0.4098685979843139
1629894360782,0.4227462708950043,0.4289956092834472,0.4789392650127411,0.4000544846057892
1629894360860,0.4124760329723358,0.4254205822944641,0.4923970401287079,0.3927153944969177
1629894360954,0.4010917246341705,0.4268989861011505,0.5018986463546753,0.3891902863979339
1629894361079,0.389029860496521,0.4327265918254852,0.5088220238685608,0.3876413106918335
1629894361204,0.3788868486881256,0.4413201510906219,0.511689305305481,0.3839908540248871
1629894361298,0.374702125787735,0.4498300552368164,0.5108389854431152,0.3720182776451111
1629894361374,0.3745028078556061,0.4541636705398559,0.5113805532455444,0.3452276885509491
1629894361466,0.3721739649772644,0.4525055289268493,0.5178496837615967,0.3005551695823669
1629894361561,0.3641187846660614,0.4487139582633972,0.5271669030189514,0.2417983263731002
1629894361701,0.3563326895236969,0.4485995769500732,0.5319481492042542,0.1816992312669754
1629894361798,0.3563326895236969,0.4053373634815216,0.5283364057540894,0.1816992312669754
1629894361892,0.3563326895236969,0.3590852916240692,0.517600953578949,0.1816992312669754
1629894361972,0.3563326895236969,0.2981935143470764,0.5013680458068848,0.1816992312669754
1629894362066,0.3563326895236969,0.2077255845069885,0.4812486171722412,0.1816992312669754
1629894362173,0.3563326895236969,0.2114928513765335,0.4626020193099975,0.1816992312669754
1629894362290,0.434420108795166,0.2228098064661026,0.4539405107498169,0.1816992312669754
1629894362384,0.4136264622211456,0.23939049243927,0.4572829306125641,0.1564351469278335
1629894362478,0.3960523009300232,0.2537669539451599,0.4663234949111938,0.1895966976881027
1629894362637,0.388863742351532,0.2587606906890869,0.4743514955043793,0.2062508910894394
1629894362699,0.39704629778862,0.2547175884246826,0.4805370569229126,0.2124610245227813
1629894362777,0.4107692837715149,0.2467337101697921,0.4846942722797394,0.2135723084211349
1629894362935,0.4166402220726013,0.2408872693777084,0.4835283458232879,0.2125986665487289
1629894363012,0.4101670086383819,0.2408872693777084,0.4735683500766754,0.2107349783182144
1629894363105,0.3965663015842438,0.2408872693777084,0.4563811421394348,0.2087498158216476
1629894363211,0.3828621804714203,0.2408872693777084,0.4391203224658966,0.20597505569458
1629894363289,0.3718551695346832,0.2775355577468872,0.4295744299888611,0.201497346162796
1629894363383,0.3629757165908813,0.3060075342655182,0.4301422834396362,0.1964018195867538
1629894363540,0.3446429073810577,0.3209490478038788,0.4380673170089721,0.1930907368659973
1629894363602,0.3322255313396454,0.3261599838733673,0.4475497603416443,0.2004429101943969
1629894363696,0.3254781663417816,0.3270114064216614,0.4526232481002807,0.2072058171033859
1629894363791,0.3198970258235931,0.3249553442001343,0.4492476284503937,0.2104628682136535
1629894363871,0.3128449022769928,0.3187718987464905,0.4381789267063141,0.2097624689340591
1629894363965,0.3055143654346466,0.309491366147995,0.4238068759441376,0.2080450356006622
1629894364122,0.2960805594921112,0.3020221889019012,0.411336749792099,0.2087605595588684
1629894364233,0.2799475491046905,0.3002962470054626,0.4021756052970886,0.2109220921993255
1629894364328,0.2592853307723999,0.3039273917675018,0.3949684500694275,0.2117038965225219
1629894364421,0.2439452111721038,0.3081814348697662,0.3893774747848511,0.2086312770843505
1629894364551,0.2435890138149261,0.3037122786045074,0.3879557251930237,0.2026283890008926
1629894364597,0.255588561296463,0.3024165034294128,0.3943866491317749,0.1972109526395797
1629894364737,0.2708483934402466,0.3089649081230163,0.4081080257892608,0.1982578188180923
1629894364814,0.2757596373558044,0.3057683110237121,0.422325998544693,0.2018970400094986
1629894364923,0.2801172435283661,0.3138385117053985,0.428879976272583,0.2073438763618469
1629894365001,0.282451868057251,0.3316869139671325,0.4246361851692199,0.2122371941804886
1629894365125,0.2816969156265259,0.3348219394683838,0.4122338891029358,0.2148957103490829
1629894365205,0.2792081832885742,0.3413907885551452,0.3972047865390777,0.2154768705368042
1629894365377,0.2804940044879913,0.3484231531620025,0.3824784755706787,0.2135566025972366
1629894365438,0.2897521257400512,0.3565542995929718,0.3666095733642578,0.2079057097434997
1629894365549,0.3050636351108551,0.3678469359874725,0.3471263349056244,0.1965166479349136
1629894365629,0.3214893639087677,0.3834796249866485,0.3237829506397247,0.1787547916173935
1629894365740,0.3360434770584106,0.4025236368179321,0.2992947697639465,0.1562077105045318
1629894365850,0.3498475551605224,0.4237967133522033,0.2766352891921997,0.134812980890274
1629894365975,0.3498475551605224,0.4485509693622589,0.2564708292484283,0.134812980890274
1629894366053,0.3498475551605224,0.4610601961612701,0.238857701420784,0.134812980890274
1629894366130,0.3498475551605224,0.4697796404361725,0.2234931290149688,0.134812980890274
1629894366224,0.3498475551605224,0.4633654057979584,0.2086846381425857,0.134812980890274
1629894366320,0.3498475551605224,0.4387575089931488,0.1927930861711502,0.134812980890274
1629894366428,0.3498475551605224,0.4053171575069427,0.1770485490560531,0.134812980890274
1629894366554,0.3498475551605224,0.3755893409252167,0.1655209213495254,0.134812980890274
1629894366666,0.3498475551605224,0.3837898075580597,0.1646962314844131,0.134812980890274
1629894366746,0.3498475551605224,0.378101646900177,0.1786375045776367,0.134812980890274
1629894366836,0.3498475551605224,0.3605035543441772,0.2059868574142456,0.134812980890274
1629894366918,0.3498475551605224,0.3401074111461639,0.2395598143339157,0.134812980890274
1629894367024,0.4745318293571472,0.3248703181743622,0.2725074291229248,0.161818042397499
1629894367168,0.4703410267829895,0.3166500926017761,0.3036091327667236,0.1677326112985611
1629894367246,0.4715930819511413,0.3135445415973663,0.3348057866096496,0.1891678273677826
1629894367340,0.4714984595775604,0.313132107257843,0.3661993741989136,0.2173337638378143
1629894367431,0.4674626886844635,0.3137120902538299,0.3946998119354248,0.243400365114212
1629894367525,0.4586171507835388,0.310693621635437,0.416181355714798,0.2614544332027435
1629894367635,0.4586171507835388,0.3048636019229889,0.4286353588104248,0.2614544332027435
1629894367775,0.4586171507835388,0.3019879758358001,0.4346969425678253,0.2614544332027435
1629894367902,0.4586171507835388,0.298111617565155,0.4407637417316437,0.2614544332027435
1629894368001,0.4586171507835388,0.2886982560157776,0.4519431591033935,0.2614544332027435
1629894368058,0.4586171507835388,0.2714992165565491,0.4677639603614807,0.2614544332027435
1629894368153,0.4586171507835388,0.2519385814666748,0.4837691485881805,0.2614544332027435
1629894368233,0.445823460817337,0.2415019571781158,0.4952075183391571,0.2693100571632385
1629894368389,0.4392614662647247,0.2479617148637771,0.5007306933403015,0.2809832096099853
1629894368481,0.4409267902374267,0.2661081254482269,0.501672625541687,0.3005619347095489
1629894368592,0.4454516768455505,0.2848033607006073,0.5005612373352051,0.3274093270301819
1629894368654,0.4435027241706848,0.2976486086845398,0.4990697503089905,0.3557969331741333
1629894368747,0.4435027241706848,0.3867069184780121,0.4964393675327301,0.3557969331741333
1629894368871,0.4435027241706848,0.4643941521644592,0.4914320707321167,0.3557969331741333
1629894369028,0.4435027241706848,0.524427056312561,0.4851576685905456,0.3557969331741333
1629894369110,0.4435027241706848,0.5670578479766846,0.4799911677837372,0.3557969331741333
1629894369186,0.4435027241706848,0.6175277233123779,0.4778903722763061,0.3557969331741333
1629894369281,0.4435027241706848,0.6175277233123779,0.4784747660160064,0.3557969331741333
1629894369374,0.4435027241706848,0.6175277233123779,0.4790850281715393,0.3557969331741333
1629894369467,0.4435027241706848,0.6175277233123779,0.477262407541275,0.3557969331741333
1629894369609,0.4435027241706848,0.6175277233123779,0.4717971086502075,0.3557969331741333
1629894369686,0.4435027241706848,0.6175277233123779,0.4616956710815429,0.3557969331741333
1629894369812,0.4435027241706848,0.6175277233123779,0.4480166435241699,0.3557969331741333
1629894369920,0.4435027241706848,0.5872143507003784,0.4339184165000915,0.3557969331741333
1629894370015,0.4435027241706848,0.5639610290527344,0.4238443374633789,0.3557969331741333
1629894370074,0.4435027241706848,0.5479190945625305,0.419377714395523,0.3557969331741333
1629894370215,0.4435027241706848,0.5363256335258484,0.4164294302463531,0.3557969331741333
1629894370325,0.3894717395305633,0.5141493678092957,0.4104860723018646,0.1356786042451858
1629894370418,0.3481760025024414,0.4868840277194977,0.401434987783432,0.1414795666933059
1629894370497,0.3086357712745666,0.4651612639427185,0.3918730914592743,0.1358135938644409
1629894370588,0.2874574363231659,0.4575121104717254,0.3837566375732422,0.132111445069313
1629894370716,0.2874574363231659,0.4692579507827759,0.376574158668518,0.132111445069313
1629894370827,0.2874574363231659,0.4789471924304962,0.3683848083019256,0.132111445069313
1629894370901,0.2874574363231659,0.4867145717144012,0.3602641522884369,0.132111445069313
1629894371011,0.2874574363231659,0.4941299855709076,0.3562505841255188,0.132111445069313
1629894371104,0.2874574363231659,0.4941299855709076,0.3643008768558502,0.132111445069313
1629894371229,0.2874574363231659,0.4941299855709076,0.3891471624374389,0.132111445069313
1629894371308,0.2874574363231659,0.4941299855709076,0.4236035943031311,0.132111445069313
1629894371463,0.2874574363231659,0.4978055655956268,0.4534241259098053,0.132111445069313
1629894371529,0.2590595185756683,0.5039104223251343,0.47028848528862,0.1438978612422943
1629894371623,0.2134252041578292,0.5100855827331543,0.4764625132083893,0.1516022831201553
1629894371701,0.1533787846565246,0.5167366862297058,0.4820377826690674,0.1465058475732803
1629894371810,0.1533787846565246,0.5113868713378906,0.49388587474823,0.1465058475732803
1629894371904,0.1533787846565246,0.5045586824417114,0.5099231004714966,0.1465058475732803
1629894372045,0.1533787846565246,0.5068637132644653,0.5239107608795166,0.1465058475732803
1629894372124,0.1533787846565246,0.5040342211723328,0.5329482555389404,0.1465058475732803
1629894372238,0.1533787846565246,0.4952539205551147,0.540839672088623,0.1465058475732803
1629894372332,0.1533787846565246,0.4816314578056335,0.5541113615036011,0.1465058475732803
1629894372424,0.1533787846565246,0.4603686928749084,0.5728103518486023,0.1465058475732803
1629894372516,0.1533787846565246,0.4603686928749084,0.5897098779678345,0.1465058475732803
1629894372671,0.1533787846565246,0.4603686928749084,0.5954678654670715,0.1465058475732803
1629894372749,0.1533787846565246,0.4603686928749084,0.5851927995681763,0.1465058475732803
1629894372847,0.1533787846565246,0.4603686928749084,0.5619407892227173,0.1465058475732803
1629894372954,0.1533787846565246,0.4603686928749084,0.535364031791687,0.1465058475732803
1629894373017,0.1533787846565246,0.4603686928749084,0.514815092086792,0.1465058475732803
1629894373140,0.1533787846565246,0.4603686928749084,0.5032809972763062,0.1465058475732803
1629894373250,0.1533787846565246,0.4603686928749084,0.4965910315513611,0.1465058475732803
1629894373377,0.1533787846565246,0.4603686928749084,0.4910816848278045,0.1465058475732803
1629894373470,0.1533787846565246,0.4603686928749084,0.4839219152927398,0.1465058475732803
1629894373548,0.1533787846565246,0.4603686928749084,0.4788658022880554,0.1465058475732803
1629894373626,0.1533787846565246,0.4603686928749084,0.4788914620876312,0.1465058475732803
1629894373766,0.1533787846565246,0.4603686928749084,0.4797685146331787,0.1465058475732803
1629894373925,0.1533787846565246,0.4603686928749084,0.4722031652927398,0.1465058475732803
1629894373955,0.1533787846565246,0.4603686928749084,0.4502556324005127,0.1465058475732803
1629894374082,0.1533787846565246,0.4603686928749084,0.4173391461372375,0.1465058475732803
1629894374162,0.1533787846565246,0.4603686928749084,0.3845177888870239,0.1465058475732803
1629894374240,0.1533787846565246,0.4603686928749084,0.4134853184223175,0.1465058475732803
1629894374335,0.1533787846565246,0.4603686928749084,0.4549673199653625,0.1465058475732803
1629894374462,0.1533787846565246,0.4603686928749084,0.4973827004432678,0.1465058475732803
1629894374602,0.1533787846565246,0.7961400151252747,0.5367525219917297,0.1465058475732803
1629894374696,0.1533787846565246,0.7985004186630249,0.5740343332290649,0.1465058475732803
1629894374777,0.1533787846565246,0.822356641292572,0.6138347387313843,0.1465058475732803
1629894374885,0.1533787846565246,0.8516878485679626,0.6623419523239136,0.1465058475732803
1629894374947,0.1533787846565246,0.8516878485679626,0.6996944546699524,0.1465058475732803
1629894375105,0.1533787846565246,0.8516878485679626,0.6996944546699524,0.6597387194633484
1629894375200,0.1533787846565246,0.8516878485679626,0.6996944546699524,0.6532853245735168
1629894375280,0.1533787846565246,0.8516878485679626,0.7115088105201721,0.6515020728111267
1629894375373,0.5203569531440735,0.8516878485679626,0.7069705724716187,0.654555082321167
1629894375465,0.5498581528663635,0.8516878485679626,0.7069705724716187,0.6582756042480469
1629894375556,0.5893310904502869,0.8822055459022522,0.7069705724716187,0.6599893569946289
1629894375715,0.6338688135147095,0.9159314632415771,0.7110549211502075,0.6602818369865417
1629894375779,0.6709161400794983,0.9505527019500732,0.7299684882164001,0.6603601574897766
1629894375873,0.6952598690986633,0.9857379794120787,0.7533711791038513,0.6598930954933167
1629894375967,0.7100322842597961,1.017544150352478,0.7750018835067749,0.6587367057800293
1629894376091,0.7202081084251404,1.0406831502914429,0.7892751097679138,0.6574543118476868
1629894376185,0.7498863339424133,1.0549300909042358,0.8039718270301819,0.6574668288230896
1629894376312,0.7782670855522156,1.064139485359192,0.8150744438171387,0.6606988906860352
1629894376422,0.7988614439964294,1.070115089416504,0.8160229325294495,0.6601586937904358
1629894376532,0.7989608645439148,1.0677006244659424,0.8276780247688293,0.6577224731445312
1629894376595,0.796505331993103,1.0634571313858032,0.8517305254936218,0.6555730104446411
1629894376670,0.7938743829727173,1.0584429502487185,0.8677895069122314,0.6538169980049133
1629894376780,0.7922058701515198,1.053223729133606,0.8826465010643005,0.6497038006782532
1629894376924,0.800018846988678,1.0466182231903076,0.9003880023956299,0.6410142779350281
1629894377032,0.803109347820282,1.0374475717544556,0.89410001039505,0.6271510720252991
1629894377113,0.797685444355011,1.0248206853866575,0.8906716704368591,0.6091673970222473
1629894377205,0.7848185896873474,1.00627338886261,0.904521107673645,0.5890442132949829
1629894377315,0.7699097990989685,0.9884299039840698,0.9188771843910216,0.5692678093910217
1629894377408,0.7568347454071045,0.9785911440849304,0.932186484336853,0.5524258613586426
1629894377567,0.7515894770622253,0.9708476066589355,0.9390217661857604,0.5450272560119629
1629894377630,0.74669349193573,0.9680305123329164,0.9390217661857604,0.5367416143417358
1629894377772,0.7386466860771179,0.9663522243499756,0.9390217661857604,0.524966299533844
1629894377820,0.7273582220077515,0.9605430364608764,0.9390217661857604,0.5085371732711792
1629894377898,0.7152668237686157,0.9499239921569824,0.9390217661857604,0.4884787201881408
1629894377995,0.7047369480133057,0.9379019141197203,0.9364930391311646,0.4667618870735168
1629894378119,0.6964482069015503,0.9266768097877502,0.9292142391204834,0.4435915350914001
1629894378249,0.6868740320205688,0.9152713418006896,0.9216905832290648,0.4163888692855835
1629894378319,0.671716570854187,0.9024485349655152,0.9198543429374696,0.3834107518196106
1629894378448,0.6513274312019348,0.8922520279884338,0.928533673286438,0.3474942445755005
1629894378511,0.634675920009613,0.8944595456123352,0.949461817741394,0.3204841017723083
1629894378602,0.634675920009613,0.8944595456123352,0.949461817741394,0.3204841017723083
1629894378735,0.634675920009613,0.8944595456123352,0.949461817741394,0.3204841017723083
1629894378829,0.634675920009613,0.8944595456123352,0.949461817741394,0.3204841017723083
1629894378951,0.634675920009613,0.8944595456123352,0.949461817741394,0.3204841017723083
1629894379048,0.634675920009613,0.6801044344902039,0.949461817741394,0.3204841017723083
1629894379113,0.634675920009613,0.66066575050354,0.949461817741394,0.3204841017723083
1629894379204,0.634675920009613,0.6334863305091858,0.949461817741394,0.3204841017723083
1629894379376,0.634675920009613,0.6073586344718933,0.949461817741394,0.3204841017723083
1629894379470,0.634675920009613,0.5872493386268616,0.949461817741394,0.3204841017723083
1629894379579,0.634675920009613,0.5744431018829346,0.949461817741394,0.3204841017723083
1629894379644,0.634675920009613,0.5681177377700806,0.949461817741394,0.3204841017723083
1629894379735,0.634675920009613,0.5678623914718628,0.949461817741394,0.3204841017723083
1629894379828,0.6423958539962769,0.5721768140792847,0.868800163269043,0.3204841017723083
1629894379984,0.6144576668739319,0.5769883990287781,0.8206434845924377,0.3204841017723083
1629894380077,0.5747904181480408,0.5783215761184692,0.7921953797340393,0.3204841017723083
1629894380156,0.5329887866973877,0.5748290419578552,0.7745141386985779,0.3602954149246216
1629894380251,0.498852789402008,0.562649667263031,0.7590057849884033,0.3311481177806854
1629894380314,0.498852789402008,0.5420722365379333,0.703199565410614,0.3311481177806854
1629894380422,0.498852789402008,0.5155766606330872,0.5847208499908447,0.3311481177806854
1629894380564,0.498852789402008,0.4900700151920318,0.595241904258728,0.3311481177806854
1629894380674,0.498852789402008,0.4749866127967834,0.595241904258728,0.3311481177806854
1629894380764,0.498852789402008,0.4757517576217651,0.595241904258728,0.3311481177806854
1629894380858,0.498852789402008,0.4807266891002655,0.595241904258728,0.3311481177806854
1629894380968,0.498852789402008,0.4859782457351684,0.595241904258728,0.3311481177806854
1629894381033,0.4759334921836853,0.4886379837989807,0.595241904258728,0.3187451660633087
1629894381173,0.4343505203723907,0.5182327032089233,0.595241904258728,0.3187451660633087
1629894381300,0.3695410490036011,0.5398650169372559,0.6046679019927979,0.3187451660633087
1629894381418,0.2829763889312744,0.560126543045044,0.6203964352607727,0.3187451660633087
1629894381473,0.2829763889312744,0.5808599591255188,0.6372256875038147,0.3187451660633087
1629894381553,0.2829763889312744,0.5976030826568604,0.6635186672210693,0.3187451660633087
1629894381647,0.2829763889312744,0.6046320796012878,0.6858431100845337,0.3187451660633087
1629894381803,0.2829763889312744,0.6024507284164429,0.7056662440299988,0.3187451660633087
1629894381864,0.2829763889312744,0.599275529384613,0.6996400952339172,0.3187451660633087
1629894381992,0.2829763889312744,0.6051033735275269,0.6888105869293213,0.3187451660633087
1629894382066,0.2829763889312744,0.6239272952079773,0.6807792782783508,0.3187451660633087
1629894382179,0.2829763889312744,0.6505753397941589,0.6698734760284424,0.3187451660633087
1629894382274,0.2829763889312744,0.663427472114563,0.6630351543426514,0.3187451660633087
1629894382416,0.2829763889312744,0.6773113012313843,0.6572357416152954,0.3187451660633087
1629894382507,0.2829763889312744,0.6873124837875366,0.6497591137886047,0.3187451660633087
1629894382585,0.2829763889312744,0.6896101236343384,0.640283465385437,0.3187451660633087
1629894382696,0.2829763889312744,0.6851041316986084,0.6306849122047424,0.3187451660633087
1629894382791,0.2829763889312744,0.6803516745567322,0.6233347654342651,0.3187451660633087
1629894382853,0.2829763889312744,0.6714138984680176,0.6206117272377014,0.3187451660633087
1629894383009,0.2829763889312744,0.658297061920166,0.6223415732383728,0.3187451660633087
1629894383119,0.2829763889312744,0.6483381390571594,0.6199658513069153,0.3187451660633087
1629894383216,0.2829763889312744,0.6527291536331177,0.6161625385284424,0.3187451660633087
1629894383308,0.2829763889312744,0.6754559874534607,0.6121329069137573,0.3187451660633087
1629894383388,0.2829763889312744,0.7090117335319519,0.6084355711936951,0.3187451660633087
1629894383484,0.2829763889312744,0.7422512173652649,0.6057709455490112,0.3187451660633087
1629894383624,0.2829763889312744,0.7676874995231628,0.6041198372840881,0.3187451660633087
1629894383703,0.2829763889312744,0.7817655801773071,0.6017887592315674,0.3187451660633087
1629894383812,0.2829763889312744,0.7389028072357178,0.5980861783027649,0.3187451660633087
1629894383907,0.2829763889312744,0.6733354926109314,0.594650387763977,0.3187451660633087
1629894384000,0.2829763889312744,0.5954878926277161,0.5927809476852417,0.3187451660633087
1629894384080,0.4743957221508026,0.5333773493766785,0.591286301612854,0.570869505405426
1629894384221,0.475023090839386,0.5257314443588257,0.5884917378425598,0.5432054996490479
1629894384316,0.4717420041561126,0.5182415843009949,0.5854374766349792,0.5077420473098755
1629894384395,0.464664489030838,0.5137926936149597,0.5830227136611938,0.4715840220451355
1629894384550,0.4576073884963989,0.5173028707504272,0.5798429846763611,0.4398314952850342
1629894384627,0.4538593590259552,0.5290941596031189,0.5734820365905762,0.4144890606403351
1629894384705,0.4534798264503479,0.5432798862457275,0.5654235482215881,0.394857794046402
1629894384845,0.4558760225772857,0.5524777173995972,0.5610470175743103,0.3804894387722015
1629894384940,0.4615563154220581,0.5534642934799194,0.5634260773658752,0.372246503829956
1629894385050,0.4706647396087646,0.5481063723564148,0.5688142776489258,0.3701159656047821
1629894385130,0.4809485077857971,0.539960503578186,0.5709525346755981,0.3713836371898651
1629894385221,0.4878908991813659,0.5308563709259033,0.5666508078575134,0.3717205226421356
1629894385299,0.4866046905517578,0.5160280466079712,0.5568452477455139,0.3514514863491058
1629894385460,0.4825553297996521,0.4999860227108001,0.5443863272666931,0.3225178122520447
1629894385554,0.475005179643631,0.4826285243034363,0.5323222875595093,0.2913098633289337
1629894385680,0.4663622081279754,0.4636330902576446,0.5231837034225464,0.2652762532234192
1629894385734,0.4622917771339416,0.4441098868846893,0.5155989527702332,0.2506187260150909
1629894385840,0.4670082032680511,0.4257784783840179,0.5035563111305237,0.2491885721683502
1629894385902,0.4777432084083557,0.4086370170116424,0.4817928075790405,0.257149189710617
1629894386060,0.4870048463344574,0.3905929625034332,0.4514832496643066,0.2690977752208709
1629894386155,0.4891908466815948,0.3706848621368408,0.4184091091156006,0.2825427055358886
1629894386295,0.4839600026607513,0.351351797580719,0.3847336173057556,0.2983947098255157
1629894386359,0.4740853905677795,0.3374881148338318,0.3460476100444793,0.3148215711116791
1629894386469,0.4610397517681122,0.332370787858963,0.2974396347999573,0.3248598277568817
1629894386516,0.4452576637268066,0.3361145555973053,0.2416503429412841,0.3220236301422119
1629894386675,0.4277339875698089,0.3469187021255493,0.1890572011470794,0.3070134818553924
1629894386800,0.4118671119213104,0.3635245859622955,0.1503408551216125,0.2878466844558716
1629894386863,0.4014049470424652,0.3851611316204071,0.1262949258089065,0.2721791565418243
1629894386945,0.3968736231327057,0.4128233790397644,0.1090385764837265,0.2614626288414001
1629894387067,0.3975983262062073,0.4485838711261749,0.0924170687794685,0.2559227645397186
1629894387115,0.4003735482692718,0.4931143522262573,0.0769873484969139,0.2569820880889892
1629894387274,0.4001839458942413,0.5406496524810791,0.0697773173451423,0.2649888098239898
1629894387384,0.3938367962837219,0.581500768661499,0.074720412492752,0.2746460139751434
1629894387448,0.3825871050357818,0.6087420582771301,0.0875967517495155,0.2796237766742706
1629894387567,0.3706454634666443,0.6220136880874634,0.1004676148295402,0.2777096033096313
1629894387652,0.3602451086044311,0.6254153251647949,0.109554722905159,0.2711317837238312
1629894387746,0.3522381782531738,0.6235933899879456,0.1201728731393814,0.2636428773403168
1629894387873,0.3472477793693542,0.6203027963638306,0.1377762705087661,0.2591319382190704
1629894387981,0.3469721674919128,0.6186928749084473,0.161247044801712,0.2610556483268738
1629894388074,0.3496386408805847,0.6202049255371094,0.184514433145523,0.2700889408588409
1629894388170,0.3515383303165436,0.6239454746246338,0.2039479464292526,0.2833015322685241
1629894388262,0.3514802753925323,0.6275096535682678,0.2226603925228119,0.2989256978034973
1629894388386,0.3514036536216736,0.629176914691925,0.2475925981998443,0.3193093538284302
1629894388481,0.3526665568351745,0.6274401545524597,0.2808457612991333,0.3447214663028717
1629894388637,0.3529291749000549,0.6194692850112915,0.3158555328845978,0.3677713274955749
1629894388698,0.3504302501678467,0.6019437909126282,0.3427277505397796,0.3787575364112854
1629894388779,0.3453165590763092,0.5773578882217407,0.3554257154464721,0.3750041723251343
1629894388855,0.3382267951965332,0.5553683042526245,0.3553144633769989,0.3622238934040069
1629894388980,0.3296090960502624,0.5455518364906311,0.3482484221458435,0.3631073534488678
1629894389137,0.3234212398529053,0.5429756045341492,0.3416167199611664,0.3686485290527344
1629894389247,0.3244592249393463,0.5481435060501099,0.3401923775672912,0.3769208788871765
1629894389277,0.3332388699054718,0.5565372109413147,0.343881756067276,0.3825628459453583
1629894389375,0.3442545533180237,0.5654332041740417,0.3508309721946716,0.3817390501499176
1629894389483,0.3495673537254333,0.5727471113204956,0.3619219362735748,0.3757611215114593
1629894389578,0.3468108475208282,0.5757806301116943,0.3785205781459808,0.3711725175380707
1629894389706,0.3406727313995361,0.5727571249008179,0.3971074819564819,0.3742335736751556
1629894389798,0.3366378545761108,0.5649077892303467,0.4096948802471161,0.3817004561424255
1629894389913,0.3348193168640136,0.5560809969902039,0.4100525081157684,0.3786212503910064
1629894390050,0.3348272442817688,0.550320565700531,0.4008669555187225,0.3492687046527862
1629894390083,0.3348272442817688,0.5509644150733948,0.3929160237312317,0.3492687046527862
1629894390161,0.3348272442817688,0.5509644150733948,0.397702008485794,0.3492687046527862
1629894390334,0.3348272442817688,0.5509644150733948,0.4188980162143707,0.3492687046527862
1629894390427,0.3348272442817688,0.5509644150733948,0.4505671858787536,0.3492687046527862
1629894390537,0.3348272442817688,0.5509644150733948,0.4848326444625854,0.3492687046527862
1629894390601,0.2415007352828979,0.389523833990097,0.5157946944236755,0.3492687046527862
1629894390710,0.2473950982093811,0.3761115372180938,0.5400975942611694,0.0324809290468692
1629894390788,0.2473950982093811,0.3761115372180938,0.556689977645874,0.0324809290468692
1629894390945,0.2473950982093811,0.3761115372180938,0.5670900940895081,0.0324809290468692
1629894391023,0.2473950982093811,0.3761115372180938,0.5733098983764648,0.0324809290468692
1629894391163,0.2473950982093811,0.3761115372180938,0.5765482187271118,0.0324809290468692
1629894391226,0.2473950982093811,0.3761115372180938,0.5779377222061157,0.0324809290468692
1629894391304,0.2473950982093811,0.3761115372180938,0.5801906585693359,0.0324809290468692
1629894391429,0.2473950982093811,0.3761115372180938,0.5859331488609314,0.0324809290468692
1629894391542,0.2473950982093811,0.3761115372180938,0.593331515789032,0.0324809290468692
1629894391635,0.2473950982093811,0.3761115372180938,0.5974945425987244,0.0324809290468692
1629894391729,0.2473950982093811,0.3761115372180938,0.596035897731781,0.0324809290468692
1629894391807,0.2489060908555984,0.3436714112758636,0.5910236239433289,0.0324809290468692
1629894391917,0.2489060908555984,0.3436714112758636,0.5853822827339172,0.0324809290468692
1629894392010,0.2489060908555984,0.3436714112758636,0.5787521600723267,0.0324809290468692
1629894392167,0.2489060908555984,0.3436714112758636,0.5686625838279724,0.0324809290468692
1629894392229,0.2489060908555984,0.3436714112758636,0.5546334981918335,0.0324809290468692
1629894392322,0.2489060908555984,0.3794136345386505,0.5383921265602112,0.2901453971862793
1629894392432,0.3848220109939575,0.3892910778522491,0.5222415924072266,0.32108274102211
1629894392544,0.3728569447994232,0.4054887592792511,0.5082632303237915,0.3384737372398376
1629894392622,0.3668835163116455,0.4272083044052124,0.4995269179344177,0.3494713604450226
1629894392778,0.3789867162704468,0.4487943947315216,0.4984472393989563,0.3557814061641693
1629894392872,0.4057480096817016,0.4639220237731933,0.5024482011795044,0.3587211370468139
1629894392965,0.4316490590572357,0.4716050326824188,0.5048837661743164,0.3613991141319275
1629894393075,0.4316490590572357,0.4737688302993774,0.5019165873527527,0.3613991141319275
1629894393184,0.4316490590572357,0.4738236367702484,0.496831864118576,0.3613991141319275
1629894393247,0.4316490590572357,0.4738236367702484,0.496796190738678,0.3613991141319275
1629894393387,0.4316490590572357,0.4738236367702484,0.5038885474205017,0.3613991141319275
1629894393450,0.4316490590572357,0.4738236367702484,0.5156310796737671,0.3613991141319275
1629894393562,0.4316490590572357,0.4848469197750091,0.5315002202987671,0.3830763697624206
1629894393691,0.4391200840473175,0.4942589998245239,0.5517732501029968,0.3983407914638519
1629894393740,0.4450175166130066,0.5035581588745117,0.5731804966926575,0.40473672747612
1629894393849,0.4516138434410095,0.5143036842346191,0.5895064473152161,0.4031378924846649
1629894393974,0.4657843708992004,0.5254920125007629,0.5958380699157715,0.3982886970043182
1629894394068,0.495456337928772,0.5328537821769714,0.5920856595039368,0.3936663269996643
1629894394146,0.495456337928772,0.5316746830940247,0.5805215835571289,0.3936663269996643
1629894394287,0.495456337928772,0.4764259159564972,0.5637258887290955,0.3936663269996643
1629894394365,0.495456337928772,0.4239499866962433,0.545257568359375,0.3936663269996643
1629894394491,0.495456337928772,0.3838787972927093,0.5292133688926697,0.3936663269996643
1629894394586,0.3619612753391266,0.3592429161071777,0.5170813202857971,0.3360975384712219
1629894394695,0.3516967892646789,0.3421894311904907,0.5061722993850708,0.3001158535480499
1629894394789,0.3654901683330536,0.3527184426784515,0.4903404116630554,0.2849422991275787
1629894394883,0.3918111026287079,0.358425498008728,0.4664089679718017,0.297589510679245
1629894394961,0.4171813428401947,0.3597707152366638,0.4362460672855377,0.3252698481082916
1629894395070,0.4335628747940063,0.3555823266506195,0.4026552736759186,0.3512288331985473
1629894395242,0.439777135848999,0.3453296422958374,0.369341641664505,0.3692786693572998
1629894395289,0.4389698207378387,0.3328200578689575,0.3416459858417511,0.3814005851745605
1629894395398,0.4338883459568023,0.3246650695800781,0.3245334327220917,0.3894861340522766
1629894395511,0.4295064508914947,0.3244778215885162,0.3195534348487854,0.3936663866043091
1629894395620,0.4300797283649444,0.3293059766292572,0.3219286203384399,0.3935315012931824
1629894395699,0.4367638230323791,0.3334412276744842,0.3264789879322052,0.390532910823822
1629894395824,0.4439664781093597,0.3391884565353393,0.3304433822631836,0.3845239877700805
1629894395902,0.4591153562068939,0.3382722735404968,0.3315021395683288,0.377539724111557
1629894396027,0.4775064289569855,0.3339740633964538,0.3279390335083008,0.3757669925689697
1629894396089,0.4958332777023315,0.3288542330265045,0.3320105373859405,0.3862074315547943
1629894396198,0.5089438557624817,0.3240863382816314,0.3365078866481781,0.4061513841152191
1629894396277,0.5128574967384338,0.3201253116130829,0.34003546833992,0.4238789975643158
1629894396464,0.5089730620384216,0.3168685138225555,0.3407347798347473,0.4294176995754242
1629894396545,0.5022785663604736,0.3147746622562408,0.3267186880111694,0.4219680428504944
1629894396607,0.4987590909004211,0.3161627054214477,0.3158956170082092,0.4100745618343353
1629894396732,0.5008034110069275,0.3246960639953613,0.3058851659297943,0.4017783403396606
1629894396810,0.5064243674278259,0.3401635289192199,0.2930426001548767,0.3976377844810486
1629894396888,0.5132954716682434,0.3580826818943023,0.2792425453662872,0.3931095898151397
1629894397045,0.518214762210846,0.3760881125926971,0.2695474326610565,0.3865057826042175
1629894397123,0.5187166333198547,0.395808607339859,0.2652008831501007,0.3811270594596863
1629894397248,0.5117783546447754,0.4180308878421783,0.2611955404281616,0.3788771629333496
1629894397310,0.4965623617172241,0.4392482936382293,0.2532479763031006,0.3779224157333374
1629894397404,0.4761353433132171,0.4538406133651733,0.2432926446199417,0.374902993440628
1629894397516,0.4572806060314178,0.4601660668849945,0.2398780137300491,0.3667406439781189
1629894397641,0.4458546638488769,0.4628268778324127,0.24148690700531,0.3515304028987884
1629894397735,0.4457156956195831,0.4684357345104217,0.2524999678134918,0.3302446901798248
1629894397828,0.4564312398433685,0.4795982837677002,0.2669382989406585,0.3084629774093628
1629894397922,0.4745232164859772,0.4943821132183075,0.2814886569976806,0.2938350141048431
1629894398031,0.4946426451206207,0.5103771686553955,0.3033680617809295,0.2906944453716278
1629894398125,0.5094825625419617,0.5259075164794922,0.3251188099384308,0.2950407862663269
1629894398266,0.5139123797416687,0.5398845076560974,0.3460498452186584,0.3002775907516479
1629894398375,0.5086739659309387,0.5502597689628601,0.3643782436847687,0.303974986076355
1629894398422,0.499601811170578,0.5542327165603638,0.3803531229496002,0.3097492754459381
1629894398550,0.5019608736038208,0.5487279891967773,0.3970462083816528,0.3073119521141052
1629894398659,0.5059514045715332,0.5333840250968933,0.4071346223354339,0.3075417578220367
1629894398737,0.5134775638580322,0.52434241771698,0.4194637537002563,0.3074935376644134
1629894398862,0.5274307727813721,0.5164263248443604,0.4406109750270843,0.3091877102851867
1629894399003,0.5482367277145386,0.5157782435417175,0.4608368873596191,0.3180243074893951
1629894399081,0.5698447227478027,0.5243087410926819,0.4835950434207916,0.3356960117816925
1629894399143,0.5858556628227234,0.5261304974555969,0.5089312195777893,0.3579984605312347
1629894399237,0.5921614766120911,0.5237533450126648,0.532132625579834,0.3810644149780273
1629894399346,0.58738112449646,0.5133228302001953,0.5483128428459167,0.4044291973114013
1629894399487,0.567674994468689,0.4975015223026275,0.5556060671806335,0.4281266629695892
1629894399583,0.5265340805053711,0.4797105491161346,0.5537277460098267,0.4498322606086731
1629894399645,0.5265340805053711,0.4593505561351776,0.5428742170333862,0.4498322606086731
1629894399770,0.5265340805053711,0.4337006211280823,0.5260598063468933,0.4498322606086731
1629894399848,0.5265340805053711,0.4028981328010559,0.5097132325172424,0.4498322606086731
1629894399926,0.5265340805053711,0.3733905553817749,0.5000980496406555,0.4498322606086731
1629894400093,0.5716219544410706,0.3541957437992096,0.4973565936088562,0.5413392186164856
1629894400203,0.5528865456581116,0.3480528891086578,0.5006116628646851,0.5260690450668335
1629894400264,0.5369088649749756,0.3461953699588775,0.505871057510376,0.5071625709533691
1629894400373,0.5267087817192078,0.3484874665737152,0.5094532370567322,0.4855974316596985
1629894400466,0.5190069675445557,0.356030136346817,0.5089517831802368,0.4603903889656067
1629894400608,0.5083601474761963,0.3682838976383209,0.4989732801914215,0.4337206184864044
1629894400708,0.4939447343349457,0.379492312669754,0.4782053828239441,0.4112466871738434
1629894400782,0.4800478816032409,0.3853746354579925,0.4611522257328033,0.3976979851722717
1629894400878,0.4699945747852325,0.382708877325058,0.4443859159946441,0.3926837742328644
1629894400969,0.4642401337623596,0.3717353045940399,0.4233381450176239,0.3920287787914276
1629894401081,0.4600124359130859,0.3556990027427673,0.4114175736904144,0.3917364180088043
1629894401171,0.4548341631889343,0.3396210968494415,0.4112097024917602,0.3904307186603546
1629894401283,0.4360173642635345,0.3260050415992737,0.4218949675559997,0.3786531686782837
1629894401377,0.4191750884056091,0.3161502182483673,0.4354816079139709,0.3569630682468414
1629894401504,0.4080462753772735,0.3100374937057495,0.4407697319984436,0.3292866051197052
1629894401598,0.403631716966629,0.307680994272232,0.4315307736396789,0.3011471331119537
1629894401734,0.3985939025878906,0.3088445663452148,0.4086084365844726,0.2873353958129883
1629894401765,0.3946544229984283,0.3126429617404938,0.3771842122077942,0.2775425910949707
1629894401921,0.3887477517127991,0.3078192472457886,0.3476222157478332,0.2731270492076874
1629894402009,0.3815535604953766,0.2953647077083587,0.3338954448699951,0.2772423923015594
1629894402087,0.3783623874187469,0.2714270651340484,0.3427994549274444,0.2897710800170898
1629894402195,0.3827529847621918,0.2374543994665146,0.3661030828952789,0.3044558763504028
1629894402289,0.3911244571208954,0.2029707282781601,0.3836760520935058,0.3126988112926483
1629894402367,0.3978815674781799,0.1814871281385421,0.3928715884685516,0.3096697330474853
1629894402511,0.3994274437427521,0.1782959699630737,0.3998030722141266,0.2959248423576355
1629894402590,0.3991237282752991,0.1876337677240371,0.3988157212734222,0.2749333083629608
1629894402699,0.4049519896507263,0.2032177746295929,0.3908573389053345,0.2469435930252075
1629894402824,0.4049519896507263,0.2256718277931213,0.3797163963317871,0.2469435930252075
1629894402902,0.4049519896507263,0.3271801471710205,0.3724530935287475,0.2469435930252075
1629894402996,0.4049519896507263,0.4073875546455383,0.376649796962738,0.2469435930252075
1629894403106,0.4049519896507263,0.4703381061553955,0.3939314782619476,0.2469435930252075
1629894403247,0.4049519896507263,0.5154200196266174,0.4170469641685486,0.3571279644966125
1629894403309,0.4049519896507263,0.5417505502700806,0.4373131096363067,0.3535951972007751
1629894403403,0.4049519896507263,0.5341996550559998,0.449086457490921,0.3463905453681946
1629894403499,0.4049519896507263,0.5236943364143372,0.4500719010829925,0.3318871259689331
1629894403609,0.4049519896507263,0.5105258226394653,0.4408861398696899,0.3138859272003174
1629894403749,0.4049519896507263,0.4949450194835663,0.4267646074295044,0.2982437908649444
1629894403827,0.4049519896507263,0.4788097441196441,0.4168193936347961,0.2873688340187073
1629894403952,0.4049519896507263,0.4650203287601471,0.4178267419338226,0.2790264785289764
1629894404030,0.4049519896507263,0.4545945525169372,0.4269125759601593,0.2790264785289764
1629894404109,0.4049519896507263,0.4545945525169372,0.4351370632648468,0.2790264785289764
1629894404234,0.4049519896507263,0.4545945525169372,0.4359858632087707,0.2790264785289764
1629894404358,0.4049519896507263,0.4545945525169372,0.4294092655181885,0.2790264785289764
1629894404452,0.4049519896507263,0.4470913112163543,0.4196383655071258,0.2669571340084076
1629894404548,0.4049519896507263,0.4370920658111572,0.4110940098762512,0.2543779015541076
1629894404611,0.4049519896507263,0.4220404624938965,0.4070682227611542,0.2426900863647461
1629894404739,0.4049519896507263,0.4018376767635345,0.4096968173980713,0.22715425491333
1629894404837,0.4049519896507263,0.3795237839221954,0.4182643294334411,0.2053163796663284
1629894404978,0.4049519896507263,0.3570479452610016,0.4297902882099151,0.1813852936029434
1629894405071,0.4049519896507263,0.3345783948898315,0.4411936998367309,0.1674820184707641
1629894405134,0.4049519896507263,0.3149956166744232,0.4510306119918823,0.1674820184707641
1629894405259,0.4049519896507263,0.4054103195667267,0.4576557576656341,0.1674820184707641
1629894405337,0.4049519896507263,0.4865789711475372,0.4574516415596008,0.1674820184707641
1629894405431,0.4049519896507263,0.5484818816184998,0.4482246041297912,0.1674820184707641
1629894405587,0.3877668976783752,0.5981696844100952,0.4344220757484436,0.1674820184707641
1629894405696,0.4100396335124969,0.601444661617279,0.4251286089420318,0.4808721840381622
1629894405759,0.4246410727500915,0.611520528793335,0.4251712262630462,0.4487044811248779
1629894405868,0.4324038028717041,0.6192509531974792,0.4299039542675018,0.4211186170578003
1629894405959,0.4351336658000946,0.6182388067245483,0.4297249317169189,0.4211186170578003
1629894406164,0.4351336658000946,0.6182388067245483,0.4173571765422821,0.4211186170578003
1629894406211,0.4351336658000946,0.6182388067245483,0.3917436897754669,0.4211186170578003
1629894406274,0.4351336658000946,0.6182388067245483,0.3601582646369934,0.4211186170578003
1629894406383,0.4351336658000946,0.6182388067245483,0.3370714485645294,0.4211186170578003
1629894406493,0.4351336658000946,0.6182388067245483,0.3329751491546631,0.4211186170578003
1629894406558,0.4351336658000946,0.6182388067245483,0.3430387675762176,0.4211186170578003
1629894406651,0.4351336658000946,0.6182388067245483,0.3526103496551513,0.4211186170578003
1629894406792,0.4490495920181274,0.6186490654945374,0.351661205291748,0.4211186170578003
1629894406917,0.4647597968578338,0.6200287938117981,0.3407293558120727,0.3936750292778015
1629894407011,0.4751631617546081,0.6265183091163635,0.3267890810966491,0.3557575643062591
1629894407089,0.4778386354446411,0.6374214291572571,0.3151559829711914,0.3557575643062591
1629894407198,0.4778386354446411,0.6374214291572571,0.3076516091823578,0.3557575643062591
1629894407276,0.4778386354446411,0.6374214291572571,0.306513100862503,0.3557575643062591
1629894407386,0.4778386354446411,0.6374214291572571,0.3148785531520843,0.3557575643062591
1629894407482,0.4778386354446411,0.6374214291572571,0.3342824876308441,0.3557575643062591
1629894407561,0.3206879198551178,0.6374214291572571,0.3616072237491607,0.3557575643062591
1629894407702,0.3090929687023163,0.6768475770950317,0.3893346488475799,0.3557575643062591
1629894407780,0.2950798869132995,0.6656573414802551,0.4073083102703094,0.3557575643062591
1629894407889,0.2855067551136017,0.6404770016670227,0.4072219729423523,0.1771928071975708
1629894408030,0.2818020284175873,0.6116614937782288,0.3876634836196899,0.1912369728088379
1629894408124,0.2798011600971222,0.5864870548248291,0.3591721951961517,0.1961370110511779
1629894408202,0.2749077081680298,0.5672848224639893,0.3412784934043884,0.1985550969839096
1629894408327,0.2684479057788849,0.5553561449050903,0.3470204770565033,0.2012916207313537
1629894408405,0.2646152079105377,0.5522976517677307,0.3735636174678802,0.2046025246381759
1629894408483,0.2660852372646332,0.5576974749565125,0.4124968349933624,0.2104813754558563
1629894408624,0.2723815739154815,0.5682006478309631,0.4561447203159332,0.220539703965187
1629894408733,0.2804827094078064,0.5784034132957458,0.4954869747161865,0.233091652393341
1629894408782,0.2792735993862152,0.5833985805511475,0.5227013230323792,0.233091652393341
1629894408936,0.2758338153362274,0.577877402305603,0.5366175770759583,0.233091652393341
1629894408998,0.2695574760437011,0.5599983334541321,0.54268479347229,0.233091652393341
1629894409092,0.2648878395557403,0.5327390432357788,0.5460048317909241,0.2491601556539535
1629894409217,0.2654382288455963,0.5055588483810425,0.547614336013794,0.2580967843532562
1629894409310,0.2704713344573974,0.4861814081668854,0.5497840046882629,0.2595311403274536
1629894409404,0.2760384678840637,0.4755920767784118,0.5569354295730591,0.2585557997226715
1629894409514,0.278969943523407,0.4711568355560303,0.5702711343765259,0.2606962323188782
1629894409592,0.2815029919147491,0.4715306758880615,0.5834172368049622,0.26714688539505
1629894409701,0.2914224565029144,0.4769112169742584,0.5884199142456055,0.2772475183010101
1629894409812,0.3119555711746216,0.4853077828884125,0.5823931694030762,0.2904578149318695
1629894409953,0.3119555711746216,0.4912258088588714,0.5672261118888855,0.2904578149318695
1629894410016,0.3119555711746216,0.4883913695812225,0.54442298412323,0.2904578149318695
1629894410125,0.3119555711746216,0.4730528593063354,0.5141974091529846,0.2904578149318695
1629894410219,0.3119555711746216,0.4472818672657013,0.4793586730957031,0.2904578149318695
1629894410297,0.3119555711746216,0.4188742935657501,0.4454107284545898,0.2904578149318695
1629894410474,0.5148952603340149,0.3978492021560669,0.4148191213607788,0.2748894095420837
1629894410552,0.5169578790664673,0.387335330247879,0.3841328918933868,0.3053908944129944
1629894410662,0.5033092498779297,0.3841432929039001,0.3518828749656677,0.3366655111312866
1629894410709,0.4781379997730255,0.3853969871997833,0.3233079314231872,0.3580790758132934
1629894410805,0.4503346085548401,0.3936388194561004,0.3011538088321686,0.3664625585079193
1629894410930,0.4298551082611084,0.4117176830768585,0.2796231806278229,0.3672282993793487
1629894411055,0.4211744368076324,0.4356594979763031,0.252924382686615,0.3678786754608154
1629894411165,0.421526551246643,0.4570176303386688,0.2241845726966858,0.3701660931110382
1629894411258,0.4261720776557922,0.4696815907955169,0.2001921087503433,0.3714334666728973
1629894411321,0.4310422241687774,0.4742735624313354,0.1830516308546066,0.3697832226753235
1629894411430,0.4334478676319122,0.4770780801773071,0.1713638305664062,0.3660415709018707
1629894411524,0.4322944283485412,0.4835893511772156,0.1659200191497802,0.3619283437728882
1629894411680,0.4241542816162109,0.4942337572574615,0.1702894568443298,0.363240122795105
1629894411761,0.4118201732635498,0.5052909255027771,0.1865840554237365,0.3665435910224914
1629894411886,0.39368736743927,0.5134640336036682,0.2166232764720916,0.3688198924064636
1629894411964,0.3724842071533203,0.5191742777824402,0.2618621289730072,0.3652622103691101
1629894412058,0.3549635708332062,0.5251631736755371,0.3205383419990539,0.351531058549881
1629894412120,0.3472229540348053,0.5324528217315674,0.3831644356250763,0.327987790107727
1629894412277,0.3496614992618561,0.5388757586479187,0.4370563924312591,0.3007574379444122
1629894412370,0.3574002683162689,0.5404382944107056,0.4744902551174164,0.2778431475162506
1629894412495,0.3632715046405792,0.5349498987197876,0.4959115386009216,0.261705070734024
1629894412542,0.3642658591270447,0.5246708989143372,0.5065292119979858,0.2486976683139801
1629894412636,0.3623015880584717,0.5152086019515991,0.5125687122344971,0.2361662834882736
1629894412730,0.3596203923225403,0.5098022818565369,0.5181511640548706,0.2250233888626098
1629894412873,0.3555791079998016,0.5048989653587341,0.5250788927078247,0.2188377678394317
1629894412983,0.3478262722492218,0.4933330714702606,0.5324974656105042,0.2200620621442794
1629894413104,0.3425370156764984,0.4738293886184692,0.537655234336853,0.2290145009756088
1629894413182,0.3416356146335602,0.459915816783905,0.5394965410232544,0.2234888672828674
1629894413245,0.345257043838501,0.4518889486789703,0.5491479635238647,0.2167614251375198
1629894413370,0.3523958623409271,0.4535905420780182,0.5545735359191895,0.2093626409769058
1629894413496,0.3605815470218658,0.4628585278987884,0.5520719289779663,0.2045455873012542
1629894413606,0.3677117228507995,0.4739237427711487,0.5359974503517151,0.2076752334833145
1629894413669,0.3735882639884949,0.4821181893348694,0.5027357935905457,0.2213994264602661
1629894413794,0.3799815475940704,0.486022800207138,0.4559311866760254,0.2425839155912399
1629894413887,0.3883564472198486,0.4885759055614471,0.4156404137611389,0.2651493549346924
1629894413950,0.3998955488204956,0.4931769967079162,0.3929343819618225,0.2849989831447601
1629894414106,0.4115723967552185,0.4712026715278625,0.3879620730876922,0.3014407753944397
1629894414200,0.4115723967552185,0.4532686471939087,0.3903264105319977,0.3168897628784179
1629894414278,0.4115723967552185,0.438425600528717,0.3904250860214233,0.3168897628784179
1629894414418,0.4115723967552185,0.4299987554550171,0.3851073682308197,0.3168897628784179
1629894414465,0.4115723967552185,0.4329423606395721,0.3784564733505249,0.3168897628784179
1629894414590,0.4115723967552185,0.4453529417514801,0.3769457340240478,0.3168897628784179
1629894414731,0.3775023519992828,0.4435908198356628,0.3817747235298157,0.0135265691205859
1629894414793,0.4200875759124756,0.436980664730072,0.3861294090747833,-0.0049400371499359
1629894414903,0.4351242780685425,0.4251711666584015,0.3896051049232483,-0.0236677899956703
1629894414997,0.4296945333480835,0.4100744128227234,0.387294590473175,-0.0364179275929927
1629894415079,0.4197522103786468,0.3960552215576172,0.3781492114067077,-0.0331749469041824
1629894415183,0.4190837442874908,0.3873326182365417,0.364975094795227,-0.004676257725805
1629894415313,0.4307847321033478,0.3843097388744354,0.3437803089618683,0.0490076094865798
1629894415418,0.4473944306373596,0.3832072615623474,0.3262843787670135,0.1104625388979911
1629894415514,0.4602273404598236,0.3802101910114288,0.3157192766666412,0.1622941344976425
1629894415590,0.4670562446117401,0.3799768388271332,0.3114514946937561,0.1972754150629043
1629894415699,0.4716774821281433,0.3750283420085907,0.3114693462848663,0.2177386432886123
1629894415792,0.4779923856258392,0.3699283003807068,0.3151336312294006,0.2280426025390625
1629894415950,0.4964189827442169,0.3690552115440368,0.3230493068695068,0.2416630089282989
1629894416045,0.5121597647666931,0.3735788762569427,0.3328707218170166,0.2529984414577484
1629894416149,0.5189228057861328,0.3796656131744385,0.3385007083415985,0.2638636529445648
1629894416212,0.5176299214363098,0.3828732669353485,0.3347406685352325,0.2746531367301941
1629894416289,0.5138741731643677,0.383036345243454,0.3220564126968384,0.2844080030918121
1629894416401,0.5129197239875793,0.3856375813484192,0.3077672719955444,0.2940169274806976
1629894416526,0.5156523585319519,0.3962005376815796,0.2998155057430267,0.3049621880054474
1629894416625,0.5170596241950989,0.4129889905452728,0.3003067374229431,0.3155303001403808
1629894416734,0.5111455321311951,0.4283599853515625,0.3065401613712311,0.3204207420349121
1629894416828,0.495479941368103,0.4374026954174042,0.3162865340709686,0.3149190843105316
1629894416939,0.4724031388759613,0.4415522515773773,0.3276708424091339,0.3002311587333679
1629894417001,0.4470717012882232,0.4449529647827148,0.3376180529594421,0.2817339897155761
1629894417142,0.4229137599468231,0.4485184848308563,0.3435608148574829,0.2651121914386749
1629894417238,0.3992216885089874,0.4491576254367828,0.3452467024326324,0.2514216005802154
1629894417316,0.373287558555603,0.444105863571167,0.3438949584960937,0.2402778714895248
1629894417411,0.3543560802936554,0.4341959953308105,0.3407917022705078,0.2365973591804504
1629894417522,0.3338637351989746,0.4257534742355346,0.3368948400020599,0.2357925921678543
1629894417616,0.3143179416656494,0.4164446890354156,0.3345883190631866,0.2366613000631332
1629894417757,0.2926855385303497,0.4113223850727081,0.3356441557407379,0.2392784208059311
1629894417850,0.2646526396274566,0.4132037460803985,0.3399575650691986,0.2461502999067306
1629894417944,0.2308354526758194,0.4181558787822723,0.3482215106487274,0.2563858926296234
1629894418022,0.1944647133350372,0.4175889790058136,0.3635373115539551,0.2652008533477783
1629894418116,0.161638468503952,0.4221464693546295,0.3857128322124481,0.269265741109848
1629894418210,0.1373124122619629,0.4272204339504242,0.4075389802455902,0.2698772549629211
1629894418413,0.1214886233210563,0.4349374175071716,0.4195541739463806,0.2682638466358185
1629894418460,0.1131438910961151,0.4441247284412384,0.417233943939209,0.2619810402393341
1629894418589,0.1131438910961151,0.4557085335254669,0.4043552279472351,0.2619810402393341
1629894418651,0.1131438910961151,0.4728080928325653,0.3885958194732666,0.2619810402393341
1629894418745,0.1131438910961151,0.4950334727764129,0.3763073980808258,0.2619810402393341
1629894418870,0.1131438910961151,0.5159068703651428,0.3703410029411316,0.2619810402393341
1629894419011,0.1131438910961151,0.5267421007156372,0.3693550527095794,0.2619810402393341
1629894419106,0.2708999216556549,0.5134276747703552,0.3698455989360809,0.2619810402393341
1629894419169,0.3150081634521484,0.5018808245658875,0.3688097298145294,0.2619810402393341
1629894419263,0.3150081634521484,0.4993136823177337,0.3664551675319671,0.2619810402393341
1629894419356,0.3150081634521484,0.5047425031661987,0.36463463306427,0.2619810402393341
1629894419466,0.3150081634521484,0.5112234950065613,0.361580342054367,0.2619810402393341
1629894419592,0.3150081634521484,0.5132301449775696,0.3523724377155304,0.2619810402393341
1629894419708,0.3150081634521484,0.5091343522071838,0.3343054950237274,0.2619810402393341
1629894419770,0.3150081634521484,0.5012878179550171,0.3119786083698272,0.2619810402393341
1629894419864,0.3150081634521484,0.4944515228271484,0.2927330732345581,0.2619810402393341
1629894419974,0.3150081634521484,0.4904000759124756,0.2808684110641479,0.2619810402393341
1629894420036,0.3150081634521484,0.4896315336227417,0.2743064761161804,0.2619810402393341
1629894420177,0.3150081634521484,0.4864826798439026,0.2702905535697937,0.2619810402393341
1629894420270,0.341274231672287,0.4800674319267273,0.2685249149799347,0.2619810402393341
1629894420380,0.341274231672287,0.4739668667316437,0.2683931291103363,0.2619810402393341
1629894420489,0.341274231672287,0.4749127328395843,0.2672076225280761,0.2619810402393341
1629894420617,0.341274231672287,0.4850919842720032,0.2637996673583984,0.2619810402393341
1629894420664,0.341274231672287,0.4738340973854065,0.2592502236366272,0.2619810402393341
1629894420804,0.341274231672287,0.454405814409256,0.2557913959026336,0.2619810402393341
1629894420906,0.341274231672287,0.4274806082248688,0.2532456219196319,0.2619810402393341
1629894421000,0.341274231672287,0.4009023904800415,0.2512349784374237,0.2619810402393341
1629894421093,0.341274231672287,0.3830970227718353,0.2515656948089599,0.2619810402393341
1629894421202,0.341274231672287,0.377014011144638,0.2585285902023315,0.2619810402393341
1629894421280,0.341274231672287,0.3786828815937042,0.2724852263927459,0.2619810402393341
1629894421437,0.341274231672287,0.3818851709365845,0.29302579164505,0.2619810402393341
1629894421500,0.341274231672287,0.372530460357666,0.3197663426399231,0.2619810402393341
1629894421627,0.341274231672287,0.372530460357666,0.3530839085578918,0.2619810402393341
1629894421705,0.341274231672287,0.372530460357666,0.3890393376350403,0.2619810402393341
1629894421795,0.341274231672287,0.372530460357666,0.4191733598709106,0.2619810402393341
1629894421860,0.341274231672287,0.372530460357666,0.4374940991401672,0.2619810402393341
1629894422015,0.341274231672287,0.372530460357666,0.4444972276687622,0.2619810402393341
1629894422110,0.341274231672287,0.372530460357666,0.4454555809497833,0.2619810402393341
1629894422222,0.341274231672287,0.3916122317314148,0.4468177258968353,0.2619810402393341
1629894422300,0.341274231672287,0.4112776815891266,0.4511850774288177,0.2619810402393341
1629894422410,0.341274231672287,0.4260109066963196,0.4568131566047668,0.2619810402393341
1629894422489,0.341274231672287,0.4230314493179321,0.4596632719039917,0.2619810402393341
1629894422635,0.341274231672287,0.4091735482215881,0.4569244384765625,0.2619810402393341
1629894422729,0.341274231672287,0.3851781487464905,0.4486395120620727,0.2619810402393341
1629894422855,0.341274231672287,0.3529807329177856,0.4371548891067505,0.2619810402393341
1629894422940,0.341274231672287,0.3249483108520508,0.4238065481185913,0.2619810402393341
1629894423028,0.341274231672287,0.3470040261745453,0.4078216552734375,0.2619810402393341
1629894423092,0.341274231672287,0.3740527629852295,0.3876794278621673,0.2619810402393341
1629894423294,0.341274231672287,0.3984023630619049,0.3653068244457245,0.2619810402393341
1629894423357,0.341274231672287,0.4175827205181122,0.3464115560054779,0.2619810402393341
1629894423436,0.341274231672287,0.4324620962142944,0.3360719978809356,0.2619810402393341
1629894423514,0.341274231672287,0.4324620962142944,0.3351649045944214,0.2619810402393341
1629894423611,0.341274231672287,0.4324620962142944,0.3410105109214782,0.2619810402393341
1629894423686,0.341274231672287,0.4324620962142944,0.346578449010849,0.2619810402393341
1629894423874,0.341274231672287,0.4324620962142944,0.3464357852935791,0.2619810402393341
1629894423969,0.341274231672287,0.4324620962142944,0.3398602306842804,0.2619810402393341
1629894424030,0.341274231672287,0.4387935996055603,0.3305426239967346,0.2619810402393341
1629894424169,0.341274231672287,0.4539889097213745,0.3229477703571319,0.2619810402393341
1629894424215,0.341274231672287,0.4568895697593689,0.3193572461605072,0.2619810402393341
1629894424340,0.341274231672287,0.4529750645160675,0.3200136721134186,0.2619810402393341
1629894424449,0.341274231672287,0.442025750875473,0.3242881894111633,0.2619810402393341
1629894424558,0.341274231672287,0.4197923839092254,0.3307795524597168,0.2619810402393341
1629894424655,0.341274231672287,0.3867238759994507,0.3363495171070099,0.4183303713798523
1629894424732,0.341274231672287,0.3459403216838836,0.3370961844921112,0.4107624888420105
1629894424826,0.4337697923183441,0.3030593991279602,0.3320606350898742,0.4134770035743713
1629894424933,0.4392947554588318,0.260608971118927,0.3231865465641022,0.4152041673660278
1629894425044,0.4424949884414673,0.2641710340976715,0.3138154745101928,0.4101772904396057
1629894425157,0.452647864818573,0.2673413455486297,0.3046696782112121,0.39954474568367
1629894425234,0.4697639346122741,0.2690355777740478,0.298047661781311,0.3864676654338836
1629894425348,0.4846168458461761,0.2704505920410156,0.2992132008075714,0.3739367425441742
1629894425421,0.4893175065517425,0.2736687362194061,0.3125380575656891,0.3630577027797699
1629894425539,0.4827965199947357,0.2810708880424499,0.3363133370876312,0.3547468781471252
1629894425675,0.4707108736038208,0.2776370942592621,0.3641121387481689,0.3487311899662018
1629894425787,0.46066614985466,0.2930662930011749,0.3887098431587219,0.3442118167877197
