timestamp,TP9,AF7,AF8,TP10
1629894289817,0.4802470505237579,0.5294932723045349,0.5829153656959534,0.5959910750389099
1629894289911,0.4802470505237579,0.5294932723045349,0.4996512830257416,0.5959910750389099
1629894289989,0.4802470505237579,0.5294932723045349,0.3352987468242645,0.5959910750389099
1629894290067,0.4802470505237579,0.5294932723045349,0.2343658953905105,0.5959910750389099
1629894290192,0.4802470505237579,0.2173049002885818,0.3158431053161621,0.5959910750389099
1629894290301,0.8671048283576965,0.2512475550174713,0.3368033766746521,0.5959910750389099
1629894290437,0.8671048283576965,0.2723303735256195,0.3491962850093841,0.5959910750389099
1629894290518,0.8671048283576965,0.2723303735256195,0.3656697571277618,0.5959910750389099
1629894290643,0.8671048283576965,0.2723303735256195,0.3722860813140869,0.5959910750389099
1629894290721,0.8671048283576965,0.2723303735256195,0.3744890689849853,0.5959910750389099
1629894290800,0.8671048283576965,0.2723303735256195,0.3714719712734222,0.5959910750389099
1629894290909,0.8671048283576965,0.2723303735256195,0.3659805357456207,0.5959910750389099
1629894291018,0.8671048283576965,0.2723303735256195,0.3659805357456207,0.5959910750389099
1629894291128,0.8671048283576965,0.2723303735256195,0.3659805357456207,0.5959910750389099
1629894291237,0.8671048283576965,0.2723303735256195,0.3659805357456207,0.5959910750389099
1629894291362,0.8671048283576965,0.2723303735256195,0.3659805357456207,0.5959910750389099
1629894291409,0.8671048283576965,0.2089177370071411,0.3659805357456207,0.5959910750389099
1629894291490,0.8671048283576965,0.1669885665178299,0.3564045429229736,0.5959910750389099
1629894291662,0.8671048283576965,0.2228833138942718,0.3385241329669952,0.5959910750389099
1629894291755,0.8671048283576965,0.20476795732975,0.3137875199317932,0.5959910750389099
1629894291865,0.8671048283576965,0.2051666975021362,0.2372434139251709,0.5959910750389099
1629894291927,0.8671048283576965,0.1215153187513351,0.1643983423709869,0.5959910750389099
1629894292037,0.3505844175815582,0.1400491446256637,0.1514193564653396,0.2017212063074112
1629894292083,0.5399641394615173,0.1756762564182281,0.1749709993600845,0.4594198763370514
1629894292271,0.6781651377677917,0.2247645556926727,0.3224651217460632,0.6302098035812378
1629894292318,0.7398234009742737,0.2480997294187545,0.4498340487480163,0.7084474563598633
1629894292427,0.761451780796051,0.2644616067409515,0.4936317205429077,0.7326434254646301
1629894292523,0.7764754295349121,0.2767163515090942,0.4986439347267151,0.7369126677513123
1629894292648,0.7939822673797607,0.2768455147743225,0.4986439347267151,0.7383197546005249
1629894292742,0.812026858329773,0.2905879616737366,0.4986439347267151,0.7449513673782349
1629894292867,0.8275014758110046,0.3154563009738922,0.503267228603363,0.7578670978546143
1629894292945,0.8430939316749573,0.3387399017810821,0.515027642250061,0.760236918926239
1629894293086,0.8462929129600525,0.3814094662666321,0.5190378427505493,0.7672892808914185
1629894293164,0.8470428586006165,0.3469593524932861,0.521544873714447,0.7788103222846985
1629894293258,0.8470428586006165,0.2803917229175567,0.5189327001571655,0.7847743630409241
1629894293367,0.8470428586006165,0.2777864038944244,0.5226829051971436,0.7858541011810303
1629894293495,0.8470428586006165,0.319362998008728,0.5254302024841309,0.7858541011810303
1629894293588,0.8547743558883667,0.3438957035541534,0.5449186563491821,0.7858541011810303
1629894293682,0.8547743558883667,0.3438957035541534,0.5519024133682251,0.7858541011810303
1629894293823,0.8279606103897095,0.3448761701583862,0.5694983005523682,0.7734463214874268
1629894293869,0.7543343305587769,0.3898719549179077,0.6082127094268799,0.7381054759025574
1629894293916,0.6489704847335815,0.3898719549179077,0.6802964806556702,0.6634071469306946
1629894294073,0.6018607020378113,0.3898719549179077,0.7522374987602234,0.5734754800796509
1629894294166,0.5999518036842346,0.3898719549179077,0.7778259515762329,0.4745953381061554
1629894294307,0.5999518036842346,0.3898719549179077,0.8006462454795837,0.4097017347812652
1629894294354,0.5854405164718628,0.4192344844341278,0.8006462454795837,0.361760139465332
1629894294447,0.5854405164718628,0.427350640296936,0.8006414771080017,0.3002696335315704
1629894294544,0.5854405164718628,0.4184105992317199,0.7950128316879272,0.3002696335315704
1629894294685,0.5854405164718628,0.4095275104045868,0.7925906777381897,0.3002696335315704
1629894294794,0.5854405164718628,0.4095275104045868,0.7925906777381897,0.3002696335315704
1629894294888,0.5854405164718628,0.4091411232948303,0.7925906777381897,0.3002696335315704
1629894294950,0.5854405164718628,0.4091411232948303,0.7925906777381897,0.3002696335315704
1629894295106,0.5854405164718628,0.4157872796058655,0.7925906777381897,0.3002696335315704
1629894295138,0.5854405164718628,0.4157872796058655,0.7925906777381897,0.3002696335315704
1629894295294,0.5854405164718628,0.4157872796058655,0.7925906777381897,0.3002696335315704
1629894295403,0.5854405164718628,0.368142157793045,0.7921909093856812,0.3002696335315704
1629894295465,0.5854405164718628,0.368142157793045,0.7912426590919495,0.3002696335315704
1629894295581,0.5854405164718628,0.368142157793045,0.774584174156189,0.3002696335315704
1629894295690,0.5854405164718628,0.368142157793045,0.7091207504272461,0.3002696335315704
1629894295753,0.5854405164718628,0.368142157793045,0.5813262462615967,0.3002696335315704
1629894295971,0.5854405164718628,0.2971213161945343,0.4366806447505951,0.3002696335315704
1629894296018,0.5854405164718628,0.2597273588180542,0.3964254260063171,0.3002696335315704
1629894296112,0.5854405164718628,0.1901971399784088,0.3964254260063171,0.3002696335315704
1629894296221,0.5854405164718628,0.1619920581579208,0.3969948291778564,0.3002696335315704
1629894296268,0.5854405164718628,0.1204705387353897,0.3969948291778564,0.3002696335315704
1629894296378,0.5854405164718628,0.1204705387353897,0.5221883654594421,0.3002696335315704
1629894296518,0.5854405164718628,0.1204705387353897,0.6777231693267822,0.3002696335315704
1629894296565,0.5854405164718628,0.1204705387353897,0.7557443976402283,0.3002696335315704
1629894296753,0.5854405164718628,0.1204705387353897,0.7984060645103455,0.3002696335315704
1629894296799,0.5854405164718628,0.1204705387353897,0.8344505429267883,0.3002696335315704
1629894296878,0.5854405164718628,0.1204705387353897,0.862246036529541,0.3002696335315704
1629894296987,0.5854405164718628,0.1204705387353897,0.8629992008209229,0.3002696335315704
1629894297174,0.5854405164718628,0.1204705387353897,0.8629992008209229,0.3002696335315704
1629894297237,0.5854405164718628,0.1204705387353897,0.8629992008209229,0.3002696335315704
1629894297362,0.5854405164718628,0.1204705387353897,0.8629992008209229,0.3002696335315704
1629894297409,0.5854405164718628,0.1204705387353897,0.8629992008209229,0.3002696335315704
1629894297534,0.5854405164718628,0.1204705387353897,0.8629992008209229,0.3002696335315704
1629894297596,0.5854405164718628,0.1204705387353897,0.8719958066940308,0.3002696335315704
1629894297752,0.5854405164718628,0.1204705387353897,0.8746179342269897,0.3002696335315704
1629894297877,0.5854405164718628,0.1204705387353897,0.8746179342269897,0.3002696335315704
1629894297909,0.5854405164718628,0.1204705387353897,0.8746179342269897,0.3002696335315704
1629894298002,0.5854405164718628,0.1204705387353897,0.8746179342269897,0.3002696335315704
1629894298174,0.5854405164718628,0.1204705387353897,0.8568862080574036,0.3002696335315704
1629894298205,0.5854405164718628,0.1204705387353897,0.8408774137496948,0.3002696335315704
1629894298346,0.5854405164718628,0.1204705387353897,0.8023006319999695,0.3002696335315704
1629894298490,0.5854405164718628,0.1204705387353897,0.7504668235778809,0.3002696335315704
1629894298553,0.5854405164718628,0.1204705387353897,0.6627039313316345,0.3002696335315704
1629894298693,0.5854405164718628,0.1204705387353897,0.611935019493103,0.3002696335315704
1629894298756,0.5854405164718628,0.2076043635606765,0.611935019493103,0.3002696335315704
1629894298818,0.5854405164718628,0.2076043635606765,0.611935019493103,0.3002696335315704
1629894298943,0.5854405164718628,0.2076043635606765,0.611935019493103,0.3002696335315704
1629894299068,0.5854405164718628,0.2076043635606765,0.611935019493103,0.3002696335315704
1629894299131,0.5854405164718628,0.2270080894231796,0.6059178113937378,0.3002696335315704
1629894299256,0.5854405164718628,0.2643528878688812,0.6022735238075256,0.3002696335315704
1629894299303,0.5854405164718628,0.2696591913700104,0.6378636360168457,0.3002696335315704
1629894299396,0.5854405164718628,0.2696591913700104,0.6633306741714478,0.3002696335315704
1629894299540,0.5854405164718628,0.2696591913700104,0.6656385660171509,0.3002696335315704
1629894299618,0.5854405164718628,0.2696591913700104,0.6656385660171509,0.3002696335315704
1629894299728,0.5854405164718628,0.2696591913700104,0.6583655476570129,0.3002696335315704
1629894299853,0.5854405164718628,0.2696591913700104,0.634118378162384,0.3002696335315704
1629894299946,0.5854405164718628,0.2586715519428253,0.5947402715682983,0.3002696335315704
1629894300025,0.5854405164718628,0.2603069543838501,0.5500093102455139,0.3002696335315704
1629894300212,0.5854405164718628,0.265831708908081,0.5199683308601379,0.3002696335315704
1629894300243,0.6253878474235535,0.2691555917263031,0.4866275191307068,0.254103422164917
1629894300337,0.665970504283905,0.2704159617424011,0.5021777749061584,0.3018095791339874
1629894300431,0.665970504283905,0.2849460542201996,0.521191418170929,0.3018095791339874
1629894300509,0.665970504283905,0.3154268860816955,0.5227437615394592,0.3018095791339874
1629894300634,0.665970504283905,0.4289781749248504,0.5286331176757812,0.3018095791339874
1629894300743,0.665970504283905,0.5939165949821472,0.5401402711868286,0.3018095791339874
1629894300837,0.665970504283905,0.6811857223510742,0.5359288454055786,0.3018095791339874
1629894300962,0.665970504283905,0.6811857223510742,0.5294367074966431,0.3018095791339874
1629894301024,0.665970504283905,0.6811857223510742,0.5029796957969666,0.3018095791339874
1629894301134,0.665970504283905,0.6811857223510742,0.4818317294120788,0.3018095791339874
1629894301259,0.665970504283905,0.6806116104125977,0.4818317294120788,0.3018095791339874
1629894301384,0.665970504283905,0.6806116104125977,0.4818317294120788,0.3018095791339874
1629894301479,0.6312609910964966,0.6806116104125977,0.4818317294120788,0.2620124220848083
1629894301559,0.6312609910964966,0.6783909201622009,0.4818317294120788,0.2620124220848083
1629894301668,0.6312609910964966,0.6770555377006531,0.4818317294120788,0.2620124220848083
1629894301731,0.6312609910964966,0.6806941628456116,0.4818317294120788,0.2620124220848083
1629894301824,0.6312609910964966,0.6855392456054688,0.4818317294120788,0.2620124220848083
1629894301981,0.6312609910964966,0.687610924243927,0.4795969724655151,0.2620124220848083
1629894302074,0.2117463052272796,0.6787410974502563,0.4478163421154022,0.2971299290657043
1629894302152,0.3038946390151977,0.6621236801147461,0.4551484286785126,0.4639371037483215
1629894302246,0.4857222139835357,0.6507613658905029,0.4524134695529938,0.6315636038780212
1629894302371,0.6614288091659546,0.6241601705551147,0.3975155353546142,0.8059868216514587
1629894302449,0.7514709234237671,0.1685116738080978,0.3600808382034302,0.9260581135749816
1629894302577,0.7834151387214661,0.1685116738080978,0.3453403413295746,0.9726114273071288
1629894302671,0.788077175617218,0.1750714480876922,0.3410290777683258,0.9726114273071288
1629894302749,0.788077175617218,0.1750714480876922,0.3410290777683258,0.9726114273071288
1629894302873,0.788077175617218,0.1778505891561508,0.3410290777683258,0.9726114273071288
1629894302951,0.788077175617218,0.1888418644666671,0.3410290777683258,0.9726114273071288
1629894303046,0.788077175617218,0.2964051961898803,0.3639589846134186,0.9726114273071288
1629894303215,0.788077175617218,0.5351450443267822,0.4785875380039215,0.9726114273071288
1629894303306,0.788077175617218,0.5351450443267822,0.561417281627655,0.9726114273071288
1629894303402,0.788077175617218,0.5299321413040161,0.572716236114502,0.9726114273071288
1629894303478,0.788077175617218,0.5214484333992004,0.5556801557540894,0.9726114273071288
1629894303575,0.788077175617218,0.5211388468742371,0.5349277257919312,0.9726114273071288
1629894303653,0.788077175617218,0.5211388468742371,0.5284035801887512,0.9707469940185548
1629894303809,0.7877254486083984,0.5211388468742371,0.5192837715148926,0.9676905870437622
1629894303904,0.7756140232086182,0.5211388468742371,0.506920337677002,0.9446794390678406
1629894303982,0.7756140232086182,0.5211388468742371,0.5034791231155396,0.9446794390678406
1629894304091,0.7756140232086182,0.5211388468742371,0.5034791231155396,0.9446794390678406
1629894304187,0.7756140232086182,0.5211388468742371,0.5034791231155396,0.9446794390678406
1629894304314,0.7756140232086182,0.5211388468742371,0.5040653347969055,0.9446794390678406
1629894304405,0.0577169470489025,0.5211388468742371,0.5122867822647095,0.9446794390678406
1629894304549,0.0877415686845779,0.5211388468742371,0.5126393437385559,0.9446794390678406
1629894304612,0.1166458129882812,0.5211388468742371,0.5126393437385559,0.1564661264419555
1629894304718,0.1652051955461502,-0.1332718133926391,0.5113823413848877,0.1764975190162658
1629894304796,0.2402111887931823,-0.1332718133926391,0.4866883456707001,0.2093838155269622
1629894304888,0.363750547170639,-0.1332718133926391,0.3674523532390594,0.2510140240192413
1629894305014,0.4274100363254547,-0.1238075345754623,0.2839480340480804,0.3032458126544952
1629894305125,0.4437890946865082,-0.0635583475232124,0.2659496366977691,0.3418654501438141
1629894305203,0.4476172029972076,0.0087454477325081,0.2555916905403137,0.373421847820282
1629894305328,0.4521383345127105,0.0560522861778736,0.2476508319377899,0.408316045999527
1629894305407,0.4578301310539245,0.0680356994271278,0.2393220514059066,0.449690043926239
1629894305484,0.462839663028717,0.0680356994271278,0.2102103233337402,0.4767504930496216
1629894305643,0.4646893143653869,0.061467207968235,0.1750930845737457,0.4861634969711303
1629894305722,0.4667072892189026,0.03975111246109,0.1488773226737976,0.488072782754898
1629894305818,0.4737749397754669,0.0248178951442241,0.1449439972639084,0.485127180814743
1629894305909,0.4796061813831329,0.0266449227929115,0.1464348286390304,0.4771058261394501
1629894305988,0.4837928712368011,0.0266449227929115,0.107818603515625,0.4629319012165069
1629894306098,0.5095521807670593,0.0312042646110057,0.0701370015740394,0.4426866769790649
1629894306239,0.5396571755409241,0.0312042646110057,0.0787225440144538,0.4481759071350097
1629894306332,0.5516830682754517,0.0360611304640769,0.0941137820482254,0.4967952370643616
1629894306408,0.5907975435256958,0.094013474881649,0.1125378832221031,0.5256826877593994
1629894306550,0.6002480387687683,0.1295017004013061,0.1201758757233619,0.5314679145812988
1629894306615,0.6036575436592102,0.1329819113016128,0.1367912888526916,0.5314679145812988
1629894306707,0.6228353977203369,0.1114371120929718,0.1540455222129821,0.5337511897087097
1629894306833,0.6318718194961548,0.0995439141988754,0.2091921418905258,0.5446828603744507
1629894306934,0.6303389072418213,0.0995439141988754,0.2855160236358642,0.5498461127281189
1629894307022,0.6085280776023865,0.0995439141988754,0.3203839659690857,0.5344048142433167
1629894307113,0.6018153429031372,0.0995439141988754,0.341369479894638,0.509705662727356
1629894307241,0.6018153429031372,0.0983418524265289,0.346759170293808,0.4839745163917541
1629894307352,0.6018153429031372,0.0906767547130584,0.3483864068984985,0.4838950335979461
1629894307446,0.6030518412590027,0.0767737030982971,0.3556374609470367,0.4838950335979461
1629894307584,0.6134160757064819,0.0713118091225624,0.3622178137302398,0.491768330335617
1629894307646,0.6329681873321533,0.0807817354798317,0.3707318007946014,0.5446671843528748
1629894307745,0.6403429508209229,0.0823889970779419,0.3751806616783142,0.5451582074165344
1629894307820,0.6184337735176086,0.0823889970779419,0.3953699767589569,0.5445557832717896
1629894307930,0.6149084568023682,0.0788469165563583,0.4036414325237274,0.559726893901825
1629894308103,0.6542348861694336,0.0616839602589607,0.4036414325237274,0.5617430806159973
1629894308161,0.6627890467643738,0.0177040491253137,0.4056952595710754,0.5808491110801697
1629894308256,0.6627890467643738,-0.0354113206267356,0.4056952595710754,0.5875640511512756
1629894308367,0.6591492295265198,-0.0824511870741844,0.4056952595710754,0.5875640511512756
1629894308462,0.6439258456230164,-0.1052241325378418,0.408458262681961,0.5875640511512756
1629894308604,0.6367995142936707,-0.128347635269165,0.3814826011657715,0.5875640511512756
1629894308685,0.6475796103477478,-0.1363165229558944,0.3103247284889221,0.5875640511512756
1629894308761,0.6667309403419495,-0.1333032399415969,0.2087135016918182,0.5875640511512756
1629894308872,0.6675665974617004,-0.1392847001552581,0.1600198149681091,0.5875640511512756
1629894308968,0.6675665974617004,-0.1427945792675018,0.157980740070343,0.5875640511512756
1629894309048,0.6696984767913818,-0.1539805233478546,0.1597087383270263,0.5875640511512756
1629894309144,0.673073947429657,-0.1847963035106659,0.1466662287712097,0.5804975628852844
1629894309285,0.6550490260124207,-0.205393448472023,0.1223588809370994,0.5328024625778198
1629894309393,0.6344773173332214,-0.185279831290245,0.1120994612574577,0.5081749558448792
1629894309490,0.6209644079208374,-0.1536189168691635,0.0919898375868797,0.4899916350841522
1629894309568,0.6039059162139893,-0.1297854483127594,0.0557747893035411,0.4920479357242584
1629894309659,0.5754280090332031,-0.1010638996958732,-0.0239284355193376,0.4994702339172363
1629894309753,0.5691483616828918,-0.0816273987293243,-0.1171880438923835,0.4605787992477417
1629894309928,0.5691483616828918,-0.0790852904319763,-0.135351300239563,0.4162717461585998
1629894309993,0.5691483616828918,-0.0654126480221748,-0.1507428139448166,0.3945761322975158
1629894310100,0.5705929398536682,-0.0540563687682151,-0.1715104132890701,0.3932371437549591
1629894310180,0.572411835193634,-0.0539653897285461,-0.1602540612220764,0.4169112145900726
1629894310270,0.5758012533187866,-0.0491660870611667,-0.1473173201084137,0.4295249879360199
1629894310362,0.5651043653488159,-0.0491660870611667,-0.1512290239334106,0.4337772130966186
1629894310502,0.5617557764053345,-0.0491660870611667,-0.1563949137926101,0.4338563680648803
1629894310613,0.5617557764053345,-0.0527030266821384,-0.0708436965942382,0.4338563680648803
1629894310700,0.5617557764053345,-0.0345503017306327,0.0574704259634017,0.4338563680648803
1629894310785,0.5617557764053345,0.1420431137084961,0.1411090642213821,0.4338563680648803
1629894310865,0.5617557764053345,0.3363867104053497,0.2115277200937271,0.42923304438591
1629894311008,0.5617557764053345,0.4807600975036621,0.2673459351062774,0.4136948883533478
1629894311149,0.5495508313179016,0.5383908748626709,0.2960453033447265,0.3812492191791534
1629894311211,0.51444011926651,0.5502403378486633,0.3169609010219574,0.3134883940219879
1629894311290,0.4868314862251282,0.5502403378486633,0.3208886682987213,0.2459243386983871
1629894311400,0.4661963880062103,0.5502403378486633,0.3208886682987213,0.2326463311910629
1629894311479,0.4577713012695312,0.5512423515319824,0.3208886682987213,0.2269063144922256
1629894311589,0.4373793005943298,0.5538545250892639,0.3208886682987213,0.2229180783033371
1629894311716,0.4373793005943298,0.5538545250892639,0.3287553787231445,0.2229180783033371
1629894311810,0.4373793005943298,0.5538545250892639,0.333552211523056,0.2229180783033371
1629894311937,0.4373793005943298,0.5538545250892639,0.333552211523056,0.2229180783033371
1629894312014,0.4373793005943298,0.5538545250892639,0.333552211523056,0.2229180783033371
1629894312093,0.1780329346656799,0.5538545250892639,0.333552211523056,0.3025607168674469
1629894312206,0.2577639818191528,0.5538545250892639,0.3332050144672394,0.3070036470890045
1629894312328,0.3762901723384857,0.5538545250892639,0.3085012435913086,0.3070036470890045
1629894312440,0.4749006927013397,0.5538545250892639,0.2507794201374054,0.3103216588497162
1629894312549,0.554796576499939,0.5472328066825867,0.2333081811666488,0.325855404138565
1629894312612,0.594454288482666,0.4693033993244171,0.2785756587982178,0.3376164734363556
1629894312754,0.6145400404930115,0.2806544601917267,0.2958234250545501,0.3455411195755005
1629894312817,0.6418925523757935,0.0340342558920383,0.2852844893932342,0.3584344089031219
1629894312946,0.6570752263069153,-0.0151947746053338,0.2772832214832306,0.3690211772918701
1629894313022,0.6650742292404175,-0.0200369041413068,0.2866660058498382,0.3911083936691284
1629894313107,0.6680790781974792,-0.0439312867820262,0.2905763983726501,0.4236041307449341
1629894313212,0.6796613931655884,-0.0642960593104362,0.2905763983726501,0.4848352372646332
1629894313335,0.6802922487258911,-0.0981073155999183,0.2905763983726501,0.4922455251216888
1629894313431,0.6802922487258911,-0.1211924850940704,0.2905763983726501,0.4922455251216888
1629894313539,0.6802922487258911,-0.1376076489686966,0.2905763983726501,0.4922455251216888
1629894313651,0.6802922487258911,-0.1547336727380752,0.303899198770523,0.4883806109428406
1629894313758,0.6802922487258911,-0.1587852388620376,0.3234565556049347,0.4883002340793609
1629894313837,0.6802922487258911,-0.1662224978208542,0.3374578356742859,0.4860406816005707
1629894313946,0.6802864670753479,-0.1621672362089157,0.3530012667179107,0.4860406816005707
1629894314024,0.6564503312110901,-0.169017344713211,0.3692887425422668,0.4860406816005707
1629894314167,0.6255603432655334,-0.1808072030544281,0.3771274387836456,0.4822590947151184
1629894314228,0.6025062799453735,-0.1877238899469375,0.370989441871643,0.480204164981842
1629894314389,0.5841615796089172,-0.1918692141771316,0.3491524755954742,0.4798309504985809
1629894314465,0.5573909878730774,-0.209150955080986,0.3402394652366638,0.4630706310272217
1629894314530,0.5045830607414246,-0.2365884631872177,0.3402394652366638,0.4551173150539398
1629894314653,0.4334891140460968,-0.2994774281978607,0.3402394652366638,0.4526025950908661
1629894314745,0.3870531022548675,-0.3886341452598572,0.3402394652366638,0.4253703653812408
1629894314853,0.299082338809967,-0.495659738779068,0.3402394652366638,0.3207836151123047
1629894314947,0.2660354077816009,-0.5731467604637146,0.3402394652366638,0.1444535553455352
1629894315039,0.2660354077816009,-0.6080647110939026,0.3402394652366638,0.1444535553455352
1629894315133,0.2660354077816009,-0.0330872945487499,0.3402394652366638,0.1444535553455352
1629894315244,0.2660354077816009,0.0110852885991334,0.3369351327419281,0.1444535553455352
1629894315416,0.2660354077816009,0.0538220666348934,0.3265807926654815,0.1444535553455352
1629894315480,0.2660354077816009,0.0843938365578651,0.2986779510974884,0.1444535553455352
1629894315591,0.3927885591983795,0.1092835813760757,0.2364064455032348,0.1444535553455352
1629894315668,0.3927885591983795,0.1243541091680526,0.2345662117004394,0.2622625529766083
1629894315762,0.3927885591983795,0.1284875273704528,0.2353642731904983,0.3003524243831634
1629894315873,0.3927885591983795,0.1294137835502624,0.2226365506649017,0.3471089899539947
1629894315981,0.3974236845970154,0.1325710862874984,0.2338548898696899,0.3940638899803161
1629894316121,0.4451448619365692,0.1344752311706543,0.1783167868852615,0.440559834241867
1629894316200,0.4918656647205353,0.135458305478096,0.0968105792999267,0.4709926247596741
1629894316279,0.5343575477600098,0.1371844261884689,0.0492745339870452,0.4806152880191803
1629894316391,0.5693714618682861,0.1471844166517257,0.0492745339870452,0.4903903007507324
1629894316485,0.6114181876182556,0.2055785208940506,0.0530543364584445,0.5133638978004456
1629894316595,0.6410871148109436,0.2889412939548492,0.0663422495126724,0.5294198989868164
1629894316703,0.6479662656784058,0.3363259732723236,0.0735029578208923,0.5312477946281433
1629894316797,0.6413264870643616,0.3368485867977142,0.074110709130764,0.5312477946281433
1629894316890,0.6257959008216858,0.332333505153656,0.0665737241506576,0.5310090780258179
1629894316983,0.6255418062210083,0.3258127272129059,0.0626011714339256,0.551918625831604
1629894317063,0.6454275250434875,0.3364476263523102,0.0626011714339256,0.5789264440536499
1629894317202,0.6421961188316345,0.3542459011077881,0.0626011714339256,0.58925461769104
1629894317329,0.659292459487915,0.3542459011077881,0.0637180060148239,0.5859832763671875
1629894317404,0.6661587953567505,0.3542459011077881,0.0428739599883556,0.5842355489730835
1629894317482,0.6697871685028076,0.354393720626831,0.0073657329194247,0.5842355489730835
1629894317560,0.6697871685028076,0.354393720626831,-0.0010242529679089,0.5842355489730835
1629894317685,0.6725839376449585,0.354251354932785,-0.0197723917663097,0.5796754956245422
1629894317826,0.6759455800056458,0.354251354932785,-0.0320523492991924,0.5472650527954102
1629894317889,0.6786639094352722,0.354251354932785,-0.0383039712905883,0.5461442470550537
1629894317983,0.6786639094352722,0.354251354932785,-0.0383039712905883,0.5461442470550537
1629894318091,0.6685028076171875,0.3557344675064087,-0.0383039712905883,0.5442557334899902
1629894318211,0.633211076259613,0.3522712290287018,-0.0383039712905883,0.5329444408416748
1629894318264,0.5747014880180359,0.3109031319618225,-0.0383039712905883,0.5116061568260193
1629894318452,0.5463948845863342,0.2806273102760315,-0.0383039712905883,0.4953133761882782
1629894318531,0.5770539045333862,0.2980940639972687,-0.0383039712905883,0.4841291904449463
1629894318613,0.5677144527435303,0.3253457248210907,-0.0196491852402687,0.4749326407909393
1629894318712,0.5676073431968689,0.3273613452911377,0.0163060203194618,0.4463531374931335
1629894318812,0.5676073431968689,0.4292623996734619,0.1023628339171409,0.3773058354854584
1629894318904,0.5563688278198242,0.4228922128677368,0.1677214503288269,0.2896702587604522
1629894319061,0.5511733889579773,0.4228922128677368,0.2376603633165359,0.276619017124176
1629894319172,0.5511733889579773,0.4228922128677368,0.286416620016098,0.2705662250518799
1629894319232,0.5475811958312988,0.4228922128677368,0.3097842335700989,0.2513406276702881
1629894319329,0.5371044278144836,0.4228922128677368,0.3142282664775848,0.223345011472702
1629894319452,0.5192972421646118,0.4228922128677368,0.3129138052463531,0.2039208561182022
1629894319499,0.5185009837150574,0.4228922128677368,0.3122553527355194,0.1803658008575439
1629894319653,0.5185009837150574,0.4228922128677368,0.3122553527355194,0.1632044017314911
1629894319748,0.5185009837150574,0.4228922128677368,0.3164170980453491,0.1632044017314911
1629894319811,0.5185009837150574,0.4226441383361816,0.3400374352931976,0.1632044017314911
1629894319922,0.5185009837150574,0.4328849613666534,0.3610821068286896,0.1632044017314911
1629894320031,0.5185009837150574,0.4218343198299408,0.4002358317375183,0.1632044017314911
1629894320124,0.5185009837150574,0.399793267250061,0.5084298253059387,0.1632044017314911
1629894320233,0.5185009837150574,0.399793267250061,0.5919265151023865,0.1632044017314911
1629894320359,0.5185009837150574,0.399793267250061,0.6195544004440308,0.1632044017314911
1629894320438,0.5185009837150574,0.399793267250061,0.6203355193138123,0.1632044017314911
1629894320531,0.5185009837150574,0.399793267250061,0.6203355193138123,0.1632044017314911
1629894320671,0.5185009837150574,0.399793267250061,0.6203355193138123,0.1632044017314911
1629894320765,0.5185009837150574,0.399793267250061,0.614531397819519,0.1632044017314911
1629894320861,0.5185009837150574,0.399793267250061,0.6118728518486023,0.1632044017314911
1629894321000,0.5185009837150574,0.399793267250061,0.6146036982536316,0.1632044017314911
1629894321047,0.5185009837150574,0.399793267250061,0.6146036982536316,0.1632044017314911
1629894321156,0.5185009837150574,0.399793267250061,0.6146036982536316,0.1632044017314911
1629894321248,0.5185009837150574,0.399793267250061,0.6146036982536316,0.1632044017314911
1629894321340,0.5185009837150574,0.399793267250061,0.6146036982536316,0.1632044017314911
1629894321498,0.5185009837150574,0.399793267250061,0.6146036982536316,0.1632044017314911
1629894321625,0.5185009837150574,0.399793267250061,0.6146036982536316,0.1632044017314911
1629894321685,0.5185009837150574,0.399793267250061,0.6120952367782593,0.1632044017314911
1629894321751,0.5185009837150574,0.399793267250061,0.6002821326255798,0.1632044017314911
1629894321845,0.5185009837150574,0.399793267250061,0.5679520964622498,0.1632044017314911
1629894321923,0.5185009837150574,0.399793267250061,0.5502752661705017,0.1632044017314911
1629894322092,0.5185009837150574,0.399793267250061,0.5368441939353943,0.1632044017314911
1629894322170,0.5185009837150574,0.399793267250061,0.5331239700317383,0.1632044017314911
1629894322264,0.5185009837150574,0.399793267250061,0.5331239700317383,0.1632044017314911
1629894322374,0.5185009837150574,0.399793267250061,0.5222258567810059,0.1632044017314911
1629894322465,0.5185009837150574,0.399793267250061,0.488141804933548,0.1632044017314911
1629894322545,0.5185009837150574,0.399793267250061,0.4924219846725464,0.1632044017314911
1629894322701,0.5185009837150574,0.399793267250061,0.5035648345947266,0.1632044017314911
1629894322780,0.5185009837150574,0.4468453526496887,0.547176718711853,0.1632044017314911
1629894322873,0.5933890342712402,0.4468453526496887,0.547176718711853,0.1632044017314911
1629894322953,0.6059283018112183,0.4468453526496887,0.547176718711853,0.5556743741035461
1629894323048,0.6343941688537598,0.4468453526496887,0.547176718711853,0.5765327215194702
1629894323158,0.6343941688537598,0.4468453526496887,0.547176718711853,0.5819904804229736
1629894323315,0.6343941688537598,0.4468453526496887,0.5399768948554993,0.5819904804229736
1629894323412,0.6343941688537598,0.4468453526496887,0.4774416387081146,0.589891791343689
1629894323521,0.6343941688537598,0.4468453526496887,0.4092609584331512,0.6000135540962219
1629894323585,0.6343941688537598,0.4468453526496887,0.393454909324646,0.602226197719574
1629894323678,0.6343941688537598,0.4468453526496887,0.3889992535114288,0.6647152900695801
1629894323758,0.6343941688537598,0.4468453526496887,0.3889992535114288,0.6953523755073547
1629894323898,0.6343941688537598,0.4468453526496887,0.3883831202983856,0.7055449485778809
1629894324010,0.6343941688537598,0.4468453526496887,0.3883831202983856,0.7079543471336365
1629894324106,0.5869585275650024,0.4468453526496887,0.3883831202983856,0.7145661115646362
1629894324227,0.5105966329574585,0.4468453526496887,0.3883831202983856,0.7125931978225708
1629894324322,0.5105966329574585,0.4468453526496887,0.3883831202983856,0.7046051621437073
1629894324368,0.5105966329574585,0.4468453526496887,0.3883831202983856,0.6957577466964722
1629894324495,0.5105966329574585,0.4468453526496887,0.3883831202983856,0.6894623041152954
1629894324637,0.5105966329574585,0.4468453526496887,0.1275371313095092,0.685831606388092
1629894324714,0.5105966329574585,0.4468453526496887,0.1567890793085098,0.685831606388092
1629894324796,0.5105966329574585,0.4468453526496887,0.1728691756725311,0.685831606388092
1629894324886,0.5105966329574585,0.4468453526496887,0.2116563469171524,0.685831606388092
1629894324991,0.5105966329574585,0.4468453526496887,0.2617145478725433,0.685831606388092
1629894325121,0.5105966329574585,0.4468453526496887,0.3015113472938537,0.6777268648147583
1629894325216,0.5105966329574585,0.4468453526496887,0.3015113472938537,0.6577888131141663
1629894325324,0.5105966329574585,0.4468453526496887,0.3015113472938537,0.6577888131141663
1629894325403,0.5105966329574585,0.4468453526496887,0.3015113472938537,0.6577888131141663
1629894325481,0.5105966329574585,0.4468453526496887,0.3015113472938537,0.6577888131141663
1629894325591,0.5105966329574585,0.4468453526496887,0.6006515622138977,0.6577888131141663
1629894325718,0.5105966329574585,0.7494663596153259,0.6679903268814087,0.6577888131141663
1629894325810,0.5105966329574585,0.8480546474456787,0.6950964331626892,0.6577888131141663
1629894325920,0.5105966329574585,0.8700146675109863,0.6950964331626892,0.6577888131141663
1629894326028,0.5105966329574585,0.8700146675109863,0.6950964331626892,0.6577888131141663
1629894326121,0.5105966329574585,0.8700146675109863,0.688810408115387,0.6577888131141663
1629894326215,0.5105966329574585,0.8700146675109863,0.6600013375282288,0.6577888131141663
1629894326373,0.5105966329574585,0.8700146675109863,0.6289935111999512,0.6577888131141663
1629894326464,0.5105966329574585,0.8700146675109863,0.6247006058692932,0.6577888131141663
1629894326526,0.5105966329574585,0.8700146675109863,0.6247006058692932,0.6577888131141663
1629894326621,0.5105966329574585,0.8700146675109863,0.6247006058692932,0.6577888131141663
1629894326700,0.5105966329574585,0.870205819606781,0.6247006058692932,0.6577888131141663
1629894326824,0.5105966329574585,0.8777654767036438,0.6247006058692932,0.6577888131141663
1629894326982,0.4139963090419769,0.8904416561126709,0.6259123086929321,0.3183773458003998
1629894327045,0.4946684837341308,0.8904416561126709,0.6354170441627502,0.3943255543708801
1629894327136,0.5923425555229187,0.8870380520820618,0.6460016369819641,0.4352666437625885
1629894327216,0.6732503771781921,0.8784545660018921,0.6560747027397156,0.4483437538146972
1629894327313,0.7136121392250061,0.8507148623466492,0.6702946424484253,0.4489133358001709
1629894327421,0.7136121392250061,0.3570814728736877,0.6458035707473755,0.4489133358001709
1629894327576,0.7136121392250061,0.3570814728736877,0.6181294322013855,0.4489133358001709
1629894327654,0.7136121392250061,0.3570814728736877,0.6150581240653992,0.4489133358001709
1629894327778,0.7136121392250061,0.3570814728736877,0.6150581240653992,0.4489133358001709
1629894327841,0.7136121392250061,0.3570814728736877,0.6798886656761169,0.4489133358001709
1629894327933,0.7136121392250061,0.3552920222282409,0.6900524497032166,0.4489133358001709
1629894328028,0.7136121392250061,0.3421621322631836,0.6855968236923218,0.4489133358001709
1629894328181,0.7118774652481079,0.3421621322631836,0.671857476234436,0.4414019286632538
1629894328278,0.7118774652481079,0.3421621322631836,0.6569854021072388,0.4304212033748626
1629894328370,0.7118774652481079,0.3421621322631836,0.6507757306098938,0.4271827638149261
1629894328478,0.7118774652481079,0.3421621322631836,0.6484159231185913,0.4102566540241241
1629894328540,0.7118774652481079,0.3421621322631836,0.6478224396705627,0.4102566540241241
1629894328652,0.7118774652481079,0.3421621322631836,0.6382037997245789,0.4102566540241241
1629894328762,0.7118774652481079,0.3421621322631836,0.6224492192268372,0.4102566540241241
1629894328889,0.7118774652481079,0.3421621322631836,0.6190997958183289,0.4102566540241241
1629894328981,0.7118774652481079,0.3421621322631836,0.6132289171218872,0.4102566540241241
1629894329060,0.7118774652481079,0.3421621322631836,0.6124901175498962,0.4102566540241241
1629894329189,0.7118774652481079,0.3421621322631836,0.6124901175498962,0.4102566540241241
1629894329280,0.7118774652481079,0.3421621322631836,0.6124901175498962,0.4102566540241241
1629894329392,0.7118774652481079,0.3421621322631836,0.6083162426948547,0.4102566540241241
1629894329502,0.7118774652481079,0.3421621322631836,0.529445469379425,0.4102566540241241
1629894329592,0.7118774652481079,0.3421621322631836,0.4188653528690338,0.4102566540241241
1629894329687,0.7118774652481079,0.3421621322631836,0.3792956173419952,0.4102566540241241
1629894329767,0.7118774652481079,0.3421621322631836,0.3692680895328522,0.4102566540241241
1629894329860,0.7118774652481079,0.3421621322631836,0.3692680895328522,0.4102566540241241
1629894329999,0.7118774652481079,0.3421621322631836,0.3692680895328522,0.4102566540241241
1629894330112,0.7118774652481079,0.3421621322631836,0.3692680895328522,0.4102566540241241
1629894330192,0.7118774652481079,0.3421621322631836,0.3692680895328522,0.4102566540241241
1629894330285,0.7118774652481079,0.3421621322631836,0.3692680895328522,0.4102566540241241
1629894330383,0.7118774652481079,0.3421621322631836,0.2744142711162567,0.4102566540241241
1629894330472,0.7118774652481079,0.3421621322631836,0.3091442584991455,0.4102566540241241
1629894330600,0.7118774652481079,0.5567454695701599,0.3548524975776672,0.4102566540241241
1629894330694,0.7118774652481079,0.5567454695701599,0.3733106255531311,0.4102566540241241
1629894330791,0.7118774652481079,0.5567454695701599,0.3804167509078979,0.4102566540241241
1629894330900,0.7118774652481079,0.5567454695701599,0.3913444578647613,0.4102566540241241
1629894330994,0.7118774652481079,0.5567454695701599,0.3965254724025726,0.4102566540241241
1629894331072,0.7118774652481079,0.5567454695701599,0.4068579077720642,0.4102566540241241
1629894331213,0.7118774652481079,0.5567454695701599,0.4099313616752624,0.4102566540241241
1629894331307,0.7118774652481079,0.5567454695701599,0.4099313616752624,0.4102566540241241
1629894331385,0.7118774652481079,0.5567454695701599,0.4099313616752624,0.4102566540241241
1629894331510,0.7118774652481079,0.5623569488525391,0.4106303751468658,0.4102566540241241
1629894331588,0.7118774652481079,0.5623569488525391,0.4313958883285522,0.4102566540241241
1629894331713,0.7118774652481079,0.5623569488525391,0.4847294390201568,0.4102566540241241
1629894331840,0.7118774652481079,0.5623569488525391,0.5230668783187866,0.4102566540241241
1629894331949,0.7118774652481079,0.5623569488525391,0.5351132154464722,0.4102566540241241
1629894332043,0.7118774652481079,0.5623569488525391,0.5341182947158813,0.4102566540241241
1629894332121,0.7118774652481079,0.5623569488525391,0.5317850708961487,0.4102566540241241
1629894332199,0.7118774652481079,0.5623569488525391,0.5229581594467163,0.4102566540241241
1629894332309,0.7118774652481079,0.5623569488525391,0.5154900550842285,0.4102566540241241
1629894332434,0.7118774652481079,0.5623569488525391,0.5078446269035339,0.4102566540241241
1629894332559,0.7118774652481079,0.5623569488525391,0.5015763640403748,0.4102566540241241
1629894332621,0.7118774652481079,0.3075839281082153,0.4743692874908447,0.4102566540241241
1629894332718,0.7118774652481079,0.3075839281082153,0.4455121457576751,0.4102566540241241
1629894332827,0.7118774652481079,0.3075839281082153,0.5078505277633667,0.4102566540241241
1629894332905,0.7118774652481079,0.3075839281082153,0.5943296551704407,0.4102566540241241
1629894333046,0.7118774652481079,0.3075839281082153,0.6300185918807983,0.4102566540241241
1629894333139,0.7118774652481079,0.3075839281082153,0.6300185918807983,0.4102566540241241
1629894333233,0.7118774652481079,0.3075839281082153,0.6275473833084106,0.4102566540241241
1629894333327,0.7118774652481079,0.3075839281082153,0.6049128770828247,0.4102566540241241
1629894333436,0.7118774652481079,0.3075839281082153,0.5650967359542847,0.4102566540241241
1629894333546,0.7118774652481079,0.3075839281082153,0.5642378330230713,0.4102566540241241
1629894333656,0.7118774652481079,0.3075839281082153,0.5784149169921875,0.4102566540241241
1629894333742,0.7118774652481079,0.3075839281082153,0.5886877775192261,0.4102566540241241
1629894333867,0.7118774652481079,0.3075839281082153,0.6112498044967651,0.4102566540241241
1629894333945,0.7118774652481079,0.3075839281082153,0.6464346051216125,0.4102566540241241
1629894334039,0.7118774652481079,0.7273036241531372,0.6542237997055054,0.4102566540241241
1629894334133,0.3727966845035553,0.7346556782722473,0.6550191640853882,0.4102566540241241
1629894334304,0.3728646039962768,0.7464045286178589,0.6550191640853882,0.3709839880466461
1629894334367,0.3728646039962768,0.7480867505073547,0.6550191640853882,0.4748391807079315
1629894334461,0.4175781011581421,0.7480867505073547,0.6533491015434265,0.5389999747276306
1629894334554,0.4980562031269073,0.7480867505073547,0.6264623999595642,0.5627517700195312
1629894334648,0.5846419334411621,0.7480867505073547,0.5612522959709167,0.5844815373420715
1629894334760,0.6601783633232117,0.7480867505073547,0.5260905027389526,0.5855950117111206
1629894334870,0.6601783633232117,0.7480867505073547,0.5205718278884888,0.5855950117111206
1629894334995,0.6601783633232117,0.7480867505073547,0.5205718278884888,0.5855950117111206
1629894335070,0.6601783633232117,0.7480867505073547,0.5186344981193542,0.5855950117111206
1629894335164,0.6601783633232117,0.7480867505073547,0.5041515827178955,0.5855950117111206
1629894335242,0.6601783633232117,0.7480867505073547,0.5190448760986328,0.5855950117111206
1629894335383,0.6559486389160156,0.7009180784225464,0.5702679753303528,0.5855950117111206
1629894335495,0.6411928534507751,0.6507782340049744,0.5960422158241272,0.5780252814292908
1629894335573,0.6295428276062012,0.5541107654571533,0.5902663469314575,0.5756005644798279
1629894335666,0.6273424029350281,0.4902408421039581,0.5775889754295349,0.5756005644798279
1629894335791,0.6247097849845886,0.4407189786434173,0.571983277797699,0.5756005644798279
1629894335870,0.6201164722442627,0.3452634215354919,0.571983277797699,0.5756005644798279
1629894335963,0.6201164722442627,0.2612963318824768,0.5736966729164124,0.5756005644798279
1629894336088,0.6201164722442627,0.2570924758911133,0.5750800371170044,0.5756005644798279
1629894336229,0.6201164722442627,0.2141845673322677,0.5780292749404907,0.5756005644798279
1629894336307,0.6201164722442627,0.3218627572059631,0.5861651301383972,0.5756005644798279
1629894336385,0.6201164722442627,0.4529462158679962,0.5922523736953735,0.5756005644798279
1629894336480,0.9296350479125975,0.5212284326553345,0.6003373861312866,0.2419085353612899
1629894336576,0.9381734132766724,0.539402961730957,0.6019957065582275,0.3394838869571686
1629894336716,0.939719557762146,0.539402961730957,0.6044413447380066,0.3938355445861816
1629894336810,0.939719557762146,0.539402961730957,0.6044413447380066,0.4464367628097534
1629894336904,0.939719557762146,0.539402961730957,0.5947544574737549,0.4877978563308716
1629894336982,0.939719557762146,0.539402961730957,0.5414091944694519,0.4956314265727997
1629894337091,0.939719557762146,0.539402961730957,0.4859724938869476,0.4956314265727997
1629894337185,0.939719557762146,0.539402961730957,0.4806353449821472,0.4956314265727997
1629894337326,0.939719557762146,0.539402961730957,0.4816190004348755,0.4956314265727997
1629894337404,0.939719557762146,0.539402961730957,0.4816190004348755,0.4956314265727997
1629894337516,0.939719557762146,0.539402961730957,0.4816190004348755,0.5164055228233337
1629894337578,0.939719557762146,0.539402961730957,0.4816190004348755,0.5164055228233337
1629894337688,0.935503363609314,0.539402961730957,0.4809838235378265,0.5164055228233337
1629894337828,0.9197781682014464,0.539402961730957,0.4721634089946747,0.5164055228233337
1629894337906,0.8688355684280396,0.5256945490837097,0.4851660430431366,0.5128636360168457
1629894338031,0.7805807590484619,0.4682137966156006,0.5385061502456665,0.4986855089664459
1629894338109,0.7381224632263184,0.3422194421291351,0.556931734085083,0.4688155353069305
1629894338188,0.7054479122161865,0.1415857970714569,0.5548441410064697,0.3986267149448395
1629894338313,0.6662363409996033,-0.0130357202142477,0.5587177872657776,0.3466702699661255
1629894338391,0.6357442736625671,-0.0746518298983573,0.6103222966194153,0.3390395641326904
1629894338550,0.5723537802696228,-0.1129873767495155,0.6397889256477356,0.3280488550662994
1629894338644,0.4419524669647217,-0.1727412045001983,0.6722150444984436,0.3207152187824249
1629894338753,0.4419524669647217,-0.2420928627252578,0.6830007433891296,0.3207152187824249
1629894338831,0.4419524669647217,-0.2420928627252578,0.6830007433891296,0.3207152187824249
1629894338909,0.4419524669647217,-0.2420928627252578,0.6830007433891296,0.3207152187824249
1629894339003,0.4419524669647217,-0.2420928627252578,0.6830007433891296,0.3207152187824249
1629894339159,0.4419524669647217,-0.2420928627252578,0.6830007433891296,0.3207152187824249
1629894339237,0.4419524669647217,0.2979371547698974,0.6830007433891296,0.3207152187824249
1629894339362,0.4419524669647217,0.5650155544281006,0.6830007433891296,0.3207152187824249
1629894339425,0.4419524669647217,0.5650155544281006,0.6830007433891296,0.3207152187824249
1629894339537,0.4419524669647217,0.5650155544281006,0.682007908821106,0.3207152187824249
1629894339599,0.4419524669647217,0.5650155544281006,0.643564760684967,0.3207152187824249
1629894339771,0.4419524669647217,0.5650155544281006,0.6070518493652344,0.3207152187824249
1629894339849,0.4419524669647217,0.5650155544281006,0.5998576879501343,0.3207152187824249
1629894339943,0.4419524669647217,0.5650155544281006,0.5973222851753235,0.3207152187824249
1629894340052,0.4419524669647217,0.5650155544281006,0.5799388885498047,0.3207152187824249
1629894340130,0.4419524669647217,0.5650155544281006,0.5556575655937195,0.3207152187824249
1629894340240,0.4419524669647217,0.5650155544281006,0.5393894910812378,0.3207152187824249
1629894340365,0.4419524669647217,0.5650155544281006,0.4868735373020172,0.3207152187824249
1629894340455,0.4419524669647217,0.5567812919616699,0.4416491687297821,0.3207152187824249
1629894340549,0.4419524669647217,0.5567812919616699,0.4280299544334411,0.3207152187824249
1629894340643,0.4419524669647217,0.5567812919616699,0.4084064960479736,0.3207152187824249
1629894340768,0.4419524669647217,0.5567812919616699,0.4015594720840454,0.3207152187824249
1629894340815,0.4419524669647217,0.5567812919616699,0.3960748612880707,0.3207152187824249
1629894340971,0.4419524669647217,0.5567812919616699,0.3864554762840271,0.3207152187824249
1629894341096,0.4419524669647217,0.5567812919616699,0.3787778615951538,0.3207152187824249
1629894341190,0.4419524669647217,0.5567812919616699,0.3759731650352478,0.3207152187824249
1629894341237,0.4419524669647217,0.5567812919616699,0.3677672445774078,0.3207152187824249
1629894341330,0.4419524669647217,0.5567812919616699,0.3590014576911926,0.3207152187824249
1629894341440,0.4419524669647217,-0.0015574560966342,0.3446279466152191,0.3207152187824249
1629894341596,0.5180425047874451,0.0505841113626956,0.3005420863628387,0.5987094640731812
1629894341674,0.5552266836166382,0.114350214600563,0.293751448392868,0.6058347821235657
1629894341770,0.5617100596427917,0.21633280813694,0.3025549054145813,0.6058347821235657
1629894341863,0.5628259778022766,0.2903288900852203,0.3072987496852875,0.6058347821235657
1629894341957,0.5628259778022766,0.3094094693660736,0.2858851850032806,0.6079311966896057
1629894342098,0.5631541609764099,0.3171955049037933,0.3093021512031555,0.6103507876396179
1629894342207,0.5687337517738342,0.3274218142032623,0.3225235342979431,0.6111815571784973
1629894342285,0.5687337517738342,0.3532034158706665,0.3326216042041778,0.6111815571784973
1629894342379,0.5687337517738342,0.4088333249092102,0.3484313786029815,0.6111815571784973
1629894342473,0.5687337517738342,0.490003228187561,0.3484313786029815,0.6111815571784973
1629894342582,0.5687337517738342,0.6259273886680603,0.3484313786029815,0.6111815571784973
1629894342676,0.5687337517738342,0.7314344048500061,0.6292478442192078,0.6111815571784973
1629894342773,0.5419820547103882,0.7573894262313843,0.7059343457221985,0.5826411843299866
1629894342914,0.5419820547103882,0.7666643857955933,0.7059343457221985,0.5476934909820557
1629894343023,0.5328167080879211,0.7666643857955933,0.7059343457221985,0.4907270967960357
1629894343101,0.5230017304420471,0.7666643857955933,0.7059343457221985,0.4062869250774383
1629894343195,0.5207268595695496,0.7666643857955933,0.7059343457221985,0.2761066555976867
1629894343273,0.4699275195598602,0.7666643857955933,0.7059343457221985,0.1501234769821167
1629894343429,0.4699275195598602,0.7649615406990051,0.7059343457221985,0.1501234769821167
1629894343496,0.4699275195598602,0.7611345648765564,0.7059343457221985,0.1501234769821167
1629894343605,0.4699275195598602,0.7611345648765564,0.7048596739768982,0.1501234769821167
1629894343699,0.4699275195598602,0.7611345648765564,0.7048173546791077,0.1501234769821167
1629894343792,0.4699275195598602,0.7611345648765564,0.6997184157371521,0.1501234769821167
1629894343886,0.4699275195598602,0.7611345648765564,0.6984447240829468,0.1501234769821167
1629894344042,0.4699275195598602,0.7611345648765564,0.7113077044487,0.1501234769821167
1629894344136,0.4699275195598602,0.7611345648765564,0.7385185956954956,0.1501234769821167
1629894344183,0.4699275195598602,0.742928683757782,0.7577892541885376,0.1501234769821167
1629894344292,0.4699275195598602,0.6291229128837585,0.7176034450531006,0.1501234769821167
1629894344417,0.4699275195598602,0.4937013387680053,0.577908992767334,0.1501234769821167
1629894344499,0.4699275195598602,0.3871306478977203,0.4956088662147522,0.1501234769821167
1629894344640,0.4699275195598602,0.3263181746006012,0.474380761384964,0.1501234769821167
1629894344718,0.4699275195598602,0.292119413614273,0.5337748527526855,0.1501234769821167
1629894344827,0.4699275195598602,0.2569621801376343,0.599606454372406,0.1501234769821167
1629894344921,0.4699275195598602,0.1874812394380569,0.6117093563079834,0.1501234769821167
1629894345015,0.4699275195598602,0.0597686916589736,0.6130139231681824,0.1501234769821167
1629894345108,0.4699275195598602,-0.0191348697990179,0.6150926947593689,0.1501234769821167
1629894345249,0.4699275195598602,-0.0191348697990179,0.6183425188064575,0.1501234769821167
1629894345343,0.4699275195598602,-0.0191348697990179,0.6291354298591614,0.1501234769821167
1629894345436,0.4699275195598602,-0.0191348697990179,0.6408103108406067,0.1501234769821167
1629894345515,0.4699275195598602,-0.0191348697990179,0.6429442763328552,0.1501234769821167
1629894345593,0.4699275195598602,-0.0191348697990179,0.6429442763328552,0.1501234769821167
1629894345747,0.4699275195598602,-0.0191348697990179,0.6350710391998291,0.1501234769821167
1629894345839,0.4699275195598602,-0.0191348697990179,0.6189144253730774,0.1501234769821167
1629894345941,0.4699275195598602,-0.0191348697990179,0.5848305225372314,0.1501234769821167
1629894346066,0.4699275195598602,-0.0191348697990179,0.5381600856781006,0.1501234769821167
1629894346123,0.4699275195598602,-0.0191348697990179,0.5086309909820557,0.1501234769821167
1629894346216,0.4699275195598602,-0.0191348697990179,0.4967949390411377,0.1501234769821167
1629894346339,0.4699275195598602,0.3162762522697449,0.4969082474708557,0.1501234769821167
1629894346480,0.4699275195598602,0.3162762522697449,0.4567253589630127,0.1501234769821167
1629894346558,0.4699275195598602,0.3162762522697449,0.3904131352901459,0.1501234769821167
1629894346652,0.4699275195598602,0.3162762522697449,0.3733481168746948,0.1501234769821167
1629894346747,0.4699275195598602,0.3162762522697449,0.3733481168746948,0.1501234769821167
1629894346841,0.4699275195598602,0.3162762522697449,0.3669545650482178,0.1501234769821167
1629894346919,0.4699275195598602,0.3162762522697449,0.3591600060462951,0.1501234769821167
1629894347059,0.4699275195598602,0.3162762522697449,0.3455849885940552,0.1501234769821167
1629894347153,0.4699275195598602,0.3162762522697449,0.3433088660240173,0.1501234769821167
1629894347278,0.4699275195598602,0.4195497930049896,0.3433088660240173,0.1501234769821167
1629894347371,0.4699275195598602,0.4418511986732483,0.3514271676540375,0.1501234769821167
1629894347450,0.4699275195598602,0.4588821232318878,0.3567308783531189,0.1501234769821167
1629894347526,0.4699275195598602,0.4708915650844574,0.4139999747276306,0.1501234769821167
1629894347707,0.4699275195598602,0.480770081281662,0.5020527839660645,0.1501234769821167
1629894347788,0.4699275195598602,0.480770081281662,0.5499444007873535,0.1501234769821167
1629894347850,0.4699275195598602,0.447138249874115,0.5874140858650208,0.1501234769821167
1629894347959,0.7852711081504822,0.4681107401847839,0.5967771410942078,0.6542903184890747
1629894348038,0.8018129467964172,0.47761932015419,0.5936523079872131,0.804137110710144
1629894348116,0.8288577198982239,0.4818744659423828,0.5879953503608704,0.8831128478050232
1629894348274,0.8400935530662537,0.4831166863441467,0.5881868004798889,0.8950610160827637
1629894348399,0.8400935530662537,0.4831166863441467,0.5881868004798889,0.8950610160827637
1629894348493,0.8400935530662537,0.4831166863441467,0.5881868004798889,0.8950610160827637
1629894348571,0.8400935530662537,0.4831166863441467,0.5881868004798889,0.8950610160827637
1629894348665,0.8400935530662537,0.4933687746524811,0.5881868004798889,0.8950610160827637
1629894348777,0.8400935530662537,0.5299492478370667,0.5881868004798889,0.8950610160827637
1629894348886,0.8400935530662537,0.5508872270584106,0.5881868004798889,0.8950610160827637
1629894349011,0.8400935530662537,0.5503829717636108,0.5787178874015808,0.8950610160827637
1629894349121,0.8400935530662537,0.5548088550567627,0.5472933053970337,0.8950610160827637
1629894349183,0.6944941878318787,0.5457057356834412,0.5073267817497253,0.894805371761322
1629894349292,0.6091287136077881,0.5405654907226562,0.4632111489772796,0.893821656703949
1629894349402,0.5774407386779785,0.5484351515769958,0.3750674724578857,0.893821656703949
1629894349496,0.5774407386779785,0.5565758347511292,0.4498025774955749,0.8829877972602844
1629894349605,0.5774407386779785,0.5724543333053589,0.4591427743434906,0.8829877972602844
1629894349683,0.5774407386779785,0.70723557472229,0.4904883503913879,0.8829877972602844
1629894349775,0.5774407386779785,0.70723557472229,0.4955818653106689,0.8829877972602844
1629894349868,0.5774407386779785,0.70723557472229,0.4444162249565124,0.8829877972602844
1629894349962,0.5774407386779785,0.70723557472229,0.4444162249565124,0.8829877972602844
1629894350150,0.5774407386779785,0.70723557472229,0.4485828280448913,0.8829877972602844
1629894350212,0.5774407386779785,0.70723557472229,0.455687552690506,0.8829877972602844
1629894350306,0.5774407386779785,0.70723557472229,0.465777575969696,0.8829877972602844
1629894350384,0.5774407386779785,0.6942643523216248,0.5036530494689941,0.8829877972602844
1629894350505,0.5774407386779785,0.6549879908561707,0.5365949273109436,0.8829877972602844
1629894350567,0.5774407386779785,0.6309071779251099,0.5539495944976807,0.8829877972602844
1629894350739,0.5774407386779785,0.6309071779251099,0.5669904351234436,0.8829877972602844
1629894350833,0.5774407386779785,0.6309071779251099,0.5670042037963867,0.8829877972602844
1629894350911,0.5774407386779785,0.6309071779251099,0.5670418739318848,0.8829877972602844
1629894351005,0.5774407386779785,0.6309071779251099,0.5646191835403442,0.8829877972602844
1629894351067,0.5774407386779785,0.6309071779251099,0.5646191835403442,0.8829877972602844
1629894351192,0.5774407386779785,0.6309071779251099,0.5485449433326721,0.8829877972602844
1629894351321,0.5774407386779785,0.6309071779251099,0.5227880477905273,0.8829877972602844
1629894351415,0.5774407386779785,0.6309071779251099,0.5045163631439209,0.8829877972602844
1629894351527,0.5774407386779785,0.6309071779251099,0.5200409293174744,0.8829877972602844
1629894351606,0.5774407386779785,0.6309071779251099,0.5398938059806824,0.8829877972602844
1629894351699,0.5774407386779785,0.6309071779251099,0.5486835837364197,0.8829877972602844
1629894351809,0.5774407386779785,0.6309071779251099,0.5486835837364197,0.8829877972602844
1629894351918,0.5774407386779785,0.6309071779251099,0.5486835837364197,0.8829877972602844
1629894352027,0.5774407386779785,0.6309071779251099,0.5474180579185486,0.8829877972602844
1629894352137,0.5774407386779785,0.6309071779251099,0.5450759530067444,0.8829877972602844
1629894352215,0.5774407386779785,0.6309071779251099,0.5292046070098877,0.8829877972602844
1629894352324,0.5774407386779785,0.6309071779251099,0.4950809478759765,0.8829877972602844
1629894352402,0.5774407386779785,0.6309071779251099,0.4440776705741882,0.8829877972602844
1629894352530,0.5774407386779785,0.6309071779251099,0.3777938187122345,0.8829877972602844
1629894352655,0.5774407386779785,0.6309071779251099,0.3348600268363952,0.8829877972602844
1629894352733,0.5774407386779785,-0.0832156091928482,0.3310827314853668,0.8829877972602844
1629894352827,0.5774407386779785,0.2525119185447693,0.3329959511756897,0.8829877972602844
1629894352952,0.5774407386779785,0.2525119185447693,0.386176735162735,0.8829877972602844
1629894353045,0.5774407386779785,0.2525119185447693,0.4408917725086212,0.8829877972602844
1629894353170,0.5774407386779785,0.2525119185447693,0.4526433944702148,0.8829877972602844
1629894353248,0.5774407386779785,0.2525119185447693,0.4266200363636017,0.8829877972602844
1629894353342,0.5774407386779785,0.2525119185447693,0.3849216103553772,0.8829877972602844
1629894353420,0.5774407386779785,0.2525119185447693,0.3601316213607788,0.8829877972602844
1629894353516,0.5774407386779785,0.2525119185447693,0.3601316213607788,0.8829877972602844
1629894353626,0.5774407386779785,0.2525119185447693,0.3601316213607788,0.8829877972602844
1629894353798,0.5774407386779785,0.2525119185447693,0.3601316213607788,0.8829877972602844
1629894353874,0.5774407386779785,0.2525119185447693,0.3558098375797272,0.8829877972602844
1629894353952,0.5774407386779785,0.2666321992874145,0.3518919050693512,0.8829877972602844
1629894354077,0.5774407386779785,0.2708038687705993,0.346033900976181,0.8829877972602844
1629894354171,0.5774407386779785,0.263521671295166,0.3431359827518463,0.8829877972602844
1629894354264,0.4106126427650451,0.2552119195461273,0.3352660238742828,0.1867917031049728
1629894354374,0.5338622331619263,-0.0225129108875989,0.3384422957897186,0.2366459220647812
1629894354454,0.5338622331619263,0.078734740614891,0.3384422957897186,0.2366459220647812
1629894354595,0.5338622331619263,0.078734740614891,0.3388862907886505,0.2366459220647812
1629894354657,0.5338622331619263,0.078734740614891,0.2886267304420471,0.2366459220647812
1629894354751,0.5338622331619263,0.078734740614891,0.267943412065506,0.2366459220647812
1629894354845,0.5338622331619263,0.078734740614891,0.3584980964660644,0.2366459220647812
1629894354985,0.5338622331619263,0.078734740614891,0.5005900859832764,0.2366459220647812
1629894355079,0.5338622331619263,0.078734740614891,0.5485928654670715,0.2366459220647812
1629894355188,0.5338622331619263,0.078734740614891,0.5485928654670715,0.2366459220647812
1629894355267,0.5338622331619263,0.078734740614891,0.5485928654670715,0.2366459220647812
1629894355407,0.5338622331619263,0.078734740614891,0.5485928654670715,0.2366459220647812
1629894355470,0.5337867736816406,0.078734740614891,0.5485928654670715,0.2115741223096847
1629894355598,0.5337867736816406,0.0577297024428844,0.5485928654670715,0.2115741223096847
1629894355691,0.5337867736816406,0.0553801171481609,0.5485928654670715,0.2115741223096847
1629894355769,0.5337867736816406,0.0478214249014854,0.5485928654670715,0.2115741223096847
1629894355879,0.5337867736816406,0.0403783805668354,0.5485928654670715,0.2115741223096847
1629894355957,0.5337867736816406,-0.164559319615364,0.5485928654670715,0.2115741223096847
1629894356066,0.5337867736816406,-0.1089581102132797,0.5485928654670715,0.4378417432308197
1629894356207,0.1939452439546585,-0.0476326756179332,0.5485928654670715,0.4787915647029876
1629894356285,0.1994709968566894,0.009237159974873,0.5485928654670715,0.4890516400337219
1629894356379,0.2065493762493133,0.0892974436283111,0.5414650440216064,0.4890516400337219
1629894356492,0.2065493762493133,0.1694588810205459,0.5083245635032654,0.4890516400337219
1629894356585,0.2065493762493133,0.2610190510749817,0.4150938689708709,0.4890516400337219
1629894356663,0.2065493762493133,0.4015338122844696,0.3081791400909424,0.4890516400337219
1629894356835,0.2065493762493133,0.4015338122844696,0.2958889901638031,0.4890516400337219
1629894356960,0.2065493762493133,0.4015338122844696,0.3180710673332214,0.4890516400337219
1629894357023,0.2065493762493133,0.4015338122844696,0.3736757040023803,0.4890516400337219
1629894357116,0.2065493762493133,0.4015338122844696,0.3944043517112732,0.4890516400337219
1629894357179,0.2065493762493133,0.4009820222854614,0.3944043517112732,0.4890516400337219
1629894357320,0.2065493762493133,0.3945592641830444,0.3944043517112732,0.3901562392711639
1629894357429,0.1384044736623764,0.3879261314868927,0.3944043517112732,0.3305906057357788
1629894357541,0.115400806069374,0.3857484459877014,0.3944043517112732,0.3184193670749664
1629894357666,0.115400806069374,0.4784327447414398,0.3944043517112732,0.3184193670749664
1629894357697,0.115400806069374,0.4894097447395324,0.3886015713214874,0.3184193670749664
1629894357838,0.115400806069374,0.4988678097724914,0.3848185241222381,0.3184193670749664
1629894357900,0.115400806069374,0.5099119544029236,0.3997461497783661,0.3184193670749664
1629894358041,0.115400806069374,0.5247788429260254,0.4282119572162628,0.3184193670749664
1629894358135,0.4922363758087158,0.545788049697876,0.4368432760238647,0.4227839112281799
1629894358228,0.5304588079452515,0.4294891953468323,0.4368432760238647,0.4655119776725769
1629894358337,0.5514876246452332,0.4294891953468323,0.4368432760238647,0.4770871102809906
1629894358430,0.5618731379508972,0.4294891953468323,0.432903915643692,0.4801601767539978
1629894358511,0.5886546969413757,0.4294891953468323,0.4404844045639038,0.488409012556076
1629894358652,0.6443150043487549,0.4294891953468323,0.3880838751792907,0.5174891948699951
1629894358745,0.7214731574058533,0.4294891953468323,0.3287428319454193,0.5530264377593994
1629894358823,0.7554006576538086,0.4294891953468323,0.3137829005718231,0.554893970489502
1629894358948,0.7644290328025818,0.4294891953468323,0.31559619307518,0.554893970489502
1629894359058,0.7644290328025818,0.4294891953468323,0.3345390856266022,0.554893970489502
1629894359120,0.7644290328025818,0.4236507415771484,0.3589363098144531,0.554893970489502
1629894359230,0.7644290328025818,0.4074569046497345,0.3598425686359405,0.554893970489502
1629894359339,0.7644290328025818,0.3757183253765106,0.3578129708766937,0.5355833172798157
1629894359433,0.7642409205436707,0.3648911416530609,0.3614712953567505,0.5292255282402039
1629894359514,0.7620599865913391,0.3655266463756561,0.3832630515098572,0.5354888439178467
1629894359607,0.7593854069709778,0.3516569137573242,0.3771421015262604,0.5509029030799866
1629894359717,0.75725919008255,0.2753989994525909,0.3510736525058746,0.5607993006706238
1629894359873,0.7536712884902954,0.167969673871994,0.3501221835613251,0.5474306344985962
1629894359967,0.7604751586914062,0.0795031189918518,0.3501221835613251,0.5580423474311829
1629894360045,0.7749254107475281,0.0624349862337112,0.3501221835613251,0.5913069248199463
1629894360185,0.7903304100036621,0.0510666668415069,0.3478835821151733,0.5952749848365784
1629894360248,0.8108884692192078,0.0510666668415069,0.3389464318752289,0.5915929079055786
1629894360342,0.8105593323707581,0.0510666668415069,0.3278818726539612,0.5887373685836792
1629894360467,0.8107173442840576,0.055703405290842,0.3517534434795379,0.5887373685836792
1629894360579,0.8340494632720947,0.1474631875753402,0.3980389535427093,0.5882347822189331
1629894360673,0.8340494632720947,0.1474631875753402,0.4056999683380127,0.5871357321739197
1629894360782,0.8340494632720947,0.1424960047006607,0.3796707391738891,0.5863065123558044
1629894360860,0.8340494632720947,0.1205323114991188,0.3837973773479461,0.5863065123558044
1629894360954,0.8340494632720947,0.1091278865933418,0.4326047599315643,0.5863065123558044
1629894361094,0.8340494632720947,0.1091278865933418,0.480930358171463,0.5863065123558044
1629894361188,0.8340494632720947,0.1091278865933418,0.5111411809921265,0.5774788856506348
1629894361298,0.8340494632720947,0.1091278865933418,0.5124797224998474,0.5527771711349487
1629894361374,0.8331418633460999,0.1091278865933418,0.51006680727005,0.5141673684120178
1629894361466,0.8287529945373535,0.1091278865933418,0.51006680727005,0.4577629566192627
1629894361561,0.8183565735816956,0.1091278865933418,0.51006680727005,0.4320086240768432
1629894361687,0.7874943017959595,0.1091278865933418,0.51006680727005,0.3617651164531708
1629894361797,0.7874943017959595,0.1326718628406524,0.51006680727005,0.3617651164531708
1629894361892,0.7874943017959595,0.1541377156972885,0.51006680727005,0.3617651164531708
1629894361955,0.7874943017959595,0.193446546792984,0.51006680727005,0.3617651164531708
1629894362048,0.7874943017959595,0.2066459208726883,0.51006680727005,0.3617651164531708
1629894362188,0.7874943017959595,0.2499908804893493,0.5035579800605774,0.3617651164531708
1629894362306,0.343792051076889,0.2662974894046783,0.4721743762493133,0.3617651164531708
1629894362400,0.352091908454895,0.2715367674827575,0.4500475227832794,0.4530720710754394
1629894362478,0.41266930103302,0.2868179976940155,0.4383042454719543,0.5062514543533325
1629894362637,0.5165011286735535,0.3255680799484253,0.4417605996131897,0.5588042736053467
1629894362699,0.6416531205177307,0.4259285032749176,0.4252684116363525,0.6198607683181763
1629894362762,0.7199829816818237,0.4951825737953186,0.4964711368083954,0.6822654008865356
1629894362935,0.7477033734321594,0.5181725025177002,0.6087578535079956,0.7182573676109314
1629894363013,0.7519877552986145,0.5181725025177002,0.6910721659660339,0.7862380743026733
1629894363105,0.7519877552986145,0.5181725025177002,0.7106044888496399,0.8566725850105286
1629894363211,0.7519877552986145,0.5181725025177002,0.7106044888496399,0.8915330171585083
1629894363290,0.7519877552986145,0.5157744288444519,0.7106044888496399,0.9316195845603944
1629894363386,0.7524192333221436,0.5115912556648254,0.7106044888496399,0.9324749112129213
1629894363525,0.7625800371170044,0.5115912556648254,0.7106044888496399,0.9324749112129213
1629894363602,0.7792696952819824,0.5115912556648254,0.7106044888496399,0.9324749112129213
1629894363696,0.791444718837738,0.5115912556648254,0.7106044888496399,0.9324749112129213
1629894363791,0.7957433462142944,0.5115912556648254,0.7106044888496399,0.9324749112129213
1629894363871,0.8094464540481567,0.5115912556648254,0.7129936218261719,0.9313399791717528
1629894363970,0.8514803051948547,0.5114877223968506,0.7117779850959778,0.929935872554779
1629894364122,0.874235212802887,0.4980368018150329,0.7098866105079651,0.9232957363128662
1629894364233,0.874235212802887,0.4640512466430664,0.7098866105079651,0.9152483344078064
1629894364328,0.8755472898483276,0.4206148087978363,0.7086008191108704,0.919610559940338
1629894364420,0.8554485440254211,0.150740161538124,0.69646817445755,0.9213945269584656
1629894364538,0.8208444714546204,0.1562444567680359,0.650020956993103,0.9249210357666016
1629894364614,0.79359370470047,0.1652330756187439,0.5739724636077881,0.9207756519317628
1629894364737,0.7863654494285583,0.1652330756187439,0.4549906253814697,0.8605325818061829
1629894364814,0.7778237462043762,0.1192435920238494,0.3455855548381805,0.788373589515686
1629894364906,0.7778237462043762,0.0825599059462547,0.3080048561096191,0.7140291333198547
1629894365001,0.7778237462043762,0.1476078033447265,0.315822035074234,0.653287947177887
1629894365125,0.7778237462043762,0.1476078033447265,0.3633802831172943,0.6348509192466736
1629894365205,0.772681474685669,0.1476078033447265,0.4508305788040161,0.6303509473800659
1629894365377,0.7620146870613098,0.1476078033447265,0.5058611035346985,0.6223435401916504
1629894365439,0.7571039199829102,0.1476078033447265,0.5056025981903076,0.6148592233657837
1629894365549,0.7283661961555481,0.1453357338905334,0.4798311293125152,0.6101620197296143
1629894365629,0.6210430860519409,0.1222598254680633,0.4713617861270904,0.5975079536437988
1629894365740,0.4549255669116974,0.0938568785786628,0.4587767720222473,0.5518572926521301
1629894365849,0.308456689119339,0.0898528397083282,0.4326030313968658,0.5236489176750183
1629894365975,0.308456689119339,0.0898187533020973,0.4425153732299804,0.5236489176750183
1629894366053,0.308456689119339,0.127994954586029,0.454983502626419,0.5236489176750183
1629894366130,0.308456689119339,0.1306546330451965,0.4623293876647949,0.5236489176750183
1629894366226,0.308456689119339,0.148021399974823,0.4645591080188751,0.5236489176750183
1629894366320,0.308456689119339,0.1801154911518097,0.4651900231838226,0.5236489176750183
1629894366428,0.308456689119339,0.2086511701345443,0.4651900231838226,0.5236489176750183
1629894366554,0.308456689119339,0.112996906042099,0.4644007980823517,0.5236489176750183
1629894366666,0.308456689119339,0.112996906042099,0.4599461853504181,0.5236489176750183
1629894366744,0.308456689119339,0.112996906042099,0.4479377865791321,0.5236489176750183
1629894366822,0.308456689119339,0.112996906042099,0.4241995513439178,0.5236489176750183
1629894366914,0.308456689119339,0.112996906042099,0.3345015347003937,0.5236489176750183
1629894367024,0.8873581886291504,0.112996906042099,0.2179709523916244,0.8080041408538818
1629894367167,0.8993993401527405,0.1465315073728561,0.2098705917596817,0.8223334550857544
1629894367246,0.9072924256324768,0.2516182363033294,0.2110568434000015,0.8249918818473816
1629894367339,0.9117546677589417,0.3345509469509125,0.2085673958063125,0.8249918818473816
1629894367432,0.918895184993744,0.364664614200592,0.2085673958063125,0.8249918818473816
1629894367525,0.918895184993744,0.364664614200592,0.1881551295518875,0.8249918818473816
1629894367634,0.918895184993744,0.364664614200592,0.1357156932353973,0.8249918818473816
1629894367775,0.918895184993744,0.3633494675159454,0.1365926265716552,0.8249918818473816
1629894367902,0.918895184993744,0.3543597161769867,0.2224654853343963,0.8249918818473816
1629894367996,0.918895184993744,0.3377366364002228,0.3518227636814117,0.8249918818473816
1629894368058,0.918895184993744,0.319396048784256,0.4594053030014038,0.8249918818473816
1629894368153,0.918895184993744,0.3051854968070984,0.5174205899238586,0.8249918818473816
1629894368233,0.8805405497550964,0.3027028143405914,0.5238758325576782,0.8224199414253235
1629894368389,0.8269705176353455,0.3027028143405914,0.5238758325576782,0.815031886100769
1629894368481,0.7353794574737549,0.2968087196350097,0.5238758325576782,0.7806087732315063
1629894368591,0.6256335377693176,0.278935819864273,0.5238758325576782,0.6881676316261292
1629894368670,0.5319275856018066,0.2758811712265014,0.5238758325576782,0.5728427171707153
1629894368748,0.5319275856018066,0.2787748277187347,0.5267444252967834,0.5728427171707153
1629894368871,0.5319275856018066,0.3473635911941528,0.5280572772026062,0.5728427171707153
1629894369029,0.5319275856018066,0.518983006477356,0.5362277626991272,0.5728427171707153
1629894369109,0.5319275856018066,0.6802824139595032,0.567328691482544,0.5728427171707153
1629894369186,0.5319275856018066,0.666441798210144,0.6046240925788879,0.5728427171707153
1629894369281,0.5319275856018066,0.666441798210144,0.605654239654541,0.5728427171707153
1629894369376,0.5319275856018066,0.666441798210144,0.605654239654541,0.5728427171707153
1629894369468,0.5319275856018066,0.666441798210144,0.6024258732795715,0.5728427171707153
1629894369595,0.5319275856018066,0.666441798210144,0.5888529419898987,0.5728427171707153
1629894369686,0.5319275856018066,0.666441798210144,0.5670129656791687,0.5728427171707153
1629894369811,0.5319275856018066,0.666441798210144,0.5211352705955505,0.5728427171707153
1629894369920,0.5319275856018066,0.685512125492096,0.4855339825153351,0.5728427171707153
1629894370014,0.5319275856018066,0.6864672899246216,0.4737550020217895,0.5728427171707153
1629894370074,0.5319275856018066,0.6864672899246216,0.4671104252338409,0.5728427171707153
1629894370199,0.5319275856018066,0.6864672899246216,0.4671104252338409,0.5728427171707153
1629894370325,0.3705030083656311,0.6864672899246216,0.4689927697181701,-0.0548461377620697
1629894370418,0.3870867490768432,0.6864672899246216,0.4703670442104339,0.0214320644736289
1629894370497,0.3901864886283874,0.6864672899246216,0.4703670442104339,0.1206058338284492
1629894370588,0.3912790417671203,-0.0474631153047084,0.4605752527713775,0.2392988950014114
1629894370716,0.3912790417671203,-0.0310889575630426,0.4031502902507782,0.2392988950014114
1629894370828,0.3912790417671203,0.0469592213630676,0.2656140923500061,0.2392988950014114
1629894370901,0.3912790417671203,0.3399600982666015,0.182532787322998,0.2392988950014114
1629894371010,0.3912790417671203,0.6573792099952698,0.4000622630119324,0.2392988950014114
1629894371108,0.3912790417671203,0.6573792099952698,0.5886166095733643,0.2392988950014114
1629894371229,0.3912790417671203,0.6573792099952698,0.7220453023910522,0.2392988950014114
1629894371308,0.3912790417671203,0.6573792099952698,0.764390230178833,0.2392988950014114
1629894371463,0.3912790417671203,0.6986666917800903,0.7742233872413635,0.2392988950014114
1629894371530,0.3912790417671203,0.6963202357292175,0.7779199481010437,0.2082907557487487
1629894371633,0.3602154552936554,0.6963202357292175,0.7931766510009766,0.1574691832065582
1629894371702,0.2638419866561889,0.6963202357292175,0.7966461777687073,0.1263507753610611
1629894371810,0.2638419866561889,0.7004711627960205,0.7966461777687073,0.1263507753610611
1629894371904,0.2638419866561889,0.7004711627960205,0.7966461777687073,0.1263507753610611
1629894372045,0.2638419866561889,0.7004711627960205,0.7966461777687073,0.1263507753610611
1629894372124,0.2638419866561889,0.7004711627960205,0.7966461777687073,0.1263507753610611
1629894372237,0.2638419866561889,0.7004711627960205,0.7966461777687073,0.1263507753610611
1629894372332,0.2638419866561889,0.7004711627960205,0.7966461777687073,0.1263507753610611
1629894372424,0.2638419866561889,0.7004711627960205,0.7966461777687073,0.1263507753610611
1629894372516,0.2638419866561889,0.7004711627960205,0.7966461777687073,0.1263507753610611
1629894372672,0.2638419866561889,0.7004711627960205,0.7957861423492432,0.1263507753610611
1629894372752,0.2638419866561889,0.7004711627960205,0.7894798517227173,0.1263507753610611
1629894372847,0.2638419866561889,0.7004711627960205,0.7267574071884155,0.1263507753610611
1629894372953,0.2638419866561889,0.7004711627960205,0.6539034247398376,0.1263507753610611
1629894373017,0.2638419866561889,0.7004711627960205,0.6228511333465576,0.1263507753610611
1629894373140,0.2638419866561889,0.7004711627960205,0.5725021958351135,0.1263507753610611
1629894373250,0.2638419866561889,0.7004711627960205,0.512001633644104,0.1263507753610611
1629894373378,0.2638419866561889,0.7004711627960205,0.485276848077774,0.1263507753610611
1629894373471,0.2638419866561889,0.7004711627960205,0.4790124595165252,0.1263507753610611
1629894373548,0.2638419866561889,0.7004711627960205,0.4605624973773956,0.1263507753610611
1629894373628,0.2638419866561889,0.7004711627960205,0.4563618898391723,0.1263507753610611
1629894373766,0.2638419866561889,0.7004711627960205,0.4563618898391723,0.1263507753610611
1629894373925,0.2638419866561889,0.7004711627960205,0.4563618898391723,0.1263507753610611
1629894373956,0.2638419866561889,0.7004711627960205,0.4438854455947876,0.1263507753610611
1629894374082,0.2638419866561889,0.7004711627960205,0.3721601068973541,0.1263507753610611
1629894374162,0.2638419866561889,0.7004711627960205,0.2165393084287643,0.1263507753610611
1629894374240,0.2638419866561889,0.7004711627960205,0.2417600452899933,0.1263507753610611
1629894374335,0.2638419866561889,0.7004711627960205,0.2560330033302307,0.1263507753610611
1629894374462,0.2638419866561889,0.7004711627960205,0.2705718576908111,0.1263507753610611
1629894374602,0.2638419866561889,0.2048455476760864,0.2905452847480774,0.1263507753610611
1629894374696,0.2638419866561889,0.2500280737876892,0.3569760620594024,0.1263507753610611
1629894374776,0.2638419866561889,0.3371866643428802,0.4543527066707611,0.1263507753610611
1629894374885,0.2638419866561889,0.4380526542663574,0.5004489421844482,0.1263507753610611
1629894374947,0.2638419866561889,0.4380526542663574,0.5173932909965515,0.1263507753610611
1629894375105,0.2638419866561889,0.4380526542663574,0.5173932909965515,1.0102548599243164
1629894375200,0.2638419866561889,0.4380526542663574,0.5173932909965515,1.0102548599243164
1629894375280,0.2638419866561889,0.4380526542663574,0.5681352615356445,1.0102548599243164
1629894375373,0.9417726993560792,0.4380526542663574,0.5681352615356445,1.0102548599243164
1629894375465,0.9581647515296936,0.4380526542663574,0.5681352615356445,1.0102548599243164
1629894375556,0.9732467532157898,0.4856728911399841,0.5681352615356445,1.0102548599243164
1629894375715,0.9892199635505676,0.4856728911399841,0.5804571509361267,1.0102548599243164
1629894375779,1.0052467584609983,0.4541434943675995,0.5816007256507874,1.011695146560669
1629894375873,1.0175002813339231,0.4491141438484192,0.5816007256507874,1.0195647478103638
1629894375966,1.0258264541625977,0.4493992626667022,0.5816007256507874,1.0310008525848389
1629894376092,1.0488626956939695,0.4631693363189697,0.5816007256507874,1.0343979597091677
1629894376185,1.0546557903289795,0.5035436153411865,0.5816007256507874,1.0343979597091677
1629894376311,1.047950267791748,0.5534053444862366,0.5816007256507874,1.0219866037368774
1629894376422,1.025607347488403,0.555520236492157,0.5753240585327148,0.9646635055541992
1629894376532,1.025607347488403,0.5849287509918213,0.5615302920341492,0.8614723682403564
1629894376595,1.0312083959579468,0.6016417741775513,0.6521016359329224,0.7955007553100586
1629894376671,1.0312083959579468,0.6257399320602417,0.7093343734741211,0.7765810489654541
1629894376780,1.0312083959579468,0.6388235092163086,0.7068057060241699,0.7620801329612732
1629894376924,1.028026461601257,0.641420304775238,0.712376594543457,0.7520938515663147
1629894377034,1.0053622722625732,0.6504424810409546,0.7305440902709961,0.7347662448883057
1629894377113,0.9787208437919616,0.647083580493927,0.7458778023719788,0.7347662448883057
1629894377205,0.9675855040550232,0.6449187994003296,0.7320531010627747,0.7347662448883057
1629894377315,0.9562904238700868,0.6258305907249451,0.706498384475708,0.7347662448883057
1629894377408,0.9321250915527344,0.6146441698074341,0.7063837647438049,0.7317305207252502
1629894377567,0.8940938115119934,0.6146441698074341,0.7063837647438049,0.7097629308700562
1629894377630,0.8767637014389038,0.6146441698074341,0.7063837647438049,0.6469941735267639
1629894377785,0.8382838368415833,0.6146441698074341,0.7063837647438049,0.5953370332717896
1629894377820,0.7855732440948486,0.6146441698074341,0.7063837647438049,0.5335994362831116
1629894377898,0.7610671520233154,0.6098743677139282,0.7063837647438049,0.4787008166313171
1629894377995,0.7574621438980103,0.6005630493164062,0.7063837647438049,0.4097524583339691
1629894378119,0.7390520572662354,0.5634016990661621,0.7054926753044128,0.2677449584007263
1629894378248,0.6920003890991211,0.4998942017555237,0.6849340200424194,0.1217609122395515
1629894378319,0.6349155306816101,0.4092342555522918,0.6044794917106628,0.0666898041963577
1629894378447,0.5631974339485168,0.313537985086441,0.490357369184494,0.0188905224204063
1629894378511,0.5154438614845276,0.2548310160636902,0.3933572173118591,-0.0679597556591034
1629894378588,0.5154438614845276,0.2548310160636902,0.3933572173118591,-0.0679597556591034
1629894378735,0.5154438614845276,0.2548310160636902,0.3933572173118591,-0.0679597556591034
1629894378816,0.5154438614845276,0.2548310160636902,0.3933572173118591,-0.0679597556591034
1629894378951,0.5154438614845276,0.2548310160636902,0.3933572173118591,-0.0679597556591034
1629894379046,0.5154438614845276,0.8767800331115723,0.3933572173118591,-0.0679597556591034
1629894379113,0.5154438614845276,0.8870991468429565,0.3933572173118591,-0.0679597556591034
1629894379204,0.5154438614845276,0.8958395719528198,0.3933572173118591,-0.0679597556591034
1629894379375,0.5154438614845276,0.8977234363555908,0.3933572173118591,-0.0679597556591034
1629894379471,0.5154438614845276,0.8977234363555908,0.3933572173118591,-0.0679597556591034
1629894379579,0.5154438614845276,0.8977234363555908,0.3933572173118591,-0.0679597556591034
1629894379645,0.5154438614845276,0.8977234363555908,0.3933572173118591,-0.0679597556591034
1629894379735,0.5154438614845276,0.8991554379463196,0.3933572173118591,-0.0679597556591034
1629894379828,0.4363671839237213,0.9006000757217407,1.0351797342300415,-0.0679597556591034
1629894379984,0.4532323777675628,0.9023562669754028,1.0351797342300415,-0.0679597556591034
1629894380078,0.4561814963817596,0.9023562669754028,1.0351797342300415,-0.0679597556591034
1629894380156,0.4562506377696991,0.9023562669754028,1.0351797342300415,0.5579544305801392
1629894380250,0.4562506377696991,0.8787824511528015,1.0351797342300415,0.5591185092926025
1629894380312,0.4562506377696991,0.7758799195289612,0.9039333462715148,0.5591185092926025
1629894380423,0.4562506377696991,0.6527353525161743,-0.1808543354272842,0.5591185092926025
1629894380564,0.4562506377696991,0.5716754198074341,0.3222732841968536,0.5591185092926025
1629894380672,0.4562506377696991,0.5307175517082214,0.3222732841968536,0.5591185092926025
1629894380764,0.4562506377696991,0.4116482436656952,0.3222732841968536,0.5591185092926025
1629894380858,0.4562506377696991,0.2866562604904175,0.3222732841968536,0.5591185092926025
1629894380968,0.4562506377696991,0.1975410133600235,0.3222732841968536,0.5591185092926025
1629894381033,0.3180507719516754,0.1513519436120987,0.3222732841968536,0.396203339099884
1629894381174,0.217841163277626,0.1857848763465881,0.3222732841968536,0.396203339099884
1629894381300,0.2025690376758575,0.1915876120328903,0.3222732841968536,0.396203339099884
1629894381411,0.1988700479269027,0.1989264637231826,0.3192716538906097,0.396203339099884
1629894381474,0.1988700479269027,0.205468401312828,0.3138154745101928,0.396203339099884
1629894381552,0.1988700479269027,0.2778244018554687,0.3120665550231933,0.396203339099884
1629894381645,0.1988700479269027,0.4406382143497467,0.3219442963600158,0.396203339099884
1629894381803,0.1988700479269027,0.5769143104553223,0.3433319628238678,0.396203339099884
1629894381864,0.1988700479269027,0.6405302882194519,0.354464590549469,0.396203339099884
1629894381974,0.1988700479269027,0.6563143134117126,0.3594545423984527,0.396203339099884
1629894382066,0.1988700479269027,0.6563143134117126,0.196710854768753,0.396203339099884
1629894382179,0.1988700479269027,0.653484046459198,0.2081454694271087,0.396203339099884
1629894382274,0.1988700479269027,0.653484046459198,0.2455020099878311,0.396203339099884
1629894382416,0.1988700479269027,0.653484046459198,0.3418063521385193,0.396203339099884
1629894382507,0.1988700479269027,0.653484046459198,0.4485518038272857,0.396203339099884
1629894382585,0.1988700479269027,0.653484046459198,0.5442345142364502,0.396203339099884
1629894382695,0.1988700479269027,0.6515109539031982,0.6483141183853149,0.396203339099884
1629894382791,0.1988700479269027,0.6493362784385681,0.7199530601501465,0.396203339099884
1629894382854,0.1988700479269027,0.6429292559623718,0.7347325682640076,0.396203339099884
1629894383010,0.1988700479269027,0.6397915482521057,0.7347325682640076,0.396203339099884
1629894383118,0.1988700479269027,0.6343244910240173,0.7347325682640076,0.396203339099884
1629894383216,0.1988700479269027,0.6267210245132446,0.7347325682640076,0.396203339099884
1629894383308,0.1988700479269027,0.6186370849609375,0.7347325682640076,0.396203339099884
1629894383388,0.1988700479269027,0.5427969098091125,0.7347325682640076,0.396203339099884
1629894383483,0.1988700479269027,0.4249952733516693,0.7331053018569946,0.396203339099884
1629894383623,0.1988700479269027,0.3453382849693298,0.7331053018569946,0.396203339099884
1629894383703,0.1988700479269027,0.3051061630249023,0.7331053018569946,0.396203339099884
1629894383812,0.1988700479269027,0.3142052292823791,0.7331053018569946,0.396203339099884
1629894383906,0.1988700479269027,0.3160626292228699,0.7331053018569946,0.396203339099884
1629894384000,0.1988700479269027,0.2965713739395141,0.741317868232727,0.396203339099884
1629894384080,0.4804117679595947,-0.1801204830408096,0.7567811608314514,0.4475976228713989
1629894384221,0.5053504705429077,-0.1178327426314354,0.7473830580711365,0.4484118819236755
1629894384316,0.5482327342033386,0.0175977107137441,0.7400981783866882,0.4713167548179626
1629894384393,0.616645097732544,0.1548695415258407,0.7163743376731873,0.4968069791793823
1629894384550,0.685335636138916,0.286203533411026,0.7150163650512695,0.5330413579940796
1629894384627,0.7676688432693481,0.4055783450603485,0.6928260326385498,0.5618335008621216
1629894384705,0.8439775705337524,0.4888421297073364,0.6585455536842346,0.5897097587585449
1629894384845,0.9391286373138428,0.5207452178001404,0.6616441011428833,0.6243616938591003
1629894384939,0.99698144197464,0.53044593334198,0.6754429340362549,0.7042425870895386
1629894385051,1.010802984237671,0.5394653081893921,0.6774196624755859,0.7732970118522644
1629894385130,1.0208265781402588,0.5551180839538574,0.6916295886039734,0.7934862971305847
1629894385221,1.0235867500305176,0.5594462752342224,0.696388304233551,0.7934862971305847
1629894385299,1.0235867500305176,0.5594462752342224,0.696388304233551,0.7934862971305847
1629894385458,1.0235867500305176,0.558258593082428,0.696388304233551,0.7914525866508484
1629894385554,1.0235867500305176,0.5503838062286377,0.696388304233551,0.7941265106201172
1629894385669,1.0235867500305176,0.5474598407745361,0.696388304233551,0.7987387180328369
1629894385730,1.0235867500305176,0.5474598407745361,0.696388304233551,0.7987387180328369
1629894385840,1.0235867500305176,0.5474598407745361,0.696388304233551,0.7987387180328369
1629894385902,1.0235867500305176,0.5474598407745361,0.696388304233551,0.7987387180328369
1629894386060,1.0235867500305176,0.5474598407745361,0.696388304233551,0.7987387180328369
1629894386155,1.0235867500305176,0.5412205457687378,0.696388304233551,0.7981563806533813
1629894386297,1.0215994119644165,0.5271949172019958,0.6961520314216614,0.7877312898635864
1629894386362,1.0022194385528564,0.4655588567256927,0.680342972278595,0.7749156951904297
1629894386469,0.9314000606536864,0.3988422155380249,0.6443530321121216,0.7715961933135986
1629894386516,0.863689661026001,0.3523750007152557,0.6007568836212158,0.7636624574661255
1629894386675,0.8158047199249268,0.2937548756599426,0.5963519811630249,0.7324644923210144
1629894386801,0.8122154474258423,0.2724804282188415,0.5855986475944519,0.7082024216651917
1629894386863,0.8124103546142578,0.2682614326477051,0.5398950576782227,0.7313718199729919
1629894386946,0.8124103546142578,0.2779257297515869,0.486763596534729,0.7561168074607849
1629894387067,0.8124103546142578,0.2827443778514862,0.474547803401947,0.7993205189704895
1629894387116,0.8124103546142578,0.2827443778514862,0.4718393683433532,0.8211835026741028
1629894387274,0.8124796748161316,0.2827443778514862,0.4638362228870392,0.8232218027114868
1629894387383,0.8124796748161316,0.2806181609630584,0.461974948644638,0.8232218027114868
1629894387448,0.8124796748161316,0.2905780375003814,0.4650467932224273,0.8232218027114868
1629894387557,0.8124796748161316,0.3122320175170898,0.4657653570175171,0.8232218027114868
1629894387652,0.8124796748161316,0.320373922586441,0.4657653570175171,0.8232218027114868
1629894387746,0.8124796748161316,0.3161541521549225,0.4657653570175171,0.8126418590545654
1629894387872,0.8186244368553162,0.3145562708377838,0.4657653570175171,0.7944774031639099
1629894387981,0.8286938667297363,0.3145562708377838,0.4657653570175171,0.7848917841911316
1629894388074,0.8136408925056458,0.3074835538864136,0.4657653570175171,0.7762516736984253
1629894388169,0.8154209852218628,0.3066614270210266,0.4672766923904419,0.7645364999771118
1629894388262,0.814574122428894,0.3103851974010467,0.4652509987354278,0.7368805408477783
1629894388386,0.7909713983535767,0.3133178651332855,0.3710196912288666,0.6927103996276855
1629894388481,0.748238205909729,0.310193806886673,0.2330568134784698,0.6363507509231567
1629894388638,0.7008622884750366,0.2774058878421783,0.174514502286911,0.5671073198318481
1629894388698,0.6687330603599548,0.2711470127105713,0.1518938094377517,0.4846295714378357
1629894388778,0.6467729806900024,0.2711470127105713,0.1713940799236297,0.4324254691600799
1629894388855,0.6467729806900024,0.2711470127105713,0.2391076236963272,0.4374652206897735
1629894388981,0.6467729806900024,0.2711470127105713,0.2973887622356415,0.4374652206897735
1629894389137,0.6467729806900024,0.2711470127105713,0.2998667061328888,0.4374652206897735
1629894389249,0.6467729806900024,0.2348251342773437,0.2789812386035919,0.4374652206897735
1629894389277,0.6456881761550903,0.1862867474555969,0.2474813610315323,0.4358406662940979
1629894389375,0.6411356329917908,0.1639127731323242,0.2452417910099029,0.4278252422809601
1629894389484,0.6380079388618469,0.158098354935646,0.2452417910099029,0.4210565984249115
1629894389578,0.6270405054092407,0.1432437151670456,0.2469938248395919,0.4142513275146484
1629894389718,0.5505971908569336,0.1203914582729339,0.2670802175998688,0.3926793038845062
1629894389798,0.4402949512004852,0.098845824599266,0.2707263529300689,0.3328454792499542
1629894389912,0.3660271167755127,0.0430567972362041,0.2707263529300689,0.2822931110858917
1629894390050,0.2961029708385467,-0.0335336364805698,0.2707263529300689,0.2587368190288543
1629894390084,0.2961029708385467,-0.0533798150718212,0.2707263529300689,0.2587368190288543
1629894390163,0.2961029708385467,-0.0533798150718212,0.2707263529300689,0.2587368190288543
1629894390334,0.2961029708385467,-0.0533798150718212,0.2707263529300689,0.2587368190288543
1629894390427,0.2961029708385467,-0.0533798150718212,0.2702707350254059,0.2587368190288543
1629894390537,0.2961029708385467,-0.0533798150718212,0.2644665539264679,0.2587368190288543
1629894390601,0.6823865175247192,0.062998428940773,0.2108048945665359,0.2587368190288543
1629894390710,0.6883456707000732,0.0630127936601638,0.2195370495319366,0.2312005013227462
1629894390788,0.6883456707000732,0.0630127936601638,0.2317938208580017,0.2312005013227462
1629894390945,0.6883456707000732,0.0630127936601638,0.2546608746051788,0.2312005013227462
1629894391023,0.6883456707000732,0.0630127936601638,0.2618594765663147,0.2312005013227462
1629894391163,0.6883456707000732,0.0630127936601638,0.2674208879470825,0.2312005013227462
1629894391226,0.6883456707000732,0.0630127936601638,0.2648811042308807,0.2312005013227462
1629894391304,0.6883456707000732,0.0630127936601638,0.2386104613542556,0.2312005013227462
1629894391429,0.6883456707000732,0.0630127936601638,0.2282339185476303,0.2312005013227462
1629894391542,0.6883456707000732,0.0630127936601638,0.2282339185476303,0.2312005013227462
1629894391635,0.6883456707000732,0.0630127936601638,0.2282990664243698,0.2312005013227462
1629894391729,0.6883456707000732,0.0630127936601638,0.2282990664243698,0.2312005013227462
1629894391807,0.6797564625740051,-0.0040271449834108,0.2306226938962936,0.2312005013227462
1629894391917,0.6797564625740051,-0.0040271449834108,0.2559102475643158,0.2312005013227462
1629894392010,0.6797564625740051,-0.0040271449834108,0.3170595467090606,0.2312005013227462
1629894392167,0.6797564625740051,-0.0040271449834108,0.3853911757469177,0.2312005013227462
1629894392229,0.6797564625740051,-0.0040271449834108,0.4339932203292846,0.2312005013227462
1629894392322,0.6797564625740051,0.2914246618747711,0.4558827579021454,0.7791256308555603
1629894392432,0.5253463387489319,0.3634556829929352,0.477074533700943,0.8047775030136108
1629894392544,0.56345134973526,0.4212093949317932,0.5057362914085388,0.8047775030136108
1629894392622,0.584585964679718,0.4402131140232086,0.5165446996688843,0.8047775030136108
1629894392778,0.5947949290275574,0.465785801410675,0.5153967142105103,0.8047775030136108
1629894392872,0.5947949290275574,0.5213543772697449,0.514299213886261,0.8047775030136108
1629894392965,0.5947949290275574,0.5641496181488037,0.5194052457809448,0.8047775030136108
1629894393075,0.5947949290275574,0.588406503200531,0.5403804183006287,0.8047775030136108
1629894393184,0.5947949290275574,0.6538606286048889,0.5742601156234741,0.8047775030136108
1629894393247,0.5947949290275574,0.6538606286048889,0.6120932102203369,0.8047775030136108
1629894393387,0.5947949290275574,0.6538606286048889,0.6479224562644958,0.8047775030136108
1629894393450,0.5947949290275574,0.6538606286048889,0.6915212869644165,0.8047775030136108
1629894393562,0.5947949290275574,0.6538606286048889,0.7063129544258118,0.7775705456733704
1629894393693,0.5758777260780334,0.6538606286048889,0.7063129544258118,0.7159042358398438
1629894393756,0.5232421159744263,0.6538606286048889,0.7021365761756897,0.6948642134666443
1629894393849,0.4816522002220154,0.6538606286048889,0.6962628960609436,0.6946225166320801
1629894393974,0.4445395767688751,0.65043044090271,0.6962628960609436,0.6594210863113403
1629894394068,0.4197779595851898,0.6338541507720947,0.6962628960609436,0.5795661211013794
1629894394162,0.4197779595851898,0.6042996644973755,0.6962628960609436,0.5795661211013794
1629894394287,0.4197779595851898,0.5995563268661499,0.6962628960609436,0.5795661211013794
1629894394365,0.4197779595851898,0.6007002592086792,0.6962628960609436,0.5795661211013794
1629894394492,0.4197779595851898,0.5820221304893494,0.6962628960609436,0.5795661211013794
1629894394586,1.025477409362793,0.5459484457969666,0.6962628960609436,0.9121467471122742
1629894394695,1.0534285306930542,0.1103089824318885,0.6963617205619812,0.91555517911911
1629894394774,1.074493169784546,0.1103089824318885,0.6985931992530823,0.9167316555976868
1629894394883,1.083631992340088,0.1109919622540474,0.6745744347572327,0.9205654859542848
1629894394961,1.083631992340088,0.119166761636734,0.6260652542114258,0.92075777053833
1629894395070,1.083631992340088,0.1393564492464065,0.5740722417831421,0.920862078666687
1629894395242,1.0847492218017578,0.1709657609462738,0.519712507724762,0.920862078666687
1629894395305,1.0867420434951782,0.188802570104599,0.4697626531124115,0.920862078666687
1629894395414,1.0867420434951782,0.1996035277843475,0.4484795033931732,0.920862078666687
1629894395511,1.0867420434951782,0.2088050693273544,0.4393514692783355,0.920862078666687
1629894395605,1.0867420434951782,0.2088050693273544,0.443119078874588,0.920862078666687
1629894395699,1.0867420434951782,0.2088050693273544,0.4478762745857239,0.920862078666687
1629894395824,0.9634101390838624,0.198559358716011,0.4478762745857239,0.920862078666687
1629894395902,0.8964928984642029,0.2993570566177368,0.4813399016857147,0.9123129844665528
1629894396027,0.8527044057846069,0.5608948469161987,0.6074888706207275,0.8846698999404907
1629894396089,0.81464022397995,0.7526826858520508,0.6074888706207275,0.8280186057090759
1629894396198,0.8031001687049866,0.8085289597511292,0.6074888706207275,0.6881672739982605
1629894396277,0.851095974445343,0.8085289597511292,0.6007607579231262,0.5962339639663696
1629894396464,0.8583011031150818,0.8085289597511292,0.5853706002235413,0.5939056277275085
1629894396545,0.8039034605026245,0.8085289597511292,0.5710781812667847,0.5894410610198975
1629894396623,0.7792519927024841,0.8085289597511292,0.5656565427780151,0.6213083863258362
1629894396732,0.7810273766517639,0.8085289597511292,0.5824649333953857,0.7115917801856995
1629894396795,0.7854666113853455,0.8085289597511292,0.5881448984146118,0.7851987481117249
1629894396888,0.7940638065338135,0.8085289597511292,0.5881448984146118,0.8117684125900269
1629894397045,0.7986711859703064,0.8085289597511292,0.5881448984146118,0.7919921875
1629894397138,0.7986711859703064,0.8085289597511292,0.5881448984146118,0.7847065329551697
1629894397248,0.7986711859703064,0.8085289597511292,0.572719931602478,0.8044676184654236
1629894397310,0.7986711859703064,0.8085289597511292,0.5720070600509644,0.8380376100540161
1629894397404,0.7986711859703064,0.8085289597511292,0.5720070600509644,0.8751811981201172
1629894397516,0.7986711859703064,0.8085289597511292,0.5357154011726379,0.8757401704788208
1629894397641,0.794965386390686,0.8057223558425903,0.6914258003234863,0.8757401704788208
1629894397735,0.8096165657043457,0.7880282402038574,0.7804839015007019,0.8795769810676575
1629894397828,0.8799844980239868,0.8109534382820129,0.8091884255409241,0.8824209570884705
1629894397922,0.8997827172279358,0.8160674571990967,0.8184404373168945,0.8857941627502441
1629894398016,0.897109866142273,0.8108970522880554,0.821854829788208,0.8861384391784668
1629894398125,0.9028595089912416,0.8130185008049011,0.8191516995429993,0.8861384391784668
1629894398266,0.920805811882019,0.817878246307373,0.8075087666511536,0.8838246464729309
1629894398375,0.938310444355011,0.8212482333183289,0.7997834086418152,0.8782007694244385
1629894398406,0.9412156343460084,0.8212482333183289,0.798891544342041,0.8658992052078247
1629894398550,0.9412156343460084,0.8212482333183289,0.7991438508033752,0.8309117555618286
1629894398659,0.9412156343460084,0.8212482333183289,0.7991438508033752,0.7859570384025574
1629894398737,0.9412156343460084,0.8212482333183289,0.7991438508033752,0.7430046796798706
1629894398862,0.9412156343460084,0.8212482333183289,0.8020577430725098,0.7241074442863464
1629894399003,0.9412156343460084,0.8212482333183289,0.7964164614677429,0.6821726560592651
1629894399065,0.9412156343460084,0.8212482333183289,0.7996658682823181,0.5912706255912781
1629894399143,0.9412156343460084,0.8330297470092773,0.8010537624359131,0.5259765982627869
1629894399253,0.9366268515586852,0.8427855372428894,0.78946453332901,0.5060117244720459
1629894399331,0.9276354312896729,0.8573342561721802,0.7433677911758423,0.5015410780906677
1629894399488,0.8845558166503906,0.8155271410942078,0.6905226707458496,0.5014453530311584
1629894399583,0.8181779384613037,0.6677536964416504,0.6170824766159058,0.4906874001026153
1629894399645,0.8181779384613037,0.4592314660549164,0.5511550307273865,0.4906874001026153
1629894399770,0.8181779384613037,0.3324674963951111,0.5479869842529297,0.4906874001026153
1629894399848,0.8181779384613037,0.3421568274497986,0.5491604804992676,0.4906874001026153
1629894399926,0.8181779384613037,0.3463370203971863,0.5491604804992676,0.4906874001026153
1629894400093,0.7434329986572266,0.3500325083732605,0.5491604804992676,0.3851083815097809
1629894400203,0.7482032179832458,0.3500325083732605,0.5491604804992676,0.3921272158622741
1629894400247,0.7538423538208008,0.3568945229053497,0.5491604804992676,0.3970724642276764
1629894400373,0.7595159411430359,0.4030849635601043,0.565440833568573,0.403639554977417
1629894400451,0.7698798775672913,0.4677428305149078,0.6101675033569336,0.4092781543731689
1629894400616,0.7881174087524414,0.496990829706192,0.6038450598716736,0.4249068200588226
1629894400722,0.7995837926864624,0.5000134706497192,0.5767071843147278,0.4505537152290344
1629894400799,0.7995837926864624,0.4865577816963196,0.5739573836326599,0.4600903689861297
1629894400878,0.7995837926864624,0.4710874557495117,0.5739573836326599,0.4665609002113342
1629894400969,0.7995837926864624,0.4399468004703522,0.5739573836326599,0.4973926842212677
1629894401082,0.7995837926864624,0.42283496260643,0.5602862238883972,0.5633532404899597
1629894401172,0.7995837926864624,0.42283496260643,0.5309051871299744,0.6371133327484131
1629894401282,0.7761469483375549,0.4282089471817016,0.4974116683006286,0.6296394467353821
1629894401377,0.6956890225410461,0.4323533475399017,0.4735768437385559,0.6328752040863037
1629894401504,0.625743567943573,0.4323533475399017,0.4619912803173065,0.6343977451324463
1629894401598,0.6263303756713867,0.4323533475399017,0.4619912803173065,0.6337481737136841
1629894401734,0.6263303756713867,0.4323533475399017,0.4619912803173065,0.633524477481842
1629894401765,0.6263303756713867,0.4473517835140228,0.4619912803173065,0.6332157850265503
1629894401937,0.6263303756713867,0.4473517835140228,0.4619912803173065,0.6291117668151855
1629894402009,0.6263303756713867,0.4357263445854187,0.4546163082122803,0.6250666379928589
1629894402087,0.6261354684829712,0.4148970246315002,0.3889380991458893,0.6246557235717773
1629894402195,0.6050310730934143,0.3873133063316345,0.1705686450004577,0.6246557235717773
1629894402289,0.5965481996536255,0.3416466414928436,0.1705686450004577,0.6246557235717773
1629894402382,0.5965481996536255,0.301616221666336,0.1828363835811615,0.6246557235717773
1629894402506,0.5965481996536255,0.2916955947875976,0.2079640030860901,0.6246557235717773
1629894402590,0.5965481996536255,0.2846147716045379,0.2549885809421539,0.6245245933532715
1629894402699,0.5930727124214172,0.2722246944904327,0.2897526025772095,0.6036480665206909
1629894402824,0.5930727124214172,0.2353667020797729,0.302129179239273,0.6036480665206909
1629894402902,0.5930727124214172,0.2468656599521637,0.3023669421672821,0.6036480665206909
1629894402996,0.5930727124214172,0.2694492936134338,0.2934782803058624,0.6036480665206909
1629894403106,0.5930727124214172,0.3377337157726288,0.2743783891201019,0.6036480665206909
1629894403247,0.5930727124214172,0.3944422006607055,0.2589748501777649,0.4475553631782532
1629894403309,0.5930727124214172,0.4135510921478271,0.2456935346126556,0.4475553631782532
1629894403403,0.5930727124214172,0.4138994812965393,0.2456935346126556,0.4475553631782532
1629894403515,0.5930727124214172,0.4138994812965393,0.2524588108062744,0.4475553631782532
1629894403609,0.5930727124214172,0.4138994812965393,0.2586305737495422,0.4552308320999145
1629894403749,0.5930727124214172,0.4138994812965393,0.2642681300640106,0.4826339781284332
1629894403843,0.5930727124214172,0.4138994812965393,0.2649652659893036,0.4992744028568268
1629894403952,0.5930727124214172,0.4149184226989746,0.2592382133007049,0.5003902912139893
1629894404030,0.5930727124214172,0.4160630404949188,0.2596457898616791,0.5003902912139893
1629894404109,0.5930727124214172,0.4160630404949188,0.2504439949989319,0.5003902912139893
1629894404234,0.5930727124214172,0.4160630404949188,0.2429884821176529,0.5003902912139893
1629894404343,0.5930727124214172,0.4160630404949188,0.2276086062192917,0.5003902912139893
1629894404452,0.5930727124214172,0.4160630404949188,0.1873806565999984,0.4100468754768371
1629894404548,0.5930727124214172,0.4131865203380584,0.0998987928032875,0.3939179182052612
1629894404611,0.5930727124214172,0.3774326145648956,0.060447234660387,0.382451444864273
1629894404738,0.5930727124214172,0.3086162507534027,0.0454038679599761,0.3803294003009796
1629894404837,0.5930727124214172,0.2120218575000763,0.0364052765071392,0.3777435719966888
1629894404978,0.5930727124214172,0.1036914512515068,0.0393286570906639,0.3753892183303833
1629894405071,0.5930727124214172,0.0199243519455194,0.0620500147342681,0.3703279495239258
1629894405150,0.5930727124214172,-0.0479773394763469,0.1563511192798614,0.3703279495239258
1629894405259,0.5930727124214172,-0.0731464698910713,0.2592246234416961,0.3703279495239258
1629894405337,0.5930727124214172,-0.0569287054240703,0.3170919418334961,0.3703279495239258
1629894405431,0.5930727124214172,-0.067247949540615,0.3533755242824554,0.3703279495239258
1629894405587,0.4029243886470794,-0.1480525583028793,0.3615847527980804,0.3703279495239258
1629894405696,0.4042141735553741,-0.1128049716353416,0.3599240183830261,0.5553925037384033
1629894405759,0.4275542199611664,-0.1128049716353416,0.3491574823856354,0.5553925037384033
1629894405868,0.4525515139102936,-0.1128049716353416,0.3386159837245941,0.5553925037384033
1629894405959,0.4649904072284698,-0.1128049716353416,0.3386159837245941,0.5553925037384033
1629894406147,0.4649904072284698,-0.1128049716353416,0.3386159837245941,0.5553925037384033
1629894406211,0.4649904072284698,-0.1128049716353416,0.3459580242633819,0.5553925037384033
1629894406274,0.4649904072284698,-0.1128049716353416,0.3563374876976013,0.5553925037384033
1629894406367,0.4649904072284698,-0.1128049716353416,0.3606111407279968,0.5553925037384033
1629894406493,0.4649904072284698,-0.1128049716353416,0.3613659143447876,0.5553925037384033
1629894406558,0.4649904072284698,-0.1128049716353416,0.3642930090427398,0.5553925037384033
1629894406651,0.4649904072284698,-0.1128049716353416,0.3663271963596344,0.5553925037384033
1629894406792,0.4248509407043457,-0.1367121189832687,0.3996019959449768,0.5553925037384033
1629894406917,0.4206465184688568,-0.1578491777181625,0.4157082140445709,0.4910562932491302
1629894407011,0.4046973288059234,-0.1846393346786499,0.4097816348075866,0.3354338109493255
1629894407089,0.3401672840118408,-0.2434047907590866,0.4404036998748779,0.3354338109493255
1629894407198,0.3401672840118408,-0.2434047907590866,0.4494037926197052,0.3354338109493255
1629894407276,0.3401672840118408,-0.2434047907590866,0.4327075481414795,0.3354338109493255
1629894407386,0.3401672840118408,-0.2434047907590866,0.4238950908184051,0.3354338109493255
1629894407482,0.3401672840118408,-0.2434047907590866,0.4347994327545166,0.3354338109493255
1629894407561,0.7618384957313538,-0.2434047907590866,0.4424150586128235,0.3354338109493255
1629894407702,0.7958195805549622,0.4112384021282196,0.4467435479164123,0.3354338109493255
1629894407780,0.800227165222168,0.4112384021282196,0.4536842703819275,0.3354338109493255
1629894407889,0.800227165222168,0.4112384021282196,0.4555237591266632,0.357862263917923
1629894408030,0.800508439540863,0.4112384021282196,0.4555237591266632,0.3966843783855438
1629894408124,0.8008591532707214,0.4193567335605621,0.4555237591266632,0.4081989228725433
1629894408186,0.8008591532707214,0.432352066040039,0.4555237591266632,0.4151038229465484
1629894408327,0.8008591532707214,0.4419308602809906,0.4555237591266632,0.4193499386310577
1629894408389,0.8008591532707214,0.4534997344017029,0.4390849471092224,0.4193499386310577
1629894408483,0.8008591532707214,0.4534997344017029,0.3947899937629699,0.4193499386310577
1629894408624,0.8059866428375244,0.4534997344017029,0.3868610858917236,0.4338476955890655
1629894408733,0.8180457949638367,0.4548788070678711,0.3917434513568878,0.4749179482460022
1629894408782,0.8180457949638367,0.4548788070678711,0.3726758360862732,0.4749179482460022
1629894408936,0.8180457949638367,0.4548788070678711,0.3652304410934448,0.4749179482460022
1629894408998,0.8029293417930603,0.4320861399173736,0.3497210741043091,0.4749179482460022
1629894409092,0.732528567314148,0.4630078971385956,0.3234932422637939,0.4653281271457672
1629894409217,0.6686196327209473,0.6397829651832581,0.3892717361450195,0.4557676017284393
1629894409310,0.6243042349815369,0.7166094779968262,0.4652596116065979,0.4548382461071014
1629894409404,0.5647463798522949,0.7175066471099854,0.5191287398338318,0.4547452926635742
1629894409498,0.5172169208526611,0.718264639377594,0.5519025921821594,0.4385597705841064
1629894409607,0.473937064409256,0.718264639377594,0.5685986280441284,0.393408715724945
1629894409685,0.4263277053833008,0.7191401124000549,0.5793111324310303,0.3466994166374206
1629894409828,0.3782514631748199,0.7216797471046448,0.5808794498443604,0.3083515167236328
1629894409953,0.3782514631748199,0.7279605269432068,0.5808794498443604,0.3083515167236328
1629894410031,0.3782514631748199,0.7279605269432068,0.5808794498443604,0.3083515167236328
1629894410109,0.3782514631748199,0.7279605269432068,0.5808794498443604,0.3083515167236328
1629894410219,0.3782514631748199,0.7249366044998169,0.5741388201713562,0.3083515167236328
1629894410297,0.3782514631748199,0.7205560803413391,0.5504302382469177,0.3083515167236328
1629894410474,0.3359603583812713,0.7166100144386292,0.5196613669395447,0.2457635849714279
1629894410552,0.3435082733631134,0.7164311408996582,0.5050206184387207,0.2590747475624084
1629894410646,0.4819642603397369,0.7164311408996582,0.5017497539520264,0.3335854411125183
1629894410709,0.5961323976516724,0.7164311408996582,0.4876520931720733,0.4529430568218231
1629894410805,0.64344322681427,0.6576529741287231,0.4682562351226806,0.5402122735977173
1629894410915,0.6571148037910461,0.4928313791751861,0.4521747827529907,0.5504684448242188
1629894411055,0.6630098223686218,0.3598384857177734,0.4337702989578247,0.5504684448242188
1629894411165,0.6728235483169556,0.2972209453582763,0.3926714062690735,0.5504684448242188
1629894411258,0.7033417224884033,0.2658700048923492,0.3288017809391022,0.5504684448242188
1629894411321,0.7249079942703247,0.220627412199974,0.2273938357830047,0.5504684448242188
1629894411446,0.7254822254180908,0.16901296377182,0.1369755864143371,0.5504684448242188
1629894411524,0.7254822254180908,0.1236515119671821,0.0843203514814376,0.5504684448242188
1629894411680,0.7238394618034363,0.0981692597270011,0.0757627338171005,0.5183554291725159
1629894411761,0.7334954738616943,0.1324032247066497,0.0768154859542846,0.4977922737598419
1629894411886,0.7779244780540466,0.2426345497369766,0.2154818326234817,0.4939393699169159
1629894411980,0.8073137402534485,0.3728731572628021,0.4185908734798431,0.4944217801094055
1629894412058,0.8113917112350464,0.4619791209697723,0.5273355841636658,0.4946550130844116
1629894412120,0.8113917112350464,0.4971077144145965,0.5457891821861267,0.4946550130844116
1629894412277,0.8075228929519653,0.4971077144145965,0.5387636423110962,0.4946550130844116
1629894412370,0.8077445030212402,0.4971077144145965,0.5270583629608154,0.4802909195423126
1629894412480,0.8130691051483154,0.4971077144145965,0.5213743448257446,0.3540693819522857
1629894412558,0.810890793800354,0.4971077144145965,0.5213743448257446,0.3049164116382599
1629894412636,0.8086176514625549,0.497283786535263,0.5213743448257446,0.4212612807750702
1629894412730,0.8048136234283447,0.497283786535263,0.5213743448257446,0.494621068239212
1629894412873,0.7974562644958496,0.4989081621170044,0.5213743448257446,0.5359339714050293
1629894412983,0.7834595441818237,0.4989081621170044,0.5213743448257446,0.5659654140472412
1629894413089,0.7683520913124084,0.5109712481498718,0.5213743448257446,0.6109243035316467
1629894413182,0.7615575790405273,0.5109712481498718,0.522850513458252,0.6109243035316467
1629894413245,0.7615575790405273,0.5109712481498718,0.522850513458252,0.6109243035316467
1629894413370,0.7615575790405273,0.5109712481498718,0.522850513458252,0.6109243035316467
1629894413495,0.7502851486206055,0.4890786707401275,0.5220681428909302,0.6109243035316467
1629894413606,0.6882999539375305,0.4447965323925018,0.507824182510376,0.6109243035316467
1629894413669,0.6019761562347412,0.4218011200428009,0.4234421551227569,0.6109243035316467
1629894413794,0.5752564072608948,0.3841981887817383,0.35810187458992,0.6109243035316467
1629894413887,0.5687806010246277,0.3763893544673919,0.3653720319271087,0.6109243035316467
1629894413965,0.5380043387413025,0.3763893544673919,0.4222058355808258,0.6109243035316467
1629894414106,0.4641384482383728,0.3763893544673919,0.4324646592140198,0.6093419194221497
1629894414215,0.4641384482383728,0.3763893544673919,0.4375267922878265,0.6053255200386047
1629894414278,0.4641384482383728,0.3670836985111236,0.4445889592170715,0.6053255200386047
1629894414418,0.4641384482383728,0.3395605385303497,0.447978675365448,0.6053255200386047
1629894414481,0.4641384482383728,0.3326648473739624,0.4490988850593567,0.6053255200386047
1629894414590,0.4641384482383728,0.1089830622076988,0.4490988850593567,0.6053255200386047
1629894414731,0.7066228985786438,0.1148389652371406,0.4483063519001007,0.4592290818691253
1629894414793,0.7144103050231934,0.1368634104728698,0.4483063519001007,0.503012478351593
1629894414903,0.7144103050231934,0.1755833029747009,0.4483063519001007,0.5174437165260315
1629894414998,0.7144103050231934,0.1991410106420517,0.4489495158195495,0.5282406806945801
1629894415078,0.7206708192825317,0.262248158454895,0.4494230449199676,0.5294024348258972
1629894415183,0.7406697869300842,0.3328626751899719,0.4494230449199676,0.5301199555397034
1629894415325,0.7580856680870056,0.3398483395576477,0.4373628199100494,0.5530704259872437
1629894415404,0.7765395045280457,0.3398483395576477,0.4076423943042755,0.5751436948776245
1629894415515,0.7831146717071533,0.3398483395576477,0.3920835554599762,0.5929933190345764
1629894415590,0.7872975468635559,0.3398483395576477,0.3240190148353576,0.617641270160675
1629894415700,0.7901906967163086,0.356440931558609,0.2943656146526336,0.6289928555488586
1629894415779,0.7981756329536438,0.4117612838745117,0.3855036795139313,0.6831904649734497
1629894415950,0.8087574243545532,0.4390685260295868,0.4529946148395538,0.7387639284133911
1629894416045,0.8130896687507629,0.4528021216392517,0.4640153050422668,0.7467244863510132
1629894416149,0.8144832253456116,0.4592447876930237,0.4678055942058563,0.7597430348396301
1629894416212,0.8430584669113159,0.4618505835533142,0.4973973333835602,0.7909233570098877
1629894416308,0.8762083053588867,0.4618505835533142,0.5334511399269104,0.8205509185791016
1629894416401,0.9227172136306764,0.4618505835533142,0.5414302945137024,0.8262270092964172
1629894416526,0.9331971406936646,0.4618505835533142,0.5414302945137024,0.8183591365814209
1629894416625,0.9429205060005188,0.4618505835533142,0.5414302945137024,0.8170098662376404
1629894416734,0.96623033285141,0.4558043777942657,0.5414302945137024,0.8316056132316589
1629894416827,1.0006539821624756,0.4516690075397491,0.5414302945137024,0.8560693860054016
1629894416939,1.0084365606307983,0.4745228886604309,0.5414302945137024,0.8766335844993591
1629894417001,1.000251531600952,0.5157574415206909,0.5414302945137024,0.8926969766616821
1629894417157,0.9904999136924744,0.5293397307395935,0.5415779948234558,0.8924509286880493
1629894417238,0.9829416871070862,0.5293397307395935,0.5533632040023804,0.8888382911682129
1629894417316,0.9829416871070862,0.5293397307395935,0.5740563273429871,0.887609601020813
1629894417412,0.9829416871070862,0.5075988173484802,0.5807965397834778,0.8814073801040649
1629894417522,0.9829416871070862,0.4991644322872162,0.5420674681663513,0.8441005945205688
1629894417616,0.9829416871070862,0.4980356693267822,0.5049417614936829,0.799557089805603
1629894417757,0.9829416871070862,0.4959393143653869,0.4851342737674713,0.799557089805603
1629894417850,0.9827464818954468,0.4915792346000671,0.4905600249767303,0.799557089805603
1629894417944,0.9707625508308412,0.4842419326305389,0.4645047485828399,0.7861712574958801
1629894418022,0.9195258617401124,0.4718757569789886,0.4279924631118774,0.7791073322296143
1629894418116,0.873933732509613,0.5068170428276062,0.4045358598232269,0.7791073322296143
1629894418210,0.8494530320167542,0.5022826194763184,0.3902165591716766,0.778479814529419
1629894418413,0.8298377394676208,0.5174828171730042,0.3947532773017883,0.7677149772644043
1629894418460,0.7452650666236877,0.5236387848854065,0.4566885530948639,0.7495757937431335
1629894418589,0.7452650666236877,0.5090878009796143,0.4801217317581177,0.7495757937431335
1629894418651,0.7452650666236877,0.4890501499176025,0.4801217317581177,0.7495757937431335
1629894418745,0.7452650666236877,0.4971070289611816,0.4801217317581177,0.7495757937431335
1629894418854,0.7452650666236877,0.5102084279060364,0.4801217317581177,0.7495757937431335
1629894419026,0.7452650666236877,0.5219937562942505,0.4801217317581177,0.7495757937431335
1629894419106,0.4422697424888611,0.5324172377586365,0.4801217317581177,0.7495757937431335
1629894419169,0.5215604305267334,0.5415446758270264,0.4756793081760406,0.7495757937431335
1629894419263,0.5215604305267334,0.5431371331214905,0.4693834781646728,0.7495757937431335
1629894419356,0.5215604305267334,0.5642359256744385,0.4608857035636902,0.7495757937431335
1629894419481,0.5215604305267334,0.60085129737854,0.4442783296108246,0.7495757937431335
1629894419592,0.5215604305267334,0.7404693365097046,0.4414567947387695,0.7495757937431335
1629894419708,0.5215604305267334,0.885686457157135,0.4448575675487518,0.7495757937431335
1629894419770,0.5215604305267334,0.9754490256309508,0.4448575675487518,0.7495757937431335
1629894419864,0.5215604305267334,0.9812501072883606,0.4448575675487518,0.7495757937431335
1629894419974,0.5215604305267334,0.9812501072883606,0.4374075829982757,0.7495757937431335
1629894420036,0.5215604305267334,0.9812501072883606,0.3922076225280761,0.7495757937431335
1629894420177,0.5215604305267334,0.9812501072883606,0.3721362650394439,0.7495757937431335
1629894420270,0.4401876926422119,0.9812501072883606,0.3691393136978149,0.7495757937431335
1629894420380,0.4401876926422119,0.9812501072883606,0.3599211871623993,0.7495757937431335
1629894420489,0.4401876926422119,0.9812501072883606,0.3533748686313629,0.7495757937431335
1629894420601,0.4401876926422119,0.9790526032447816,0.3363506197929382,0.7495757937431335
1629894420664,0.4401876926422119,0.9762563109397888,0.346670538187027,0.7495757937431335
1629894420804,0.4401876926422119,0.9719608426094056,0.390218436717987,0.7495757937431335
1629894420906,0.4401876926422119,0.9719608426094056,0.4194521605968475,0.7495757937431335
1629894421000,0.4401876926422119,0.9704312682151794,0.4549931585788727,0.7495757937431335
1629894421093,0.4401876926422119,0.9691951870918274,0.4918555617332458,0.7495757937431335
1629894421202,0.4401876926422119,0.9630533456802368,0.5129304528236389,0.7495757937431335
1629894421265,0.4401876926422119,0.9361836910247804,0.5129304528236389,0.7495757937431335
1629894421437,0.4401876926422119,0.8005756735801697,0.5129304528236389,0.7495757937431335
1629894421501,0.4401876926422119,0.2216113805770874,0.5228040814399719,0.7495757937431335
1629894421627,0.4401876926422119,0.2216113805770874,0.5540151000022888,0.7495757937431335
1629894421705,0.4401876926422119,0.2216113805770874,0.5737869739532471,0.7495757937431335
1629894421795,0.4401876926422119,0.2216113805770874,0.5867398381233215,0.7495757937431335
1629894421860,0.4401876926422119,0.2216113805770874,0.5817228555679321,0.7495757937431335
1629894422015,0.4401876926422119,0.2216113805770874,0.5734494924545288,0.7495757937431335
1629894422110,0.4401876926422119,0.2216113805770874,0.5687832832336426,0.7495757937431335
1629894422222,0.4401876926422119,0.1063540056347847,0.5645131468772888,0.7495757937431335
1629894422316,0.4401876926422119,0.0334344431757926,0.5594306588172913,0.7495757937431335
1629894422410,0.4401876926422119,0.0038630883209407,0.5543792843818665,0.7495757937431335
1629894422490,0.4401876926422119,0.0435245260596275,0.5446694493293762,0.7495757937431335
1629894422619,0.4401876926422119,0.0771687179803848,0.5226989984512329,0.7495757937431335
1629894422746,0.4401876926422119,0.174546018242836,0.4960991442203522,0.7495757937431335
1629894422872,0.4401876926422119,0.2338190376758575,0.4721235632896423,0.7495757937431335
1629894422936,0.4401876926422119,0.2627911567687988,0.5307859778404236,0.7495757937431335
1629894423028,0.4401876926422119,0.2874028384685516,0.5909504294395447,0.7495757937431335
1629894423091,0.4401876926422119,0.3181774020195007,0.6236997246742249,0.7495757937431335
1629894423293,0.4401876926422119,0.4200280308723449,0.652362585067749,0.7495757937431335
1629894423357,0.4401876926422119,0.5380816459655762,0.6786717176437378,0.7495757937431335
1629894423419,0.4401876926422119,0.6183013319969177,0.6808087229728699,0.7495757937431335
1629894423513,0.4401876926422119,0.6183013319969177,0.6684723496437073,0.7495757937431335
1629894423607,0.4401876926422119,0.6183013319969177,0.6620192527770996,0.7495757937431335
1629894423686,0.4401876926422119,0.6183013319969177,0.6562620997428894,0.7495757937431335
1629894423874,0.4401876926422119,0.6183013319969177,0.6568547487258911,0.7495757937431335
1629894423983,0.4401876926422119,0.6183013319969177,0.6613333225250244,0.7495757937431335
1629894424029,0.4401876926422119,0.6183013319969177,0.6655815243721008,0.7495757937431335
1629894424169,0.4401876926422119,0.6296760439872742,0.6671090126037598,0.7495757937431335
1629894424215,0.4401876926422119,0.6296760439872742,0.6671090126037598,0.7495757937431335
1629894424340,0.4401876926422119,0.6234444379806519,0.6671090126037598,0.7495757937431335
1629894424449,0.4401876926422119,0.6012948751449585,0.6642545461654663,0.7495757937431335
1629894424558,0.4401876926422119,0.5812517404556274,0.650862455368042,0.7495757937431335
1629894424655,0.4401876926422119,0.5775913596153259,0.6026172041893005,0.4546381831169128
1629894424732,0.4401876926422119,0.5710024237632751,0.5280045866966248,0.560526967048645
1629894424826,0.4585160315036773,0.5710024237632751,0.4857012927532196,0.6683427691459656
1629894424933,0.4981579482555389,0.2434998303651809,0.4529608786106109,0.7343865036964417
1629894425045,0.5263746976852417,0.2618422508239746,0.4248766303062439,0.7812796235084534
1629894425163,0.6129971742630005,0.2775388658046722,0.4034689962863922,0.8065347671508789
1629894425235,0.7391594648361206,0.2799509167671203,0.3708322048187256,0.8187710046768188
1629894425347,0.8580305576324463,0.2803747057914734,0.3227382302284241,0.8268267512321472
1629894425421,0.904314398765564,0.2860509753227234,0.2939907610416412,0.8416722416877747
