timestamp,TP9,AF7,AF8,TP10
1630497978095,0.8541790843009949,0.215662732720375,-0.4162720143795013,0.2501237690448761
1630497978157,0.8541790843009949,0.2109773159027099,-0.4483396112918854,0.2501237690448761
1630497978259,0.8541790843009949,0.2045230269432068,-0.4662758111953735,0.2501237690448761
1630497978340,0.8541790843009949,0.2015478312969207,-0.4707210659980774,0.2501237690448761
1630497978434,0.8541790843009949,0.1826486587524414,-0.4669298529624939,0.2501237690448761
1630497978557,0.8541790843009949,0.1830756068229675,-0.4629973173141479,0.2501237690448761
1630497978678,0.8541790843009949,0.1891314685344696,-0.4535468816757202,0.2501237690448761
1630497978760,0.8541790843009949,0.1932485550642013,-0.4351295828819275,0.2501237690448761
1630497978873,0.8541790843009949,0.2022467851638794,-0.4129237830638885,0.2501237690448761
1630497978959,0.8541790843009949,0.2143101096153259,-0.3892615139484405,0.2501237690448761
1630497979058,0.8541790843009949,0.2290828675031662,-0.3627493977546692,0.2501237690448761
1630497979202,0.8541790843009949,0.2415979951620102,-0.3394732475280761,0.2501237690448761
1630497979299,0.8541790843009949,0.2439345270395279,-0.322601318359375,0.2501237690448761
1630497979414,0.8541790843009949,0.2397985756397247,-0.3189269006252289,0.2501237690448761
1630497979491,0.8541790843009949,0.2322133928537368,-0.3287588953971863,0.2501237690448761
1630497979588,0.8541790843009949,0.2251875847578048,-0.3428549468517303,0.2501237690448761
1630497979660,0.8541790843009949,0.229624792933464,-0.3573363125324249,0.2501237690448761
1630497979790,0.8541790843009949,0.2360460311174392,-0.3670797049999237,0.2501237690448761
1630497979891,0.8541790843009949,0.2416204661130905,-0.3684905767440796,0.2501237690448761
1630497980003,0.8541790843009949,0.2446837872266769,-0.3665168285369873,0.2501237690448761
1630497980094,0.8541790843009949,0.2421369403600692,-0.3569268584251404,0.2501237690448761
1630497980174,0.8541790843009949,0.2411782890558242,-0.3421003520488739,0.2501237690448761
1630497980286,0.8541790843009949,0.2419049143791198,-0.3260500729084015,0.2501237690448761
1630497980433,0.8541790843009949,0.2444603443145752,-0.2959157824516296,0.2501237690448761
1630497980524,0.8541790843009949,0.2455938011407852,-0.2339639514684677,0.2501237690448761
1630497980600,0.8541790843009949,0.2438271343708038,-0.1463260501623153,0.2501237690448761
1630497980682,0.8541790843009949,0.2391201108694076,-0.0604922659695148,0.2501237690448761
1630497980797,0.8541790843009949,0.2332814037799835,-0.0011527674505487,0.2501237690448761
1630497980915,0.8541790843009949,0.2296177893877029,0.0270919725298881,0.2501237690448761
1630497981022,0.8541790843009949,0.2302773743867874,0.0373752936720848,0.2501237690448761
1630497981116,0.8541790843009949,0.2338795810937881,0.0401138290762901,0.2501237690448761
1630497981197,0.8541790843009949,0.2359468191862106,0.039337933063507,0.2501237690448761
1630497981289,0.8541790843009949,0.2392626106739044,0.0355726815760135,0.2501237690448761
1630497981426,0.8541790843009949,0.2392626106739044,0.0284686423838138,0.2501237690448761
1630497981489,0.8541790843009949,0.2392626106739044,0.0209418386220932,0.2501237690448761
1630497981638,0.8541790843009949,0.2392626106739044,0.0124517744407057,0.2501237690448761
1630497981716,0.8541790843009949,0.2392626106739044,0.0026300239842385,0.2501237690448761
1630497981822,0.8541790843009949,0.2169796973466873,-0.0097395591437816,0.2501237690448761
1630497981931,0.8541790843009949,0.2074617743492126,-0.0308885853737592,0.2501237690448761
1630497982009,0.8541790843009949,0.2046130746603012,-0.0757626071572303,-0.1360955536365509
1630497982125,0.8541790843009949,0.2057519704103469,-0.158830463886261,-0.0995568186044693
1630497982240,0.8541790843009949,0.2067603915929794,-0.2782960534095764,-0.0513303503394126
1630497982338,0.8541790843009949,0.2057926952838897,-0.4032032787799835,-0.0513303503394126
1630497982421,0.8541790843009949,0.2027987539768219,-0.4739263951778412,-0.0513303503394126
1630497982525,0.8541790843009949,0.1985586136579513,-0.48659148812294,-0.0513303503394126
1630497982623,0.8541790843009949,0.1939861476421356,-0.4761881828308105,-0.0513303503394126
1630497982724,0.8541790843009949,0.1882061809301376,-0.459788054227829,-0.0513303503394126
1630497982878,0.8541790843009949,0.1807809472084045,-0.443874329328537,-0.0513303503394126
1630497982935,0.8541790843009949,0.1725804358720779,-0.4293221831321716,-0.0513303503394126
1630497983059,0.8541790843009949,0.1580918431282043,-0.4184194207191467,-0.0513303503394126
1630497983175,0.8541790843009949,0.1444779634475708,-0.411066472530365,-0.0513303503394126
1630497983271,0.8541790843009949,0.1351090967655182,-0.4023538529872894,-0.0298410691320896
1630497983322,0.8541790843009949,0.1308142095804214,-0.3907877504825592,-0.0018102468457072
1630497983443,0.8541790843009949,0.1296981126070022,-0.3786550164222717,-0.0018102468457072
1630497983540,0.8541790843009949,0.1275644302368164,-0.3694219291210174,-0.0018102468457072
1630497983642,0.8541790843009949,0.1223791167140007,-0.3687209188938141,-0.0018102468457072
1630497983760,0.8541790843009949,0.1163991540670394,-0.3793575763702392,-0.0018102468457072
1630497983840,0.8541790843009949,0.1128414571285247,-0.4026855826377868,-0.0018102468457072
1630497983948,0.8541790843009949,0.1131900250911712,-0.4350166618824005,-0.0018102468457072
1630497984060,0.8541790843009949,0.1165558770298957,-0.4680757224559784,-0.0018102468457072
1630497984227,0.8541790843009949,0.1209270432591438,-0.496290773153305,-0.0018102468457072
1630497984263,0.8541790843009949,0.1266195327043533,-0.5194417238235474,-0.0018102468457072
1630497984357,0.8541790843009949,0.1349271237850189,-0.5377466678619385,-0.0018102468457072
1630497984440,0.8541790843009949,0.1460520625114441,-0.5512916445732117,-0.0018102468457072
1630497984538,0.8541790843009949,0.1601247042417526,-0.5590950846672058,-0.0018102468457072
1630497984691,0.8541790843009949,0.175592616200447,-0.5656118392944336,-0.0018102468457072
1630497984809,0.8541790843009949,0.191446453332901,-0.5750415921211243,-0.0018102468457072
1630497984872,0.8541790843009949,0.2069085091352462,-0.585835874080658,-0.0018102468457072
1630497984999,0.8541790843009949,0.2213228344917297,-0.5960431098937988,-0.0018102468457072
1630497985045,0.8541790843009949,0.2345926314592361,-0.6050533652305603,-0.0018102468457072
1630497985176,0.6295944452285767,0.2457582801580429,-0.6114243865013123,0.3931965827941894
1630497985311,0.6382640600204468,0.2529723942279815,-0.6125936508178711,0.3419872522354126
1630497985358,0.640784740447998,0.2544339001178741,-0.6060380339622498,0.3030399084091186
1630497985476,0.6451154947280884,0.2500229179859161,-0.5936778783798218,0.2890760898590088
1630497985625,0.6650542616844177,0.2417512983083725,-0.5800256133079529,0.2941587269306183
1630497985676,0.6959381699562073,0.2322689443826675,-0.5705527067184448,0.3055295348167419
1630497985765,0.7282851934432983,0.2234299480915069,-0.568914532661438,0.3151064813137054
1630497985939,0.7506922483444214,0.2150637954473495,-0.5752357840538025,0.3211826980113983
1630497986018,0.7506922483444214,0.2072123736143112,-0.5855172872543335,0.3315949141979217
1630497986096,0.7506922483444214,0.2006202191114425,-0.5949574112892151,0.3462443947792053
1630497986239,0.7506922483444214,0.1963737905025482,-0.5991247892379761,0.361010730266571
1630497986303,0.7506922483444214,0.1922269910573959,-0.6002607345581055,0.3697254359722137
1630497986394,0.7644864916801453,0.1850542277097702,-0.6023801565170288,0.3628344237804413
1630497986541,0.7779145240783691,0.1736730933189392,-0.6091391444206238,0.3540367484092712
1630497986627,0.7914282083511353,0.1599271446466446,-0.6191791296005249,0.35268634557724
1630497986725,0.807235062122345,0.1478790789842605,-0.6293721199035645,0.3614723682403564
1630497986787,0.8262637853622437,0.1400068253278732,-0.6407889127731323,0.3737328946590423
1630497986896,0.8539159893989563,0.1376437544822693,-0.6546376943588257,0.3837078809738159
1630497986976,0.8898347616195679,0.1400887221097946,-0.6714973449707031,0.3868833482265472
1630497987125,0.8898347616195679,0.1435883939266204,-0.6873059868812561,0.3858833611011505
1630497987228,0.8898347616195679,0.1447997242212295,-0.6934397220611572,0.3856209814548492
1630497987326,0.8898347616195679,0.1432509273290634,-0.6841421127319336,0.3875059187412262
1630497987408,0.8898347616195679,0.1411136835813522,-0.6662477850914001,0.3896478414535522
1630497987540,0.8898347616195679,0.1393050551414489,-0.6517097353935242,0.3865556418895721
1630497987605,0.8898347616195679,0.1361457556486129,-0.6490379571914673,0.3782512545585632
1630497987768,0.8898347616195679,0.1296081840991974,-0.6562023758888245,0.36789470911026
1630497987859,0.8898347616195679,0.1201023682951927,-0.6672199964523315,0.3608390688896179
1630497987959,0.8898347616195679,0.1118624061346054,-0.6768815517425537,0.3582555055618286
1630497988055,0.8898347616195679,0.1115159392356872,-0.6806273460388184,0.3618099987506866
1630497988108,0.8898347616195679,0.1216962859034538,-0.6762152314186096,0.3756332099437713
1630497988191,0.8898347616195679,0.1380856931209564,-0.6640202403068542,0.4017438590526581
1630497988325,0.8898347616195679,0.1535379439592361,-0.645601749420166,0.4331169128417969
1630497988425,0.8898347616195679,0.1626377701759338,-0.6246269345283508,0.4566809237003326
1630497988598,0.8898347616195679,0.1646450906991958,-0.596259355545044,0.4657676219940185
1630497988599,0.8898347616195679,0.164674237370491,-0.6067962050437927,0.4665505290031433
1630497988694,0.8898347616195679,0.1701035499572754,-0.5956293344497681,0.4647389650344848
1630497988800,0.8898347616195679,0.1849832832813263,-0.6030169725418091,0.4781300723552704
1630497988977,0.8898347616195679,0.204742819070816,-0.6093237996101379,0.508138120174408
1630497989044,0.8898347616195679,0.2204228043556213,-0.6057161092758179,0.5426666736602783
1630497989143,0.8898347616195679,0.2279622703790664,-0.5897588729858398,0.5701954364776611
1630497989226,0.8898347616195679,0.2314831465482711,-0.5708604454994202,0.5887941718101501
1630497989338,0.8898347616195679,0.237830176949501,-0.5578270554542542,0.6079294085502625
1630497989433,0.8898347616195679,0.2470065653324127,-0.5534720420837402,0.6315829157829285
1630497989587,0.8898347616195679,0.2521863579750061,-0.5565637350082397,0.6533114314079285
1630497989649,0.8898347616195679,0.24934783577919,-0.5661064982414246,0.6635633707046509
1630497989757,0.8898347616195679,0.2408875077962875,-0.5800046920776367,0.6587637662887573
1630497989859,0.8898347616195679,0.2324045896530151,-0.5926357507705688,0.6452013850212097
1630497989972,0.8898347616195679,0.2282529026269912,-0.597775936126709,0.6322333812713623
1630497990041,0.8898347616195679,0.230266198515892,-0.5929555296897888,0.625200092792511
1630497990190,0.8898347616195679,0.2369909733533859,-0.5829893946647644,0.6210646033287048
1630497990285,0.8898347616195679,0.2426120191812515,-0.5740013122558594,0.611774206161499
1630497990404,0.8898347616195679,0.2407794147729873,-0.5700450539588928,0.5879713892936707
1630497990467,0.8898347616195679,0.2306295782327652,-0.571849524974823,0.5478936433792114
1630497990529,0.8898347616195679,0.2177098542451858,-0.5771180391311646,0.4991713464260101
1630497990639,0.8898347616195679,0.2069310545921325,-0.5770620703697205,0.4531030058860779
1630497990795,0.8898347616195679,0.198202446103096,-0.5632912516593933,0.4157100319862366
1630497990873,0.6938710808753967,0.1880876719951629,-0.538699209690094,0.3727764189243316
1630497990982,0.6891531348228455,0.1770085841417312,-0.5107123255729675,0.312884122133255
1630497991076,0.6918618083000183,0.1688944697380066,-0.4852908551692962,0.2362855076789856
1630497991232,0.7298978567123413,0.1773227006196975,-0.4408283829689026,0.0910493284463882
1630497991391,0.7439708709716797,0.1969479322433471,-0.4289772510528564,0.0370807908475399
1630497991469,0.7557953000068665,0.2258629500865936,-0.4262693524360657,-0.0059902477078139
1630497991610,0.7628923654556274,0.2583688199520111,-0.4261520206928253,-0.042781114578247
1630497991688,0.767430305480957,0.2860859930515289,-0.4189479947090149,-0.0727075338363647
1630497991750,0.7760870456695557,0.3046475350856781,-0.4019132554531097,-0.0944304540753364
1630497991985,0.7828028202056885,0.3155913054943084,-0.382379949092865,-0.1083717346191406
1630497992063,0.7872018218040466,0.3249406814575195,-0.3701879382133484,-0.119736760854721
1630497992094,0.7876052260398865,0.3370473980903625,-0.3675990104675293,-0.1357686817646026
1630497992172,0.7945415377616882,0.3500579595565796,-0.3746144771575928,-0.1596162021160125
1630497992266,0.8065776824951172,0.3600118160247803,-0.388399213552475,-0.1928143799304962
1630497992375,0.8199133276939392,0.3651712536811828,-0.4040473699569702,-0.2236114591360092
1630497992484,0.8323678374290466,0.367227554321289,-0.4197971224784851,-0.2442361116409301
1630497992609,0.8455184698104858,0.368588924407959,-0.4339284598827362,-0.2480881810188293
1630497992703,0.8501776456832886,0.3669548034667969,-0.4486382305622101,-0.239001840353012
1630497992797,0.8426722288131714,0.3576844036579132,-0.4615984857082367,-0.2273433208465576
1630497992891,0.8358414769172668,0.3393101394176483,-0.4687071144580841,-0.2169337272644043
1630497993000,0.8269771337509155,0.3133532404899597,-0.4726182520389557,-0.2138220816850662
1630497993078,0.8271396160125732,0.2833581864833832,-0.4793948233127594,-0.2128937095403671
1630497993209,0.8355070352554321,0.251654177904129,-0.4954531192779541,-0.2057216167449951
1630497993287,0.8354964852333069,0.2207261621952057,-0.5186057090759277,-0.1844557225704193
1630497993412,0.8321442604064941,0.1935085952281952,-0.5391157269477844,-0.1453214287757873
1630497993505,0.8225658535957336,0.1718676090240478,-0.5459161400794983,-0.0974553227424621
1630497993599,0.8157820701599121,0.1546799540519714,-0.5372346043586731,-0.0523817166686058
1630497993724,0.8146560192108154,0.1414605975151062,-0.5175752639770508,-0.0200359858572483
1630497993849,0.8177835941314697,0.132506862282753,-0.4958004653453827,-0.0056339707225561
1630497993990,0.8313678503036499,0.1295697093009948,-0.4792764186859131,0.0004392359696794
1630497994052,0.8428031206130981,0.1356826871633529,-0.4701347649097442,0.005856632720679
1630497994068,0.8528999090194702,0.1490690410137176,-0.4651572406291961,0.0164187140762805
1630497994196,0.8630138635635376,0.1656127721071243,-0.4559232294559479,0.0321696028113365
1630497994290,0.871260404586792,0.1799336522817611,-0.4413089454174042,0.0457073152065277
1630497994399,0.879954993724823,0.187614694237709,-0.4271027445793152,0.0550998896360397
1630497994509,0.888914167881012,0.1882453709840774,-0.4171726107597351,0.0657312721014022
1630497994680,0.8870507478713989,0.1851577162742614,-0.4126870930194855,0.0766094624996185
1630497994712,0.8771359324455261,0.185277909040451,-0.4101142883300781,0.0844849124550819
1630497994821,0.8703559637069702,0.191173568367958,-0.4091839790344238,0.0836844965815544
1630497994915,0.8694403171539307,0.198205679655075,-0.409710019826889,0.0690442100167274
1630497995040,0.8771410584449768,0.199324682354927,-0.4114996492862701,0.0434959605336189
1630497995161,0.8845155239105225,0.1927506923675537,-0.4157409965991974,0.0140041150152683
1630497995255,0.8899122476577759,0.1846731454133987,-0.4228900372982025,-0.0096739111468195
1630497995380,0.8885098695755005,0.1821055263280868,-0.4294282793998718,-0.0187771320343017
1630497995458,0.8759585022926331,0.1871840059757232,-0.4304657280445099,-0.019596105441451
1630497995489,0.8626629710197449,0.1948844045400619,-0.424805223941803,-0.0169270820915699
1630497995679,0.8484589457511902,0.2004392594099044,-0.4169602990150451,-0.0186640955507755
1630497995749,0.8445312976837158,0.2058346718549728,-0.4144576489925384,-0.0205536894500255
1630497995843,0.8549298644065857,0.2173027694225311,-0.41900834441185,-0.0139855621382594
1630497995968,0.8688793778419495,0.2362589538097381,-0.4222549796104431,0.0005108195473439
1630497996046,0.8824232816696167,0.2596825957298279,-0.4136001169681549,0.0117059694603085
1630497996128,0.8935096263885498,0.2826120555400848,-0.3890634179115295,0.0147431474179029
1630497996238,0.9078154563903807,0.3023667335510254,-0.3586221933364868,0.0148221962153911
1630497996347,0.9284014701843262,0.3189976215362549,-0.3348152935504913,0.0171249229460954
1630497996457,0.956976592540741,0.3353598415851593,-0.3236067295074463,0.0219592340290546
1630497996535,0.9927451014518738,0.3543538451194763,-0.3234719336032867,0.0267078690230846
1630497996707,1.019244909286499,0.375646024942398,-0.3285202085971832,0.0290902722626924
1630497996738,1.034988284111023,0.3950465619564056,-0.336544781923294,0.0297903697937726
1630497996863,1.0369774103164673,0.4079674184322357,-0.3485036492347717,0.0300219655036926
1630497996956,1.0308784246444702,0.4119405448436737,-0.3638122975826263,0.0293094478547573
1630497997113,1.0229356288909912,0.4067191779613495,-0.3775349855422973,0.0271986126899719
1630497997161,1.0128583908081057,0.394470751285553,-0.3850224614143371,0.0268916226923465
1630497997271,0.9989734888076782,0.378281831741333,-0.3867353498935699,0.0230235289782285
1630497997333,0.9785931706428528,0.3613258004188537,-0.3873229622840881,0.0118821114301681
1630497997490,0.955312430858612,0.3458842635154724,-0.3941520452499389,-0.0038660194259136
1630497997584,0.930983304977417,0.3315422236919403,-0.4121425449848175,-0.0165611617267131
1630497997771,0.913091003894806,0.3175540268421173,-0.442952960729599,-0.0208988599479198
1630497997771,0.9069191813468932,0.3051892817020416,-0.4798980951309204,-0.0225761458277702
1630497997865,0.8923976421356201,0.2977193892002105,-0.5065047740936279,-0.0166521444916725
1630497997990,0.8581839203834534,0.2948428392410278,-0.5062637329101562,0.0431265346705913
1630497998084,0.7920907139778137,0.2912370562553406,-0.4740509688854217,0.1858104169368744
1630497998212,0.7142511010169983,0.2843369245529175,-0.4240105152130127,0.3658895790576935
1630497998326,0.6316514015197754,0.2739196717739105,-0.3790874183177948,0.5083595514297485
1630497998466,0.5821762681007385,0.2651667892932892,-0.3522125482559204,0.5310835242271423
1630497998510,0.5686245560646057,0.2590948939323425,-0.3463053405284881,0.5552406311035156
1630497998587,0.5637046694755554,0.2547069191932678,-0.3532173931598663,0.5672457814216614
1630497998698,0.5671002268791199,0.2531166076660156,-0.3648337721824646,0.5652104020118713
1630497998790,0.5661749243736267,0.256166011095047,-0.3745767772197723,0.5599567890167236
1630497998915,0.5661749243736267,0.2650071680545807,-0.3805008232593536,0.5546715259552002
1630497998995,0.5661749243736267,0.2782996594905853,-0.3833310306072235,0.5507214665412903
1630497999168,0.5661749243736267,0.2992783784866333,-0.3863005340099334,0.553283154964447
1630497999170,0.5661749243736267,0.2914813756942749,-0.3846429884433746,0.5504293441772461
1630497999309,0.5661749243736267,0.2974977493286133,-0.3876324295997619,0.5566893219947815
1630497999400,0.7306576371192932,0.2845184504985809,-0.3900423943996429,0.5560168623924255
1630497999511,0.7202029228210449,0.262565553188324,-0.3988557755947113,0.5344914793968201
1630497999635,0.7246847152709961,0.2381846755743026,-0.4225020408630371,0.4639783501625061
1630497999714,0.7303863167762756,0.2166390419006347,-0.4645009636878967,0.2978966832160949
1630497999793,0.7302060127258301,0.2039358168840408,-0.5105905532836914,-0.0322395004332065
1630497999933,0.7266568541526794,0.1995813697576522,-0.5395447015762329,-0.0453967079520225
1630498000013,0.7129302024841309,0.2016192078590393,-0.5408172607421875,-0.0545149333775043
1630498000106,0.7024130821228027,0.2083727568387985,-0.5299534797668457,-0.1080614253878593
1630498000200,0.7023077011108398,0.2192374020814895,-0.5244698524475098,-0.1085906773805618
1630498000292,0.708579421043396,0.2355650663375854,-0.5317272543907166,-0.0988711640238761
1630498000401,0.7317779660224915,0.2563084363937378,-0.5459141731262207,-0.0898973271250724
1630498000542,0.7602302432060242,0.2777679562568664,-0.5588387250900269,-0.0887567773461341
1630498000620,0.7841305136680603,0.2984520494937897,-0.5669488906860352,-0.1033403128385543
1630498000780,0.8150768280029297,0.3192385137081146,-0.5718547701835632,-0.127969354391098
1630498000826,0.845037579536438,0.3405282497406006,-0.5819748044013977,-0.152684673666954
1630498000960,0.8748232126235962,0.3615756332874298,-0.6011919975280762,-0.1670088022947311
1630498001093,0.9045432806015016,0.3812644481658935,-0.6286963224411011,-0.167653739452362
1630498001156,0.927966058254242,0.3979933857917785,-0.6589903235435486,-0.1575773656368255
1630498001219,0.9576929807662964,0.4108685255050659,-0.6825762987136841,-0.1369536221027374
1630498001345,0.9874491691589355,0.4207589328289032,-0.693122923374176,-0.1116766035556793
1630498001454,1.0134657621383667,0.4297520816326141,-0.6945175528526306,-0.0881473496556282
1630498001515,1.0331144332885742,0.4396409392356872,-0.6933485269546509,-0.0690653771162033
1630498001578,1.0424071550369265,0.4491535425186157,-0.6906631588935852,-0.0574288554489612
1630498001765,1.047175049781799,0.4551186859607696,-0.6799314618110657,-0.0503963381052017
1630498001878,1.048319935798645,0.4546878039836883,-0.6500424146652222,-0.0415058471262455
1630498001939,1.0398768186569214,0.4459354877471924,-0.6000922322273254,-0.0294682774692773
1630498002002,1.0266788005828855,0.429008424282074,-0.5396162867546082,-0.0111012859269976
1630498002127,1.0126084089279177,0.4055691659450531,-0.4810461401939392,0.0124548273161053
1630498002206,0.9970062971115112,0.3789066672325134,-0.4349208474159241,0.0374815613031387
1630498002350,0.9875178933143616,0.3538036942481994,-0.4035359025001526,0.0653146803379058
1630498002484,0.975117027759552,0.3338966965675354,-0.3843865990638733,0.0938125848770141
1630498002552,0.9617983102798462,0.3197812438011169,-0.3730579614639282,0.1196495741605758
1630498002675,0.9497811198234558,0.3092927932739258,-0.3645253777503967,0.1401222944259643
1630498002751,0.9265767931938172,0.2996378242969513,-0.3568131625652313,0.1562484502792358
1630498002813,0.9005783796310425,0.2875369489192962,-0.3516737520694732,0.1701826453208923
1630498002989,0.8710058331489563,0.2698969841003418,-0.3486706912517547,0.183145210146904
1630498003085,0.8473917841911316,0.2465500384569168,-0.345209538936615,0.1935942471027374
1630498003192,0.8373076319694519,0.220233216881752,-0.3387731909751892,0.2001509219408035
1630498003256,0.8303253054618835,0.1946234554052353,-0.3303978443145752,0.2049350142478943
1630498003350,0.8280185461044312,0.1702865362167358,-0.326189786195755,0.2080991268157959
1630498003445,0.8338066339492798,0.1486488282680511,-0.3319624960422516,0.2114939987659454
1630498003554,0.8395881652832031,0.1370472311973571,-0.3472480773925781,0.2168938815593719
1630498003680,0.841320276260376,0.1423622220754623,-0.3655061721801758,0.2232822924852371
1630498003773,0.836699366569519,0.1634880006313324,-0.3768214881420135,0.2293465435504913
1630498003835,0.8236428499221802,0.1918412894010543,-0.3750136494636535,0.2350605726242065
1630498003961,0.8164114952087402,0.2178479880094528,-0.3644903898239136,0.2383629381656646
1630498004117,0.8149093985557556,0.2359911352396011,-0.3539401590824127,0.2392375171184539
1630498004179,0.8257352709770203,0.2463704645633697,-0.3496497273445129,0.2386753559112548
1630498004272,0.837748110294342,0.2518020868301391,-0.3529661297798157,0.2322645336389541
1630498004350,0.8419041633605957,0.2567366361618042,-0.3588511347770691,0.2235423773527145
1630498004510,0.8466392159461975,0.2661144733428955,-0.3624820709228515,0.2156101465225219
1630498004620,0.8462727069854736,0.2808150947093963,-0.3628794252872467,0.2087002843618393
1630498004666,0.8488475680351257,0.2975159287452698,-0.3636846542358398,0.2084467411041259
1630498004809,0.8566728830337524,0.3102501928806305,-0.3677557408809662,0.2157456278800964
1630498004933,0.8629425764083862,0.3172694444656372,-0.3699736893177032,0.2288632094860077
1630498005012,0.8648325800895691,0.3217032551765442,-0.3611499667167663,0.2480016648769378
1630498005077,0.8664507269859314,0.3260206580162048,-0.3400143682956695,0.268109917640686
1630498005226,0.8693217635154724,0.3297616839408874,-0.3152245581150055,0.2679457068443298
1630498005256,0.8771329522132874,0.3310155868530273,-0.2975786328315735,0.2665557265281677
1630498005381,0.8872571587562561,0.3291421830654144,-0.2888019382953644,0.2624471783638
1630498005524,0.8928280472755432,0.3245123624801636,-0.2825346291065216,0.2577902376651764
1630498005634,0.891312837600708,0.3192597031593323,-0.2723943293094635,0.2558870315551758
1630498005696,0.8711000084877014,0.3144119381904602,-0.2584850788116455,0.2579965889453888
1630498005798,0.8468332290649414,0.3095779120922088,-0.2444525510072708,0.2693110704421997
1630498005897,0.8323652148246765,0.3030853867530823,-0.232552096247673,0.2861562371253967
1630498006006,0.8273622989654541,0.2918676435947418,-0.2220377922058105,0.3054982721805572
1630498006180,0.8509472608566284,0.2764536440372467,-0.2122815251350402,0.3338976800441742
1630498006211,0.8745629191398621,0.2617209255695343,-0.2028167098760604,0.3692852556705475
1630498006318,0.8745629191398621,0.2563692927360534,-0.1946974843740463,0.3692852556705475
1630498006397,0.8745629191398621,0.2579129636287689,-0.1922599077224731,0.3692852556705475
1630498006618,0.8745629191398621,0.2604411542415619,-0.1997654289007187,0.3692852556705475
1630498006728,0.8745629191398621,0.2571479678153991,-0.2170145958662033,0.3692852556705475
1630498006807,0.8745629191398621,0.2442428916692733,-0.2387076169252395,0.3692852556705475
1630498006869,0.8745629191398621,0.2221947908401489,-0.2569524347782135,0.3692852556705475
1630498006898,0.8745629191398621,0.1931019276380539,-0.2707745432853699,0.3692852556705475
1630498007025,0.8745629191398621,0.1619944721460342,-0.2838517129421234,0.3692852556705475
1630498007087,0.8745629191398621,0.1339783072471618,-0.2992458939552307,0.3692852556705475
1630498007259,0.8745629191398621,0.1154967918992042,-0.3153408765792846,0.3692852556705475
1630498007335,0.8745629191398621,0.1132886707782745,-0.3280064165592193,0.3692852556705475
1630498007399,0.8745629191398621,0.2427198737859726,-0.3348084688186645,0.3692852556705475
1630498007539,0.8745629191398621,0.3279470801353454,-0.3352806866168976,0.3692852556705475
1630498007618,0.8745629191398621,0.3877237737178802,-0.327597051858902,0.3692852556705475
1630498007728,0.8745629191398621,0.4290408194065094,-0.3118156790733337,0.3692852556705475
1630498007837,0.8745629191398621,0.4508194625377655,-0.2908611297607422,0.3692852556705475
1630498007979,0.8745629191398621,0.4361377954483032,-0.2709120512008667,0.3692852556705475
1630498008009,0.6522865891456604,0.4242567121982574,-0.2570712864398956,0.3692852556705475
1630498008134,0.6820880770683289,0.415862113237381,-0.2527371644973755,0.3692852556705475
1630498008253,0.692274272441864,0.4104176163673401,-0.2579162120819092,0.3692852556705475
1630498008323,0.692274272441864,0.4104176163673401,-0.2676083147525787,0.3692852556705475
1630498008480,0.692274272441864,0.4104176163673401,-0.2748338580131531,0.3692852556705475
1630498008561,0.692274272441864,0.4104176163673401,-0.2754350900650024,0.3692852556705475
1630498008670,0.692274272441864,0.4104176163673401,-0.271874189376831,0.3692852556705475
1630498008760,0.692274272441864,0.4104176163673401,-0.2705773413181305,0.3692852556705475
1630498008824,0.692274272441864,0.4104176163673401,-0.2746898233890533,0.3692852556705475
1630498008915,0.692274272441864,0.3702209591865539,-0.2854397296905517,0.3692852556705475
1630498009101,0.692274272441864,0.3334656357765198,-0.3029585480690002,0.3692852556705475
1630498009163,0.692274272441864,0.3019948601722717,-0.3289109766483307,0.3692852556705475
1630498009225,0.717448353767395,0.2768665552139282,-0.3629160821437835,0.3692852556705475
1630498009348,0.7484835982322693,0.2590863704681396,-0.3993601202964782,0.3692852556705475
1630498009425,0.7898207902908325,0.248568594455719,-0.4276879429817199,0.3692852556705475
1630498009504,0.8082130551338196,0.2419238537549972,-0.441716194152832,0.3692852556705475
1630498009665,0.8147497177124023,0.2340986281633377,-0.4421268105506897,0.3692852556705475
1630498009789,0.8286932706832886,0.2194504588842392,-0.4357653558254242,0.3692852556705475
1630498009853,0.8078691959381104,0.2154040783643722,-0.4315310716629028,0.3692852556705475
1630498009981,0.7905988693237305,0.2046177983283996,-0.4332552552223205,0.3692852556705475
1630498010039,0.78170245885849,0.1914902925491333,-0.4391873180866241,0.3692852556705475
1630498010133,0.7779942750930786,0.1811971962451934,-0.4423580467700958,0.3692852556705475
1630498010261,0.785761833190918,0.1754959672689438,-0.4366157948970794,0.3692852556705475
1630498010411,0.7947136759757996,0.1723716408014297,-0.4243097305297851,0.3692852556705475
1630498010482,0.801295816898346,0.1722382158041,-0.4115685820579529,0.3692852556705475
1630498010544,0.8062016367912292,0.1727134138345718,-0.4042059183120727,0.2896546125411987
1630498010641,0.8062016367912292,0.1732479780912399,-0.4026908576488495,0.2903493642807007
1630498010784,0.8062016367912292,0.1797658056020736,-0.3995432555675506,0.294681966304779
1630498010913,0.8062016367912292,0.2043225318193435,-0.3777737915515899,0.3096654713153839
1630498011005,0.8003681898117065,0.1990829855203628,-0.3313204348087311,0.3277267813682556
1630498011131,0.7970116138458252,0.1907570660114288,-0.2737945914268493,0.3379270136356354
1630498011176,0.7953998446464539,0.1809113174676895,-0.2284195721149444,0.3365870416164398
1630498011287,0.794503390789032,0.1734354048967361,-0.2056798338890075,0.3282675743103027
1630498011364,0.8050066232681274,0.17305888235569,-0.193941444158554,0.3182776272296905
1630498011522,0.821263313293457,0.1823706924915313,-0.1787171810865402,0.3099087476730346
1630498011643,0.8383325338363647,0.1995876431465149,-0.1617653220891952,0.3033964931964874
1630498011695,0.8576517105102539,0.2188425213098526,-0.1442430466413498,0.2954371869564056
1630498011820,0.8576517105102539,0.2366029471158981,-0.1253000199794769,0.3008155822753906
1630498011904,0.8576517105102539,0.2872282862663269,-0.1307801455259323,0.3021001815795898
1630498011962,0.8576517105102539,0.3372859358787536,-0.1365291476249694,0.299491286277771
1630498012165,0.8576517105102539,0.3947034776210785,-0.1373422443866729,0.2775254845619201
1630498012211,0.8576517105102539,0.4478346109390259,-0.1284334808588028,0.2598493099212646
1630498012305,0.8576517105102539,0.4797014892101288,-0.1166400164365768,0.2427122592926025
1630498012427,0.8576517105102539,0.4716773927211761,-0.1226948499679565,0.2162232995033264
1630498012504,0.8576517105102539,0.4524880945682525,-0.1618707776069641,0.1816394627094268
1630498012568,0.8576517105102539,0.426277756690979,-0.2334679663181305,0.1538988202810287
1630498012726,0.8576517105102539,0.4004376232624054,-0.312327116727829,0.1420268416404724
1630498012835,0.8576517105102539,0.3812254667282104,-0.3632088005542755,0.1420551985502243
1630498012935,0.8576517105102539,0.3696967661380768,-0.368450790643692,0.1390950679779052
1630498013013,0.8576517105102539,0.3621877133846283,-0.3690734505653381,0.1276421099901199
1630498013100,0.8576517105102539,0.3557382822036743,-0.3627156615257263,0.1140013486146926
1630498013184,0.8576517105102539,0.3507043719291687,-0.3526846468448639,0.1090239882469177
1630498013368,0.8576517105102539,0.3487356603145599,-0.3425211310386657,0.1090239882469177
1630498013434,0.8576517105102539,0.3453246057033539,-0.325962483882904,0.1090239882469177
1630498013525,0.8576517105102539,0.3411667644977569,-0.3101146221160888,0.1090239882469177
1630498013589,0.8576517105102539,0.3299667537212372,-0.296852707862854,0.121437668800354
1630498013777,0.8576517105102539,0.2928279042243957,-0.2962254285812378,0.1361236870288849
1630498013778,0.8576517105102539,0.3120532631874084,-0.2915981411933899,0.1310184299945831
1630498013937,0.8576517105102539,0.2792347073554992,-0.3077283501625061,0.1430729776620865
1630498014015,0.8576517105102539,0.2743715047836303,-0.3202507495880127,0.1380209773778915
1630498014115,0.8576517105102539,0.2761303186416626,-0.3284778296947479,0.1338151693344116
1630498014220,0.8576517105102539,0.2801369428634643,-0.3312852084636688,0.1150198280811309
1630498014316,0.8576517105102539,0.2822121381759643,-0.3291201889514923,0.0789505541324615
1630498014473,0.8576517105102539,0.2809864282608032,-0.3232691287994385,0.0789505541324615
1630498014536,0.8576517105102539,0.2774158418178558,-0.3200265765190124,0.0789505541324615
1630498014631,0.8576517105102539,0.272551417350769,-0.3220996558666229,0.0789505541324615
1630498014806,0.8576517105102539,0.2661008238792419,-0.326778382062912,0.0789505541324615
1630498014882,0.8576517105102539,0.2572002410888672,-0.3316490352153778,0.0789505541324615
1630498014959,0.8576517105102539,0.2455895096063614,-0.3337840437889099,0.0789505541324615
1630498015023,0.8576517105102539,0.2349609732627868,-0.3377782106399536,0.0789505541324615
1630498015166,0.8576517105102539,0.2287523597478866,-0.3486888110637665,0.0789505541324615
1630498015240,0.8576517105102539,0.2283110469579696,-0.3661708831787109,0.0789505541324615
1630498015349,0.8576517105102539,0.2310175448656082,-0.3836401998996734,0.0789505541324615
1630498015411,0.8576517105102539,0.231315940618515,-0.3918096423149109,0.0789505541324615
1630498015553,0.8576517105102539,0.2268237918615341,-0.3881873488426208,0.0789505541324615
1630498015616,0.8576517105102539,0.2200855165719986,-0.3796414136886596,0.0789505541324615
1630498015806,0.8576517105102539,0.2169574350118637,-0.3732999563217163,0.0789505541324615
1630498015867,0.8576517105102539,0.2201852351427078,-0.3719727396965027,0.0789505541324615
1630498015946,0.8576517105102539,0.2275410890579223,-0.3758486211299896,0.0789505541324615
1630498016039,0.8576517105102539,0.2352997958660125,-0.3817391097545624,0.0789505541324615
1630498016131,0.8576517105102539,0.2410046011209488,-0.3901379108428955,0.0789505541324615
1630498016274,0.8576517105102539,0.2435518950223922,-0.4028830230236053,0.0789505541324615
1630498016399,0.8576517105102539,0.2436593621969223,-0.4185107350349426,0.0789505541324615
1630498016508,0.8576517105102539,0.2443032562732696,-0.4324674010276794,0.0789505541324615
1630498016586,0.8576517105102539,0.2503376603126526,-0.4387005865573883,0.0789505541324615
1630498016683,0.8576517105102539,0.2479805499315261,-0.438963234424591,0.0789505541324615
1630498016759,0.8576517105102539,0.2748395800590515,-0.4386274516582489,0.0789505541324615
1630498016878,0.8576517105102539,0.3063352108001709,-0.4407386481761932,0.0789505541324615
1630498017044,0.8576517105102539,0.3362574875354767,-0.4444370567798614,0.0789505541324615
1630498017122,0.8576517105102539,0.3612010180950165,-0.4454478621482849,0.0789505541324615
1630498017187,0.8576517105102539,0.3790474534034729,-0.4435020089149475,0.0789505541324615
1630498017329,0.8576517105102539,0.3865382969379425,-0.439657986164093,0.0789505541324615
1630498017388,0.8576517105102539,0.3835724294185638,-0.4340165853500366,0.0789505541324615
1630498017436,0.8576517105102539,0.3749499320983886,-0.425389677286148,0.0789505541324615
1630498017591,0.8576517105102539,0.3687100708484649,-0.4135341644287109,0.0789505541324615
1630498017702,0.8576517105102539,0.3715595006942749,-0.4023155272006988,0.0789505541324615
1630498017826,0.8576517105102539,0.3842417299747467,-0.396319717168808,0.0789505541324615
1630498017904,0.8576517105102539,0.4013291597366333,-0.3969784677028656,0.5234778523445129
1630498017982,1.2454347610473633,0.4152183532714844,-0.4027509093284607,0.5487054586410522
1630498018080,1.2323658466339111,0.4190134704113006,-0.4115136563777923,0.5577978491783142
1630498018187,1.1950799226760864,0.4118164777755737,-0.4189283847808838,0.5543762445449829
1630498018279,1.159483551979065,0.3881140947341919,-0.4182470738887787,0.5449807047843933
1630498018373,1.1430193185806274,0.3554880321025848,-0.409640908241272,0.5333809852600098
1630498018530,1.1382137537002563,0.3238633573055267,-0.3993821442127228,0.5215548872947693
1630498018608,1.1357557773590088,0.3024725615978241,-0.3976090252399444,0.509070634841919
1630498018690,1.1291217803955078,0.2934356033802032,-0.4054630100727081,0.495920717716217
1630498018814,1.1155273914337158,0.2933096885681152,-0.4175366759300232,0.495920717716217
1630498018938,1.0978717803955078,0.2965406477451324,-0.4280320703983307,0.495920717716217
1630498019000,1.0804712772369385,0.299034982919693,-0.4334890246391296,0.495920717716217
1630498019111,1.0653971433639526,0.2999486923217773,-0.4348736703395843,0.5053572058677673
1630498019238,1.0563921928405762,0.2978054881095886,-0.4333680868148803,0.507726788520813
1630498019282,1.03435480594635,0.2909094095230102,-0.4302411377429962,0.5000701546669006
1630498019392,0.993053674697876,0.2787697315216064,-0.4255322813987732,0.4814574122428894
1630498019517,0.9518115520477296,0.263033926486969,-0.4167500138282776,0.4538575410842895
1630498019625,0.9231000542640686,0.2484965771436691,-0.4012974798679352,0.4237390458583832
1630498019781,0.9119021892547609,0.2394402921199798,-0.3813888728618622,0.3980820775032043
1630498019858,0.9021403193473816,0.2361925542354583,-0.3663173019886017,0.3771997988224029
1630498019919,0.8796960115432739,0.2370020747184753,-0.3621289134025574,0.3314817547798157
1630498020046,0.8463098406791687,0.2370084524154663,-0.3696573972702026,0.2795861363410949
1630498020137,0.8051527142524719,0.2326413989067077,-0.3838399052619934,0.2380379438400268
1630498020216,0.7683755159378052,0.2251382023096084,-0.3989870548248291,0.2184467315673828
1630498020358,0.7416382431983948,0.2212220877408981,-0.4119262099266052,0.2285595685243606
1630498020418,0.7232584953308105,0.2283200472593307,-0.4229945838451385,0.2295964211225509
1630498020511,0.712041974067688,0.2455012649297714,-0.4344843924045563,0.2240987569093704
1630498020654,0.7076603174209595,0.2626146674156189,-0.44398033618927,0.2240987569093704
1630498020717,0.6956189274787903,0.2700569033622741,-0.4441777765750885,0.2240987569093704
1630498020809,0.6738172769546509,0.26677206158638,-0.428935706615448,0.2240987569093704
1630498020922,0.6446541547775269,0.2595807313919067,-0.4029859006404876,0.2240987569093704
1630498021013,0.6144509315490723,0.2597212791442871,-0.3811981678009033,0.2240987569093704
1630498021095,0.5868019461631775,0.2641903758049011,-0.3738142848014831,0.2240987569093704
1630498021269,0.5639165043830872,0.2721646726131439,-0.3795896172523498,0.2240987569093704
1630498021366,0.5527223348617554,0.2827789783477783,-0.388259619474411,0.2240987569093704
1630498021473,0.5416488647460938,0.2825202643871307,-0.3907115757465362,0.2220416814088821
1630498021550,0.5256531238555908,0.2774422168731689,-0.3850281238555908,0.2290862202644348
1630498021611,0.5225206017494202,0.2692719399929046,-0.3733547031879425,0.2355756312608719
1630498021719,0.5225206017494202,0.2770753800868988,-0.3586980998516083,0.2355756312608719
1630498021864,0.5225206017494202,0.2816208600997925,-0.3407866656780243,0.2355756312608719
1630498021941,0.5225206017494202,0.2749131917953491,-0.320194810628891,0.2355756312608719
1630498022100,0.5225206017494202,0.2511149942874908,-0.300553947687149,0.2355756312608719
1630498022148,0.5225206017494202,0.2107113748788833,-0.2876921594142914,0.2355756312608719
1630498022257,0.5225206017494202,0.1654453724622726,-0.2853955030441284,0.2355756312608719
1630498022353,0.5225206017494202,0.1287219077348709,-0.2922318577766418,0.2355756312608719
1630498022512,0.5225206017494202,0.0932484716176986,-0.3027448654174804,0.2355756312608719
1630498022570,0.5225206017494202,0.1027994751930236,-0.3104065656661987,0.2355756312608719
1630498022700,0.5225206017494202,0.1177665591239929,-0.3122449517250061,0.2355756312608719
1630498022777,0.5225206017494202,0.1338412314653396,-0.3103648722171783,0.2355756312608719
1630498022888,0.5225206017494202,0.1526886969804763,-0.3095850944519043,0.2355756312608719
1630498022980,0.5225206017494202,0.1842305809259414,-0.3110657930374145,0.2355756312608719
1630498023138,0.5225206017494202,0.2364483475685119,-0.3119534850120544,0.2355756312608719
1630498023200,0.5225206017494202,0.2960000038146972,-0.310771644115448,0.2355756312608719
1630498023261,0.5225206017494202,0.3245735764503479,-0.3104957938194275,0.2355756312608719
1630498023355,0.5225206017494202,0.3445186614990234,-0.3188249468803406,0.2355756312608719
1630498023560,0.5225206017494202,0.3604191839694977,-0.3389125764369964,0.2355756312608719
1630498023565,0.5225206017494202,0.3744311928749084,-0.3645781576633453,0.2355756312608719
1630498023698,0.5225206017494202,0.3855237662792206,-0.3831683993339538,0.2355756312608719
1630498023792,0.5225206017494202,0.3912093639373779,-0.3862740695476532,0.2355756312608719
1630498023900,0.5225206017494202,0.3904149830341339,-0.3793916702270508,0.2355756312608719
1630498023977,0.5225206017494202,0.3982090055942535,-0.3739936947822571,0.2355756312608719
1630498024040,0.5225206017494202,0.3996959626674652,-0.3756980001926422,0.2355756312608719
1630498024165,0.5225206017494202,0.397920548915863,-0.3815787732601166,0.2355756312608719
1630498024290,0.5225206017494202,0.3952328264713287,-0.3871807157993316,0.2355756312608719
1630498024460,0.7764468789100647,0.3929511904716491,-0.3885113000869751,0.2355756312608719
1630498024509,0.809813916683197,0.3892199993133545,-0.3844639658927917,0.2355756312608719
1630498024680,0.8184234499931335,0.3811193406581878,-0.3759714961051941,0.0015192036516964
1630498024709,0.8267969489097595,0.3678137362003326,-0.365305483341217,0.0472959578037261
1630498024756,0.830913782119751,0.3497029542922973,-0.3534805178642273,0.0805947706103324
1630498024882,0.8349072933197021,0.3273355662822723,-0.3397003710269928,0.0972017347812652
1630498025007,0.8345476984977722,0.300596684217453,-0.3249982297420501,0.0973724722862243
1630498025101,0.831305980682373,0.2703881561756134,-0.3119008839130401,0.0910819694399833
1630498025196,0.8272467851638794,0.2403704673051834,-0.3037735819816589,0.0910819694399833
1630498025288,0.8194084763526917,0.2176462858915329,-0.3027882277965545,0.0910819694399833
1630498025401,0.8121194839477539,0.2081698626279831,-0.3071658015251159,0.0910819694399833
1630498025522,0.8074222207069397,0.2134850770235061,-0.3121733367443084,0.0910819694399833
1630498025615,0.8074222207069397,0.230340301990509,-0.3127260506153106,0.0910819694399833
1630498025771,0.8116670846939087,0.2540881335735321,-0.3079549372196197,0.0910819694399833
1630498025817,0.8118816018104553,0.2810127735137939,-0.300310343503952,0.1061473488807678
1630498025912,0.8094687461853027,0.30496945977211,-0.2949085533618927,0.1249757334589958
1630498026038,0.8064618110656738,0.3203436732292175,-0.2963456213474273,0.1436349302530288
1630498026129,0.8011878132820129,0.3273293375968933,-0.3066869974136352,0.151432454586029
1630498026291,0.7923019528388977,0.3334676623344421,-0.3233390748500824,0.1402540206909179
1630498026333,0.7825868725776672,0.3465053141117096,-0.341193675994873,0.1402540206909179
1630498026443,0.7678408026695251,0.3671450912952423,-0.3557863533496856,0.1402540206909179
1630498026524,0.7538689970970154,0.3896142244338989,-0.364926815032959,0.1402540206909179
1630498026683,0.7412450909614563,0.4094385206699371,-0.3694798052310943,0.1402540206909179
1630498026809,0.7412450909614563,0.4250061511993408,-0.3734459280967712,0.1402540206909179
1630498026854,0.7412450909614563,0.4348913431167602,-0.3805475831031799,0.1402540206909179
1630498026949,0.7412450909614563,0.4379599094390869,-0.3899251520633697,0.1402540206909179
1630498027027,0.7412450909614563,0.4350582361221313,-0.3997732698917389,0.1402540206909179
1630498027137,0.7412450909614563,0.4288986623287201,-0.4100482761859894,0.1402540206909179
1630498027246,0.7412450909614563,0.4197983741760254,-0.4214365482330322,0.1402540206909179
1630498027389,0.7412450909614563,0.405232161283493,-0.4335193336009979,0.1402540206909179
1630498027451,0.7412450909614563,0.3844806849956512,-0.441173791885376,0.1402540206909179
1630498027515,0.7412450909614563,0.3617091476917267,-0.4440812766551971,0.1402540206909179
1630498027624,0.7412450909614563,0.3431321978569031,-0.4464735686779022,0.1402540206909179
1630498027714,0.7412450909614563,0.3308485150337219,-0.4523293077945709,0.1402540206909179
1630498027808,0.7412450909614563,0.3225719630718231,-0.4624433815479278,0.1402540206909179
1630498027979,0.7412450909614563,0.3155437707901001,-0.47281613945961,0.1402540206909179
1630498028027,0.7412450909614563,0.3079570531845093,-0.4829250276088714,0.1402540206909179
1630498028138,0.7412450909614563,0.2970644533634186,-0.4956100881099701,0.1402540206909179
1630498028215,0.7412450909614563,0.2818620204925537,-0.5118434429168701,0.1402540206909179
1630498028374,0.7412450909614563,0.2652126848697662,-0.5289530754089355,0.1402540206909179
1630498028450,0.7412450909614563,0.2531816959381103,-0.5434621572494507,0.1402540206909179
1630498028544,0.7412450909614563,0.248822271823883,-0.552513837814331,0.1402540206909179
1630498028638,0.7222402095794678,0.2491114735603332,-0.5587770938873291,0.1402540206909179
1630498028758,0.7401429414749146,0.2522080540657043,-0.5668432116508484,0.1402540206909179
1630498028821,0.7737423181533813,0.2592105865478515,-0.5768333673477173,0.290306031703949
1630498028916,0.8054420351982117,0.2713196575641632,-0.5864883065223694,0.2826031744480133
1630498029040,0.8054420351982117,0.2917923331260681,-0.5835551619529724,0.319419652223587
1630498029157,0.8054420351982117,0.3276237249374389,-0.5565643906593323,0.4247932434082031
1630498029313,0.8054420351982117,0.3818574547767639,-0.5095611810684204,0.5679790377616882
1630498029358,0.8054420351982117,0.4470120966434479,-0.4540319740772247,0.7050647139549255
1630498029499,0.8054420351982117,0.5102332830429077,-0.4034067988395691,0.8085633516311646
1630498029608,0.8054420351982117,0.5614310503005981,-0.3637251555919647,0.8742871284484863
1630498029639,0.8054420351982117,0.5980744361877441,-0.3343263566493988,0.9128313660621644
1630498029874,0.8054420351982117,0.6232120990753174,-0.3129950761795044,0.9323471784591676
1630498029890,0.8225417137145996,0.6435062289237976,-0.2945019006729126,0.9391725659370422
1630498029937,0.8426576256752014,0.6657482981681824,-0.2747008800506592,0.935476541519165
1630498030093,0.864713728427887,0.6885589361190796,-0.2553481459617615,0.9568482637405396
1630498030172,0.864713728427887,0.7118822932243347,-0.2394077181816101,0.9819840788841248
1630498030233,0.864713728427887,0.7363287806510925,-0.2292362749576568,1.011061668395996
1630498030375,0.864713728427887,0.7634942531585693,-0.2222509384155273,1.0431334972381592
1630498030507,0.864713728427887,0.7953900098800659,-0.2077541798353195,1.0781168937683103
1630498030620,0.864713728427887,0.8308238387107849,-0.1810473054647445,1.11309552192688
1630498030664,0.864713728427887,0.8624492287635803,-0.1501500010490417,1.1409581899642944
1630498030761,0.864713728427887,0.879508912563324,-0.1271281242370605,1.153623342514038
1630498030868,0.864713728427887,0.8736150860786438,-0.1199592053890228,1.1443400382995603
1630498030999,0.864713728427887,0.8736150860786438,-0.1268629431724548,1.1135333776474
1630498031123,0.864713728427887,0.8736150860786438,-0.141505166888237,1.069462537765503
1630498031202,0.864713728427887,0.8736150860786438,-0.159035325050354,1.069462537765503
1630498031305,0.864713728427887,0.8736150860786438,-0.1745496988296508,1.069462537765503
1630498031352,0.864713728427887,0.8736150860786438,-0.1846382617950439,1.069462537765503
1630498031461,0.864713728427887,0.8736150860786438,-0.1895506978034973,1.069462537765503
1630498031614,0.864713728427887,0.8736150860786438,-0.1887196004390716,1.069462537765503
1630498031713,0.8953118324279785,0.4461688697338104,-0.1825812608003616,1.069462537765503
1630498031806,0.8979361653327942,0.5001070499420166,-0.1723340898752212,1.069462537765503
1630498031916,0.9063683152198792,0.535601019859314,-0.1620031595230102,1.069462537765503
1630498032055,0.9104444980621338,0.5484134554862976,-0.1613048315048217,1.069462537765503
1630498032149,0.9111102819442748,0.5458734631538391,-0.1735905259847641,1.069462537765503
1630498032243,0.9111102819442748,0.5374763011932373,-0.1932840794324875,1.069462537765503
1630498032307,0.9111102819442748,0.5280667543411255,-0.2082184553146362,1.069462537765503
1630498032436,0.9111102819442748,0.5174881219863892,-0.211235374212265,1.069462537765503
1630498032494,0.9111102819442748,0.5056838393211365,-0.2066854536533355,1.069462537765503
1630498032589,0.9111102819442748,0.4928128123283386,-0.1996465474367141,1.069462537765503
1630498032666,0.9111102819442748,0.4779415130615234,-0.1916145384311676,1.069462537765503
1630498032822,0.9111102819442748,0.460920125246048,-0.1830611675977707,1.069462537765503
1630498032964,0.908417582511902,0.4507770240306854,-0.1780407279729843,1.069462537765503
1630498033059,0.9072877764701844,0.4339836537837982,-0.1800393909215927,1.069462537765503
1630498033117,0.9129259586334229,0.4098145365715027,-0.1894311755895614,1.069462537765503
1630498033211,0.926354169845581,0.3768064975738525,-0.2025371044874191,1.069462537765503
1630498033303,0.926354169845581,0.3361027538776397,-0.2117644697427749,1.069462537765503
1630498033428,0.926354169845581,0.2946975231170654,-0.2116687297821045,1.069462537765503
1630498033538,0.926354169845581,0.261363685131073,-0.2041081190109253,1.069462537765503
1630498033649,0.926354169845581,0.2387290447950363,-0.2004628777503967,1.069462537765503
1630498033741,0.7535735368728638,0.223702996969223,-0.2086780369281768,0.3111680448055267
1630498033900,0.7343233227729797,0.2136701941490173,-0.2303336262702942,0.3176383674144745
1630498034009,0.7604076266288757,0.2124379128217697,-0.2573767304420471,0.3174344301223755
1630498034106,0.8508467078208923,0.223873108625412,-0.279286652803421,0.3088663518428802
1630498034168,0.9599267840385436,0.2467109113931656,-0.2928657531738281,0.2937892377376556
1630498034283,1.0550132989883425,0.2747708261013031,-0.3011590838432312,0.2785415351390838
1630498034327,1.104397535324097,0.3020528554916382,-0.3115571141242981,0.2658637464046478
1630498034486,1.1168172359466553,0.3267964422702789,-0.3263252973556518,0.2543773949146271
1630498034533,1.10892915725708,0.3494980931282043,-0.3436068296432495,0.2435097694396972
1630498034689,1.0923264026641846,0.3682743906974792,-0.3614880740642547,0.2323301285505294
1630498034767,1.07868754863739,0.3789278268814087,-0.379145473241806,0.2225310802459716
1630498034877,1.065449595451355,0.3808810710906982,-0.4007140100002289,0.2154261916875839
1630498034958,1.064543843269348,0.3781152367591858,-0.4302875697612762,0.2020006775856018
1630498035051,1.0635991096496582,0.3763666749000549,-0.466652899980545,0.1848051697015762
1630498035187,1.063557744026184,0.3788783848285675,-0.5008765459060669,0.163539782166481
1630498035296,1.0626561641693115,0.3850300312042236,-0.5258170366287231,0.1377400755882263
1630498035361,1.062026858329773,0.3922028541564941,-0.5402524471282959,0.1097321882843971
1630498035439,1.054218292236328,0.3948879539966583,-0.5453107357025146,0.0838644653558731
1630498035612,1.0253593921661377,0.3882527351379394,-0.5395293235778809,0.0659269168972969
1630498035696,0.9678720831871032,0.3722563683986664,-0.521767795085907,0.0588260628283023
1630498035772,0.8789166212081909,0.3522640466690063,-0.4992676079273224,0.0591180175542831
1630498035976,0.7844719290733337,0.3328236639499664,-0.4783274531364441,0.0628302544355392
1630498036038,0.7136241793632507,0.3141928613185882,-0.4624288380146026,0.069202110171318
1630498036069,0.6752842664718628,0.2961094677448272,-0.4507512748241424,0.0767418667674064
1630498036228,0.6553957462310791,0.2822241187095642,-0.4398619830608368,0.083123967051506
1630498036353,0.6309517621994019,0.276102751493454,-0.4260857999324798,0.0864969342947006
1630498036478,0.6108356714248657,0.2754200398921966,-0.4085837602615356,0.0847527384757995
1630498036541,0.5957419276237488,0.2762916088104248,-0.3899081647396087,0.079157754778862
1630498036604,0.589074432849884,0.2768291234970093,-0.3735625147819519,0.0712857171893119
1630498036674,0.5905194878578186,0.2740540206432342,-0.3616556525230407,0.060906995087862
1630498036752,0.5898480415344238,0.2633938491344452,-0.3539025783538818,0.0502032861113548
1630498036893,0.5872151255607605,0.2422563433647155,-0.3467236459255218,0.0414564907550811
1630498036971,0.5816715955734253,0.2150409966707229,-0.3380063474178314,0.0365150496363639
1630498037130,0.5796487927436829,0.1895633935928344,-0.3286562860012054,0.0363357290625572
1630498037193,0.5832194089889526,0.1697883307933807,-0.3207529485225677,0.0368130207061767
1630498037317,0.5870052576065063,0.1557089388370514,-0.3159043192863464,0.0319228246808052
1630498037380,0.5933124423027039,0.1489843428134918,-0.3143062889575958,0.0215512830764055
1630498037471,0.5927411317825317,0.152413472533226,-0.3156712651252746,0.0073986393399536
1630498037580,0.5894622802734375,0.1618344038724899,-0.3182565569877624,0.000518410699442
1630498037705,0.5939468145370483,0.1695514023303985,-0.3209086060523987,0.0055872136726975
1630498037799,0.604334831237793,0.1725633591413498,-0.3255131840705871,0.0150814363732934
1630498037986,0.6242762804031372,0.1730227172374725,-0.3342726826667785,0.0262677446007728
1630498038049,0.6436543464660645,0.1717661172151565,-0.3489826321601867,0.0417145602405071
1630498038223,0.6563136577606201,0.167251244187355,-0.3694498836994171,0.0673020854592323
1630498038317,0.6658905744552612,0.1636643558740615,-0.3926061987876892,0.103679247200489
1630498038395,0.6747093796730042,0.1691485941410064,-0.4134848117828369,0.1372594982385635
1630498038567,0.6878119707107544,0.1840369552373886,-0.4273349642753601,0.1591146141290664
1630498038692,0.7053748369216919,0.1999077051877975,-0.436146467924118,0.171098917722702
1630498038817,0.7172170877456665,0.2092823833227157,-0.4463488459587097,0.1752246469259262
1630498038864,0.73197340965271,0.211914375424385,-0.4619430899620056,0.1797801256179809
1630498038911,0.7484652400016785,0.2122156023979187,-0.4796100556850433,0.1906751245260238
1630498038989,0.7627089619636536,0.2114532887935638,-0.4934055507183075,0.2026741206645965
1630498039067,0.7761769890785217,0.2094900012016296,-0.500656008720398,0.2128805667161941
1630498039098,0.7824844121932983,0.2086235284805297,-0.5059701800346375,0.2132618278264999
1630498039190,0.7839726209640503,0.2113142907619476,-0.5127020478248596,0.2037357687950134
1630498039333,0.783653974533081,0.2189482599496841,-0.5177472233772278,0.1907918602228164
1630498039396,0.7777792811393738,0.2313934713602066,-0.516125500202179,0.1748214215040207
1630498039568,0.7671850323677063,0.2482176423072815,-0.5085222125053406,0.1546040028333664
1630498039662,0.7550706267356873,0.2668694853782654,-0.5006600022315979,0.1268622428178787
1630498039724,0.7407584190368652,0.2816039621829986,-0.4964625239372253,0.091266356408596
1630498039802,0.7272051572799683,0.2883559465408325,-0.497184693813324,0.05753093957901
1630498039959,0.7101585865020752,0.2897391319274902,-0.5056024193763733,0.0354552306234836
1630498040006,0.6887087225914001,0.2911567389965057,-0.5214747786521912,0.0229673124849796
1630498040212,0.6684513688087463,0.29521644115448,-0.5385369062423706,0.0114780608564615
1630498040259,0.6407853960990906,0.301411509513855,-0.549278974533081,-0.0079218354076147
1630498040400,0.6063922643661499,0.3103241324424743,-0.5511835217475891,-0.041788887232542
1630498040462,0.5738745331764221,0.326377272605896,-0.5501582622528076,-0.0835623070597648
1630498040509,0.5493206977844238,0.3499098718166351,-0.5493240356445312,-0.1235643848776817
1630498040603,0.5369890928268433,0.3739263415336609,-0.5454152822494507,-0.1450644433498382
1630498040775,0.536217212677002,0.390058696269989,-0.5382339358329773,-0.1297702938318252
1630498040884,0.5363289713859558,0.3956539630889892,-0.5323039293289185,-0.0844819918274879
1630498041040,0.533432126045227,0.3940095007419586,-0.5343315601348877,-0.0290272086858749
1630498041072,0.5354675054550171,0.3902099430561065,-0.5410810708999634,0.0194099266082048
1630498041188,0.5397613048553467,0.3872067928314209,-0.5370271801948547,0.0605202503502368
1630498041278,0.5440347194671631,0.3848967552185058,-0.5114128589630127,0.0981395542621612
1630498041372,0.5512823462486267,0.3809884786605835,-0.4698950946331024,0.1316230446100235
1630498041465,0.5540981292724609,0.3737759292125702,-0.4294856786727905,0.1562367677688598
1630498041537,0.5570134520530701,0.3643461763858795,-0.4040234088897705,0.1720195263624191
1630498041693,0.569278359413147,0.3561215698719024,-0.3960505127906799,0.1853105723857879
1630498041787,0.5902102589607239,0.3503558039665222,-0.3997898697853088,0.1983104348182678
1630498041850,0.615070641040802,0.3429549038410187,-0.4045549631118774,0.2114142030477523
1630498041959,0.635671854019165,0.3280542194843292,-0.399531602859497,0.2234416902065277
1630498042052,0.6512725353240967,0.3039985299110412,-0.3837352693080902,0.2331735640764236
1630498042162,0.6587283611297607,0.2785120606422424,-0.3649332523345947,0.2365131378173828
1630498042258,0.6586433053016663,0.2624896764755249,-0.3513451516628265,0.2411009073257446
1630498042352,0.6578419804573059,0.2575114965438843,-0.3460319936275482,0.2328151613473892
1630498042430,0.6548618078231812,0.256562739610672,-0.3461504280567169,0.2171418219804763
1630498042617,0.649030864238739,0.2551334500312805,-0.3497510850429535,0.2032151073217392
1630498042680,0.6446600556373596,0.2564618289470672,-0.359621912240982,0.1917678564786911
1630498042773,0.6439797282218933,0.2639628052711487,-0.38086599111557,0.1765556335449218
1630498042898,0.6479145288467407,0.2783451974391937,-0.4134458005428314,0.1543402224779129
1630498042976,0.6619646549224854,0.2974901497364044,-0.4485961496829986,0.129762589931488
1630498043101,0.6792070269584656,0.3176286518573761,-0.4726839959621429,0.1099881902337074
1630498043195,0.6876126527786255,0.3343852162361145,-0.4801491498947143,0.092519424855709
1630498043320,0.6819512844085693,0.3441880345344543,-0.4787638485431671,0.0709163770079612
1630498043383,0.6663830876350403,0.3471631705760956,-0.4791199266910553,0.0709163770079612
1630498043492,0.6663830876350403,0.3450838029384613,-0.4884184598922729,0.0709163770079612
1630498043664,0.6663830876350403,0.3391236662864685,-0.5065463781356812,0.0709163770079612
1630498043695,0.6663830876350403,0.3291226029396057,-0.526471734046936,0.0709163770079612
1630498043836,0.6663830876350403,0.315976083278656,-0.5402585864067078,0.0709163770079612
1630498043945,0.5787917971611023,0.3032519817352295,-0.5442053079605103,0.364529013633728
1630498044025,0.559647798538208,0.2948439419269562,-0.5369285345077515,0.407427966594696
1630498044090,0.5458211898803711,0.2897778451442718,-0.5183371305465698,0.441754013299942
1630498044246,0.5325409770011902,0.2829647064208984,-0.4909923076629638,0.4559511840343475
1630498044278,0.5261480212211609,0.2709226012229919,-0.4614545702934265,0.452227920293808
1630498044403,0.5300696492195129,0.2543199956417084,-0.4370988309383392,0.4374430179595947
1630498044496,0.5367868542671204,0.2375704199075698,-0.4198827445507049,0.4181727766990661
1630498044590,0.5473874807357788,0.225023403763771,-0.4070363342761993,0.4009824097156524
1630498044684,0.553886890411377,0.2172337621450424,-0.3972631990909576,0.3873949348926544
1630498044809,0.5570375323295593,0.2131291925907135,-0.3925260603427887,0.3775530755519867
1630498044871,0.562146008014679,0.2119188904762268,-0.3944060802459717,0.3706520795822143
1630498045012,0.5699758529663086,0.2135701775550842,-0.3998509347438812,0.3672704696655273
1630498045168,0.5774012804031372,0.2192521840333938,-0.4006792902946472,0.3733607232570648
1630498045215,0.5887719392776489,0.2287854105234146,-0.393322616815567,0.3825461268424988
1630498045327,0.6024025082588196,0.2402722239494323,-0.3807807862758636,0.3865925073623657
1630498045421,0.6207244992256165,0.2514204084873199,-0.3689081966876983,0.3794179856777191
1630498045514,0.6497440338134766,0.2591806054115295,-0.3636674582958221,0.3620730936527252
1630498045639,0.6901167035102844,0.262155145406723,-0.3674477934837341,0.342365026473999
1630498045717,0.7361248731613159,0.2617979049682617,-0.3787889778614044,0.3288893401622772
1630498045795,0.7735624313354492,0.2620584964752197,-0.3919035196304321,0.3219974637031555
1630498045889,0.8019450902938843,0.2644471824169159,-0.3977196216583252,0.3218671381473541
1630498045984,0.818329393863678,0.2654071450233459,-0.3930999040603637,0.3258084058761596
1630498046149,0.8234440088272095,0.2624931931495666,-0.3823786079883575,0.3311775028705597
1630498046234,0.8210955262184143,0.2572344541549682,-0.3716220557689667,0.3352012932300567
1630498046342,0.8158190250396729,0.2549030780792236,-0.3626576066017151,0.3339569866657257
1630498046420,0.812532365322113,0.2568798363208771,-0.354254275560379,0.3294894993305206
1630498046513,0.8115806579589844,0.2622470259666443,-0.3464240431785583,0.3222979009151459
1630498046638,0.8142017722129822,0.272265076637268,-0.3404633700847626,0.3095788955688476
1630498046702,0.8217170238494873,0.2886364161968231,-0.3329633772373199,0.2941539585590362
1630498046826,0.8308553695678711,0.3096976578235626,-0.319228857755661,0.2811067104339599
1630498046936,0.8364695310592651,0.3295652866363525,-0.2991319000720978,0.2755743861198425
1630498047030,0.8366630673408508,0.3444356918334961,-0.2783000469207763,0.2753200829029083
1630498047125,0.8275007009506226,0.3543757796287536,-0.2607305347919464,0.271087497472763
1630498047203,0.8097057342529297,0.360617846250534,-0.2445420920848846,0.2601950466632843
1630498047380,0.7957276701927185,0.3646610081195831,-0.2259585559368133,0.2489271461963653
1630498047507,0.7870948910713196,0.3700878322124481,-0.2050877958536148,0.247370645403862
1630498047664,0.7887128591537476,0.3865143954753876,-0.1852476894855499,0.2461563795804977
1630498047755,0.8186886310577393,0.4986165463924408,-0.1594039648771286,0.2408410757780075
1630498047769,0.8054758310317993,0.4264540672302246,-0.1704313308000564,0.2436174750328064
1630498047848,0.8378754258155823,0.5148645639419556,-0.1448630392551422,0.243209883570671
1630498047973,0.8554973602294922,0.5329048037528992,-0.1132059246301651,0.2487068176269531
1630498048035,0.8703212141990662,0.5520763397216797,-0.044400654733181,0.254772812128067
1630498048178,0.8788230419158936,0.5691318511962891,0.0622604601085186,0.2593669891357422
1630498048260,0.8817539811134338,0.5804949402809143,0.1781431883573532,0.2629092931747436
1630498048339,0.8830340504646301,0.5862921476364136,0.2738088071346283,0.2661710083484649
1630498048440,0.8856706023216248,0.5919923186302185,0.3371655941009521,0.2621771097183227
1630498048534,0.8888375759124756,0.6042051315307617,0.3717394173145294,0.2461968660354614
1630498048671,0.8935498595237732,0.625740647315979,0.3872567415237427,0.2461968660354614
1630498048765,0.9057044386863708,0.6572229266166687,0.3921991288661957,0.2461968660354614
1630498048843,0.9057044386863708,0.7010968327522278,0.3910457491874695,0.2461968660354614
1630498048951,0.9057044386863708,0.7010968327522278,0.3857598900794983,0.2461968660354614
1630498049047,0.9057044386863708,0.7010968327522278,0.3781807422637939,0.2461968660354614
1630498049140,0.9057044386863708,0.7010968327522278,0.3704078793525696,0.2461968660354614
1630498049300,0.9057044386863708,0.7010968327522278,0.3639134168624878,0.2461968660354614
1630498049378,0.9057044386863708,0.7010968327522278,0.3580997586250305,0.2461968660354614
1630498049487,0.9057044386863708,0.4320940673351288,0.3485250174999237,0.2461968660354614
1630498049627,0.9057044386863708,0.3945081830024719,0.2736371159553528,0.2461968660354614
1630498049627,0.9057044386863708,0.4124970734119415,0.3247458934783935,0.2461968660354614
1630498049752,0.9057044386863708,0.3890251219272613,0.1867219507694244,0.2461968660354614
1630498049909,0.9057044386863708,0.3999119400978088,0.0685063749551773,0.2461968660354614
1630498050021,0.9057044386863708,0.4143537282943725,-0.0567119121551513,0.2461968660354614
1630498050081,0.9057044386863708,0.4193103015422821,-0.1538471281528473,0.2461968660354614
1630498050192,0.9057044386863708,0.4112840890884399,-0.204687625169754,0.2461968660354614
1630498050287,0.9057044386863708,0.3938997089862823,-0.2216356098651886,0.2461968660354614
1630498050369,0.9057044386863708,0.3752118647098541,-0.2215215116739273,0.2461968660354614
1630498050500,0.9057044386863708,0.3591352999210357,-0.2123054414987564,0.2461968660354614
1630498050592,0.9057044386863708,0.3461180925369262,-0.1987880170345306,0.2461968660354614
1630498050670,0.9057044386863708,0.3263993263244629,-0.1845089942216873,0.2461968660354614
1630498050779,0.9057044386863708,0.3090711236000061,-0.1719237267971038,0.2461968660354614
1630498050888,0.9057044386863708,0.2923664152622223,-0.161416620016098,0.2461968660354614
1630498050966,0.7916022539138794,0.2777770161628723,-0.1521014124155044,0.113021895289421
1630498051138,0.7611560821533203,0.2677953541278839,-0.1422959268093109,0.1258064657449722
1630498051248,0.7504574060440063,0.2605897486209869,-0.1326774507761001,0.1165321469306945
1630498051326,0.7501144409179688,0.2493386566638946,-0.126315027475357,0.0989345908164978
1630498051393,0.7641403675079346,0.2255741357803344,-0.1275421380996704,0.0856005549430847
1630498051502,0.7784157991409302,0.1923533380031585,-0.137077510356903,0.0838057845830917
1630498051596,0.792016327381134,0.1657886207103729,-0.1472392827272415,0.0948545560240745
1630498051690,0.8069764375686646,0.1659231334924698,-0.1516714096069336,0.1141490191221237
1630498051867,0.8163052201271057,0.1971904337406158,-0.1501718610525131,0.1345736235380172
1630498051930,0.8323129415512085,0.2427018582820892,-0.1492026299238205,0.1485157459974289
1630498051992,0.8463820815086365,0.2861908674240112,-0.1538322120904922,0.1533992290496826
1630498052101,0.8509575724601746,0.3204475045204162,-0.1632708460092544,0.1526837348937988
1630498052230,0.8482905030250549,0.3455314934253692,-0.1748911291360855,0.1585907787084579
1630498052355,0.842770516872406,0.3630478978157043,-0.1867076456546783,0.1641881614923477
1630498052418,0.8416019082069397,0.3738453090190887,-0.1974007189273834,0.1658532619476318
1630498052538,0.8456196784973145,0.380060464143753,-0.205918088555336,0.1594582498073578
1630498052683,0.8559654951095581,0.3840589821338653,-0.2144634574651718,0.1479388922452926
1630498052697,0.8642298579216003,0.3882463276386261,-0.2252342849969864,0.1375336498022079
1630498052808,0.8674485683441162,0.395585298538208,-0.2367980778217315,0.131351351737976
1630498052917,0.8637304902076721,0.4070424735546112,-0.2426017671823501,0.1284704506397247
1630498053105,0.8564612865447998,0.4202079176902771,-0.2393640428781509,0.1227322369813919
1630498053151,0.8508159518241882,0.4285381138324737,-0.2338013350963592,0.1103712618350982
1630498053255,0.8483010530471802,0.4245637357234955,-0.233579620718956,0.0927568599581718
1630498053336,0.8499844670295715,0.4058990180492401,-0.2406956404447555,0.0708325877785682
1630498053413,0.8454775214195251,0.3760470449924469,-0.2484272867441177,0.0506972931325435
1630498053538,0.8332027792930603,0.3422971069812774,-0.2475781142711639,0.0337934754788875
1630498053616,0.8232458829879761,0.3108015954494476,-0.2332812994718551,0.0177904944866895
1630498053765,0.8178455829620361,0.2828742861747741,-0.2091538161039352,0.0022717919200658
1630498053812,0.8175958395004272,0.2589811384677887,-0.1854431927204132,-0.0221135225147008
1630498053924,0.818589448928833,0.2431423813104629,-0.1717750430107116,-0.0480564907193183
1630498054001,0.8178669810295105,0.2383365333080291,-0.1688545942306518,-0.0620986670255661
1630498054223,0.8144919872283936,0.2430008798837661,-0.1695382893085479,-0.0544948130846023
1630498054317,0.8047918081283569,0.2516148388385772,-0.1664827615022659,-0.0282156392931938
1630498054348,0.7963836193084717,0.2587376534938812,-0.1604024469852447,0.0004659343685489
1630498054441,0.7914282083511353,0.2632128894329071,-0.1584385186433792,0.0214750505983829
1630498054566,0.7862406969070435,0.2659391760826111,-0.1634158194065094,0.029784582555294
1630498054629,0.7791818976402283,0.2701338827610016,-0.1722209900617599,0.0297302287071943
1630498054770,0.7634314894676208,0.2797206938266754,-0.1777248382568359,0.0248511154204607
1630498054874,0.7455753087997437,0.2969912588596344,-0.1725886613130569,0.0213309954851865
1630498054921,0.7312958240509033,0.3194635808467865,-0.1558735370635986,0.0256332382559776
1630498055030,0.7218937277793884,0.341382771730423,-0.1343649923801422,0.0393412336707115
1630498055158,0.7183972001075745,0.3590910732746124,-0.1182864904403686,0.0545294396579265
1630498055289,0.7162367701530457,0.3726198971271515,-0.1114213839173317,0.0666040256619453
1630498055367,0.7081265449523926,0.383135050535202,-0.1104221940040588,0.0757263451814651
1630498055471,0.6891350746154785,0.3907062113285064,-0.1104360148310661,0.0835212841629982
1630498055549,0.6679028868675232,0.396446943283081,-0.1123141422867775,0.091603085398674
1630498055638,0.6539269685745239,0.4027469456195831,-0.1208599209785461,0.0921056419610977
1630498055763,0.6506305932998657,0.4110721945762634,-0.1374445855617523,0.0788175016641616
1630498055872,0.6507576704025269,0.4195778667926788,-0.1565345078706741,0.055143229663372
1630498055997,0.6451165676116943,0.4249990880489349,-0.1692562252283096,0.0296997930854558
1630498056123,0.6448757648468018,0.426554262638092,-0.1729967892169952,0.0216801390051841
1630498056185,0.6483536958694458,0.4264838099479675,-0.1707843989133834,0.0351669825613498
1630498056292,0.6605119109153748,0.4270904064178467,-0.1653743982315063,0.0594145357608795
1630498056389,0.6806312799453735,0.4273548722267151,-0.1573236286640167,0.084471084177494
1630498056449,0.6926304697990417,0.4259922504425049,-0.1470815390348434,0.0995880514383316
1630498056590,0.7058649659156799,0.4238138496875763,-0.1386858075857162,0.1077877730131149
1630498056698,0.7086985111236572,0.4237194061279297,-0.1355117112398147,0.1152751967310905
1630498056779,0.7074716091156006,0.4277824759483337,-0.1389850378036499,0.1205938085913658
1630498056856,0.7129710912704468,0.4351223409175873,-0.1485244780778885,0.1253649145364761
1630498056964,0.7225431203842163,0.4415782392024994,-0.1601769626140594,0.1276269853115081
1630498057027,0.732861340045929,0.4430117011070251,-0.1678530722856521,0.1269972324371338
1630498057181,0.7348151803016663,0.437061458826065,-0.1649721711874008,0.1289122998714447
1630498057277,0.7328567504882812,0.4237147271633148,-0.1517928093671798,0.1355201452970504
1630498057371,0.7296921610832214,0.4058218002319336,-0.1348834931850433,0.1450881063938141
1630498057479,0.7263874411582947,0.3887914717197418,-0.1211273744702339,0.1518267542123794
1630498057574,0.7247810363769531,0.379071295261383,-0.114470362663269,0.147632285952568
1630498057669,0.7222828269004822,0.3792490065097809,-0.1128905937075614,0.1302957832813263
1630498057818,0.7166121602058411,0.3845040202140808,-0.1176761388778686,0.1068232581019401
1630498057937,0.7030566334724426,0.3882499933242798,-0.1331297904253006,0.0865709632635116
1630498058015,0.6839110255241394,0.3878383934497833,-0.1628071665763855,0.0768592879176139
1630498058095,0.6703406572341919,0.3851404190063476,-0.2052451819181442,0.0592692457139492
1630498058220,0.664126455783844,0.3815985023975372,-0.2515901923179626,0.0421939082443714
1630498058283,0.6619061827659607,0.37663334608078,-0.2912819385528564,0.0309380460530519
1630498058440,0.6589815020561218,0.3694787323474884,-0.3177110850811004,0.0254357159137725
1630498058517,0.6562283039093018,0.3645851910114288,-0.3294864296913147,0.0228174459189176
1630498058672,0.6518934965133667,0.3638864457607269,-0.3288333415985107,0.0178365968167781
1630498058720,0.6521952748298645,0.3678827881813049,-0.3225595951080322,0.0061040013097226
1630498058798,0.6581066250801086,0.3756752610206604,-0.3174754381179809,-0.0081510245800018
1630498058891,0.666679322719574,0.3862528800964355,-0.317984938621521,-0.0181359071284532
1630498059111,0.6823045611381531,0.3979839980602264,-0.3255119919776916,-0.0146663505584001
1630498059237,0.6934518814086914,0.406581699848175,-0.3422310054302215,0.0128256995230913
1630498059239,0.6934518814086914,0.4065667986869812,-0.3339899480342865,0.0128256995230913
1630498059314,0.6934518814086914,0.3978659510612488,-0.3453173339366913,0.0128256995230913
1630498059436,0.6934518814086914,0.3863784968852997,-0.3399094045162201,0.0128256995230913
1630498059516,0.6934518814086914,0.3784175217151642,-0.3269532918930053,0.0128256995230913
1630498059657,0.6934518814086914,0.3784175217151642,-0.3073901236057281,0.0128256995230913
1630498059749,0.6934518814086914,0.3784175217151642,-0.2870590388774872,0.0128256995230913
1630498059814,0.6934518814086914,0.3784175217151642,-0.2692144513130188,0.0128256995230913
1630498060015,0.6934518814086914,0.3784175217151642,-0.252956360578537,0.0128256995230913
1630498060078,0.6934518814086914,0.3784175217151642,-0.2381632030010223,0.0128256995230913
1630498060126,0.6934518814086914,0.3784175217151642,-0.2248143553733825,0.0128256995230913
1630498060280,0.6934518814086914,0.3784175217151642,-0.2156922072172165,0.0128256995230913
1630498060344,0.6934518814086914,0.3784175217151642,-0.2113356292247772,0.0128256995230913
1630498060423,0.6934518814086914,0.3784175217151642,-0.2070057690143585,0.0128256995230913
1630498060579,0.6934518814086914,0.3784175217151642,-0.1960425227880478,0.0128256995230913
1630498060640,0.6934518814086914,0.3784175217151642,-0.1781081259250641,0.0128256995230913
1630498060737,0.6934518814086914,0.3784175217151642,-0.1577561050653457,0.0128256995230913
1630498060890,0.6934518814086914,0.3784175217151642,-0.1404312998056411,0.0128256995230913
1630498060951,0.6934518814086914,0.3784175217151642,-0.1272807121276855,0.0128256995230913
1630498061107,0.6934518814086914,0.3784175217151642,-0.1157479509711265,0.0128256995230913
1630498061139,0.6934518814086914,0.3414203226566314,-0.1028902903199195,-0.1605420261621475
1630498061265,0.6934518814086914,0.3881422281265259,-0.0862894058227539,-0.1958987563848495
1630498061345,0.6934518814086914,0.4156273603439331,-0.0653010830283165,-0.2254172563552856
1630498061485,0.6934518814086914,0.4274446666240692,-0.0435612760484218,-0.237625390291214
1630498061580,0.6934518814086914,0.430275022983551,-0.0264000501483678,-0.2231563478708267
1630498061642,0.6934518814086914,0.4284722506999969,-0.0182439368218183,-0.2231563478708267
1630498061749,0.6934518814086914,0.4239205121994018,-0.0191350374370813,-0.2231563478708267
1630498061833,0.6934518814086914,0.4174940586090088,-0.02647097222507,-0.2231563478708267
1630498061963,0.6934518814086914,0.4099386632442474,-0.0377479940652847,-0.2231563478708267
1630498062086,0.6934518814086914,0.4017448723316192,-0.0516404062509536,-0.2231563478708267
1630498062133,0.6934518814086914,0.4017448723316192,-0.0676292851567268,-0.2231563478708267
1630498062292,0.6934518814086914,0.4017448723316192,-0.0852169096469879,-0.2231563478708267
1630498062371,0.6934518814086914,0.4118402898311615,-0.0915330275893211,-0.2371671497821808
1630498062466,0.6934518814086914,0.4239512979984283,-0.0973301827907562,-0.2613950371742248
1630498062545,0.6934518814086914,0.4307397007942199,-0.1034900918602943,-0.2835910320281982
1630498062699,0.6934518814086914,0.4260821938514709,-0.1123520135879516,-0.2963438332080841
1630498062799,0.6934518814086914,0.4100351333618164,-0.1263333112001419,-0.2963438332080841
1630498062872,0.6934518814086914,0.3894818425178528,-0.1494967341423034,-0.2963438332080841
1630498062966,0.6934518814086914,0.3697034120559692,-0.1826418042182922,-0.2963438332080841
1630498063058,0.6934518814086914,0.3592300415039062,-0.2154904901981353,-0.2963438332080841
1630498063183,0.6934518814086914,0.3330481946468353,-0.2369821071624755,-0.2963438332080841
1630498063308,0.6934518814086914,0.2992346882820129,-0.2459692507982254,-0.2963438332080841
1630498063370,0.5957794785499573,0.2661999464035034,-0.2488883286714553,-0.2963438332080841
1630498063498,0.5957794785499573,0.236958846449852,-0.249175488948822,-0.2963438332080841
1630498063590,0.5957794785499573,0.2099900394678115,-0.2464253604412078,-0.2963438332080841
1630498063687,0.5957794785499573,0.1973684579133987,-0.2385181635618209,-0.2963438332080841
1630498063812,0.5957794785499573,0.188084602355957,-0.2239617705345153,-0.2963438332080841
1630498063902,0.5957794785499573,0.1835968494415283,-0.2169527858495712,-0.2963438332080841
1630498064012,0.5957794785499573,0.1845636069774627,-0.2163851410150528,-0.2963438332080841
1630498064088,0.5957794785499573,0.188265860080719,-0.2220601141452789,-0.2963438332080841
1630498064195,0.5957794785499573,0.1916736960411071,-0.2269483506679535,-0.2963438332080841
1630498064273,0.5957794785499573,0.1941004544496536,-0.2227085828781128,-0.2963438332080841
1630498064368,0.5957794785499573,0.1977273225784301,-0.209809347987175,-0.2963438332080841
1630498064507,0.5957794785499573,0.1977273225784301,-0.1952643692493438,-0.2963438332080841
1630498064618,0.5957794785499573,0.1781332492828369,-0.1820431500673294,-0.2963438332080841
1630498064696,0.5957794785499573,0.1712827831506729,-0.1756893694400787,-0.2963438332080841
1630498064774,0.5957794785499573,0.1725759953260421,-0.1741035729646682,-0.2963438332080841
1630498064899,0.5957794785499573,0.1765833497047424,-0.172285795211792,-0.2963438332080841
1630498064978,0.5957794785499573,0.1813429594039917,-0.1697894632816314,-0.2963438332080841
1630498065119,0.5957794785499573,0.1882975697517395,-0.1693305969238281,-0.2963438332080841
1630498065229,0.5957794785499573,0.182611346244812,-0.1721294075250625,-0.2963438332080841
1630498065292,0.5957794785499573,0.1749864369630813,-0.1762759834527969,-0.2963438332080841
1630498065418,0.5957794785499573,0.1673672050237655,-0.1782102882862091,-0.2963438332080841
1630498065531,0.5957794785499573,0.1579686254262924,-0.176424354314804,-0.2963438332080841
1630498065562,0.5957794785499573,0.1477274149656295,-0.1717784404754638,-0.2963438332080841
1630498065763,0.5957794785499573,0.1370162069797516,-0.1694836616516113,-0.2963438332080841
1630498065827,0.5957794785499573,0.1250279396772384,-0.1759149879217147,-0.2963438332080841
1630498065922,0.5957794785499573,0.1072469055652618,-0.1923257708549499,-0.2963438332080841
1630498066046,0.7236635088920593,0.1068278849124908,-0.2164917290210724,-0.2963438332080841
1630498066093,0.7542189955711365,0.102792389690876,-0.2422410547733307,-0.2963438332080841
1630498066189,0.7542189955711365,0.0942598655819892,-0.2644903659820556,-0.2963438332080841
1630498066409,0.7542189955711365,0.0854926630854606,-0.2807400226593017,-0.2963438332080841
1630498066454,0.7542189955711365,0.0849667713046073,-0.2922895550727844,-0.2963438332080841
1630498066533,0.7542189955711365,0.0988905131816864,-0.2990440726280212,-0.2963438332080841
1630498066659,0.7542189955711365,0.121108092367649,-0.3004703223705292,-0.2963438332080841
1630498066751,0.7542189955711365,0.147157683968544,-0.2989041805267334,-0.2963438332080841
1630498066815,0.7542189955711365,0.1686916798353195,-0.2968418896198272,-0.2963438332080841
1630498066972,0.7542189955711365,0.1816377639770507,-0.2959499657154083,-0.2963438332080841
1630498067035,0.7542189955711365,0.1898802518844604,-0.2924992442131042,-0.2963438332080841
1630498067190,0.7542189955711365,0.1973593831062317,-0.2840747833251953,-0.2963438332080841
1630498067272,0.7923079133033752,0.2083911895751953,-0.2686947584152221,-0.2963438332080841
1630498067348,0.7923079133033752,0.2228678911924362,-0.2493374347686767,-0.2963438332080841
1630498067443,0.7923079133033752,0.2368137389421463,-0.2289475947618484,-0.2963438332080841
1630498067522,0.7923079133033752,0.2477056831121444,-0.2064208835363388,-0.2963438332080841
1630498067631,0.7923079133033752,0.2575271129608154,-0.1784655749797821,-0.2963438332080841
1630498067773,0.7923079133033752,0.2705808877944946,-0.1467426270246505,-0.2963438332080841
1630498067865,0.7923079133033752,0.2861198484897613,-0.118000641465187,-0.2963438332080841
1630498067911,0.7923079133033752,0.2989896833896637,-0.0957257822155952,-0.2963438332080841
1630498068067,0.7923079133033752,0.3043361902236938,-0.0778971537947654,-0.2963438332080841
1630498068161,0.7923079133033752,0.3034500479698181,-0.0607772357761859,-0.2963438332080841
1630498068287,0.7923079133033752,0.3001479506492615,-0.0439961999654769,-0.2963438332080841
1630498068377,0.7923079133033752,0.2969530820846557,-0.0316363535821437,-0.2963438332080841
1630498068518,0.7923079133033752,0.294776052236557,-0.0270309168845415,-0.2963438332080841
1630498068550,0.7923079133033752,0.2924279272556305,-0.0285053271800279,-0.2963438332080841
1630498068626,0.7923079133033752,0.2895697653293609,-0.0324325710535049,-0.2963438332080841
1630498068797,0.7923079133033752,0.2847066521644592,-0.0378184169530868,-0.2963438332080841
1630498068875,0.7923079133033752,0.2795829176902771,-0.0447328090667724,-0.2963438332080841
1630498068937,0.7923079133033752,0.2784323692321777,-0.0543108396232128,-0.2963438332080841
1630498069082,0.7923079133033752,0.2833197116851806,-0.0671470835804939,-0.2963438332080841
1630498069194,0.7923079133033752,0.2916309535503387,-0.0850827395915985,-0.2963438332080841
1630498069254,0.7923079133033752,0.2969707250595093,-0.1091079786419868,-0.2963438332080841
1630498069380,0.7923079133033752,0.2959851622581482,-0.1357624679803848,-0.2963438332080841
1630498069474,0.7923079133033752,0.2899754643440246,-0.1612945795059204,-0.2963438332080841
1630498069566,0.5363686084747314,0.2815402448177337,-0.1863041669130325,-0.2963438332080841
1630498069660,0.5423226952552795,0.2738071382045746,-0.2134788185358047,-0.2561492621898651
1630498069738,0.5529914498329163,0.2686599493026733,-0.240823432803154,-0.2561492621898651
1630498069864,0.567939817905426,0.2664468288421631,-0.2584607005119324,-0.2561492621898651
1630498070005,0.5744674801826477,0.266646146774292,-0.2603487968444824,-0.2561492621898651
1630498070098,0.5757087469100952,0.2672145366668701,-0.2561363577842712,-0.2561492621898651
1630498070175,0.5809341073036194,0.264896035194397,-0.2584633231163025,-0.2561492621898651
1630498070285,0.5809341073036194,0.2570262253284454,-0.2716914713382721,-0.2561492621898651
1630498070363,0.5809341073036194,0.2420311570167541,-0.2903860211372375,-0.2561492621898651
1630498070534,0.5809341073036194,0.2225763350725174,-0.3042747378349304,-0.2561492621898651
1630498070627,0.5809341073036194,0.2060052156448364,-0.3063538372516632,-0.2561492621898651
1630498070689,0.5809341073036194,0.1983162760734558,-0.2929580509662628,-0.2561492621898651
1630498070752,0.5781548023223877,0.2016125470399856,-0.2671145796775818,-0.2561492621898651
1630498070924,0.5821182727813721,0.214228019118309,-0.2391442060470581,-0.2561492621898651
1630498070986,0.5930938124656677,0.2313109338283538,-0.2187874913215637,-0.2561492621898651
1630498071080,0.6082908511161804,0.2478735446929931,-0.2095834910869598,-0.2561492621898651
1630498071270,0.6163912415504456,0.2495016753673553,-0.209348440170288,-0.2561492621898651
1630498071377,0.6197414398193359,0.249034896492958,-0.2157101035118103,-0.2561492621898651
1630498071408,0.6197414398193359,0.2483917623758316,-0.2286117225885391,-0.2561492621898651
1630498071504,0.6197414398193359,0.2494404464960098,-0.2454171627759933,-0.2561492621898651
1630498071674,0.6197414398193359,0.2475008070468902,-0.2602773308753967,-0.2561492621898651
1630498071736,0.6197414398193359,0.2450820505619049,-0.2674709260463714,-0.2561492621898651
1630498071814,0.6197414398193359,0.2450255006551742,-0.2636732459068298,-0.2561492621898651
1630498071922,0.8227202892303467,0.2521941065788269,-0.2521559298038482,-0.006524387281388
1630498072015,0.8227202892303467,0.2695761620998382,-0.2394068092107772,-0.006524387281388
1630498072140,0.8227202892303467,0.2934999763965606,-0.2326738834381103,-0.006524387281388
1630498072219,0.8227202892303467,0.3161219358444214,-0.2381604611873626,-0.006524387281388
1630498072281,0.8227202892303467,0.329898327589035,-0.2529622614383697,-0.006524387281388
1630498072437,0.8227202892303467,0.3314673602581024,-0.2649423778057098,-0.006524387281388
1630498072532,0.8227202892303467,0.3244622945785522,-0.2622969448566437,-0.006524387281388
1630498072640,0.8227202892303467,0.316559225320816,-0.243389755487442,-0.006524387281388
1630498072751,0.8227202892303467,0.3211686015129089,-0.216807410120964,-0.006524387281388
1630498072771,0.8227202892303467,0.3303219079971313,-0.1914859414100647,-0.006524387281388
1630498072909,0.8227202892303467,0.3420059382915497,-0.1709509193897247,-0.006524387281388
1630498073065,0.8227202892303467,0.3529994785785675,-0.1567307263612747,-0.006524387281388
1630498073145,0.8227202892303467,0.3712692558765411,-0.1487941592931747,-0.006524387281388
1630498073287,0.8227202892303467,0.3907642960548401,-0.1439971029758453,-0.006524387281388
1630498073335,0.8227202892303467,0.4120407700538635,-0.1375963687896728,-0.006524387281388
1630498073428,0.8227202892303467,0.4320722222328186,-0.1230420768260955,-0.006524387281388
1630498073507,0.8227202892303467,0.4463328421115875,-0.1001623198390007,0.060327548533678
1630498073651,0.8227202892303467,0.4547314345836639,-0.0760673433542251,0.0858713909983635
1630498073777,0.8227202892303467,0.4651067852973938,-0.0557851940393447,0.1102629378437995
1630498073851,0.8227202892303467,0.4888698756694793,-0.0403357073664665,0.1380809694528579
1630498073930,0.8227202892303467,0.4928566217422485,-0.0241681486368179,0.1380809694528579
1630498074056,0.8227202892303467,0.5017850399017334,0.0038599290419369,0.1380809694528579
1630498074118,0.8227202892303467,0.5132877230644226,0.0562716759741306,0.1380809694528579
1630498074243,0.8227202892303467,0.5243147611618042,0.134234994649887,0.1380809694528579
1630498074335,0.8227202892303467,0.5329211950302124,0.2261393964290619,0.1380809694528579
1630498074431,0.8227202892303467,0.5393097400665283,0.3138252198696136,0.1380809694528579
1630498074556,0.8227202892303467,0.5458275079727173,0.3861554563045501,0.1380809694528579
1630498074636,0.8227202892303467,0.5550263524055481,0.4392873346805572,0.1380809694528579
1630498074712,0.8227202892303467,0.5671603083610535,0.4730862081050873,0.1607790291309356
1630498074855,0.8227202892303467,0.5819690823554993,0.49002406001091,0.1852897256612777
1630498074968,0.8227202892303467,0.6024221777915955,0.4936287403106689,0.2076312750577926
1630498075060,0.8227202892303467,0.6024221777915955,0.4895141720771789,0.2076312750577926
1630498075185,0.8227202892303467,0.6024221777915955,0.4830386936664581,0.2076312750577926
1630498075232,0.8227202892303467,0.6024221777915955,0.4774400591850281,0.2076312750577926
1630498075328,0.8227202892303467,0.6024221777915955,0.473116785287857,0.2076312750577926
1630498075517,0.8227202892303467,0.6024221777915955,0.4673638641834259,0.2076312750577926
1630498075549,0.8227202892303467,0.6024221777915955,0.4560487866401672,0.2076312750577926
1630498075674,0.8227202892303467,0.6024221777915955,0.433107316493988,0.2076312750577926
1630498075768,0.8227202892303467,0.6024221777915955,0.3922945261001587,0.2076312750577926
1630498075864,0.5332643389701843,0.1873676925897598,0.32887664437294,0.2076312750577926
1630498075941,0.5332643389701843,0.1937399357557296,0.24296635389328,0.2076312750577926
1630498076097,0.5332643389701843,0.1957669258117675,0.1399575471878051,0.2076312750577926
1630498076192,0.5332643389701843,0.2005051523447036,0.0306834299117326,0.2076312750577926
1630498076300,0.5332643389701843,0.210711270570755,-0.0680313482880592,0.2076312750577926
1630498076348,0.5332643389701843,0.2240899950265884,-0.139367938041687,0.2076312750577926
1630498076489,0.5332643389701843,0.2361453175544738,-0.1768883615732193,0.2076312750577926
1630498076570,0.5332643389701843,0.2437717616558075,-0.1935489475727081,0.2076312750577926
1630498076707,0.5332643389701843,0.2466414719820022,-0.2030662447214126,0.2076312750577926
1630498076864,0.5332643389701843,0.2507750689983368,-0.220821738243103,0.2076312750577926
1630498076865,0.5332643389701843,0.2472517788410186,-0.211933895945549,0.2076312750577926
1630498076983,0.5332643389701843,0.2604771256446838,-0.2278364300727844,0.2076312750577926
1630498077069,0.5332643389701843,0.2824389338493347,-0.2342216223478317,0.2076312750577926
1630498077178,0.5332643389701843,0.304541528224945,-0.2417932897806167,0.2076312750577926
1630498077335,0.5332643389701843,0.3210201263427734,-0.2496172189712524,0.2076312750577926
1630498077400,0.5332643389701843,0.3316817879676819,-0.258470743894577,0.2076312750577926
1630498077542,0.7358757257461548,0.3428135812282562,-0.2697833776473999,0.2076312750577926
1630498077555,0.7366884350776672,0.3511286675930023,-0.2848710417747497,0.2076312750577926
1630498077696,0.7312782406806946,0.3593043088912964,-0.3007311522960663,0.2076312750577926
1630498077788,0.732708215713501,0.3655664324760437,-0.3080293238162994,0.2076312750577926
1630498077913,0.7298497557640076,0.3696065545082092,-0.3005701899528503,0.2076312750577926
1630498078005,0.7298497557640076,0.3772446513175964,-0.2816662192344665,0.2076312750577926
1630498078099,0.7298497557640076,0.3852072656154632,-0.260720282793045,0.2076312750577926
1630498078211,0.7298497557640076,0.391609251499176,-0.2468346804380417,0.2076312750577926
1630498078386,0.7298497557640076,0.3943833112716675,-0.2420156300067901,0.2076312750577926
1630498078413,0.7298497557640076,0.3933252692222595,-0.2434627562761306,0.2076312750577926
1630498078525,0.7298497557640076,0.3892908990383148,-0.2478691488504409,0.2076312750577926
1630498078636,0.7298497557640076,0.3833513557910919,-0.254027247428894,0.2076312750577926
1630498078712,0.7377132773399353,0.3756864666938782,-0.2606034874916076,0.2076312750577926
1630498078806,0.7315914630889893,0.3661856353282928,-0.2666980922222137,0.2076312750577926
1630498078900,0.723990797996521,0.3535601198673248,-0.2696459293365478,0.2076312750577926
1630498078994,0.723738968372345,0.3339047729969024,-0.2666923105716705,0.2076312750577926
1630498079136,0.723738968372345,0.3212269246578216,-0.2564166188240051,0.2076312750577926
1630498079261,0.723738968372345,0.3180112838745117,-0.2419087290763855,0.2076312750577926
1630498079338,0.723738968372345,0.3282708823680877,-0.2326125204563141,0.2076312750577926
1630498079402,0.723738968372345,0.3496436476707458,-0.2376702576875686,0.2076312750577926
1630498079510,0.5654112100601196,0.3709282577037811,-0.259266048669815,0.2076312750577926
1630498079619,0.5294060707092285,0.3903932273387909,-0.2890011370182037,0.2076312750577926
1630498079759,0.5082947611808777,0.4038572609424591,-0.3129062056541443,0.1014647260308265
1630498079854,0.5135510563850403,0.4102391302585602,-0.3225785791873932,0.0766076743602752
1630498079915,0.525374710559845,0.4108033180236816,-0.3187728226184845,0.0555096268653869
1630498080056,0.5346197485923767,0.4074879586696625,-0.3061252236366272,0.0555096268653869
1630498080136,0.5346197485923767,0.4019156396389007,-0.2885116040706634,0.0555096268653869
1630498080214,0.5346197485923767,0.3959561288356781,-0.2705163359642029,0.0555096268653869
1630498080357,0.5346197485923767,0.3915899097919464,-0.2589840888977051,0.0555096268653869
1630498080456,0.5346197485923767,0.3902068138122558,-0.2603932619094848,0.0555096268653869
1630498080550,0.5346197485923767,0.3908403217792511,-0.2752264738082886,0.0555096268653869
1630498080627,0.5346197485923767,0.3900224864482879,-0.2985627651214599,0.0555096268653869
1630498080751,0.5096980929374695,0.3825641572475433,-0.3194955289363861,0.0555096268653869
1630498080827,0.4896182417869568,0.3644866943359375,-0.3255255222320556,0.0555096268653869
1630498080955,0.4894566833972931,0.3341221213340759,-0.3126721382141113,0.0274094473570585
1630498081079,0.5083113312721252,0.2955646514892578,-0.2868605554103851,0.0010571223683655
1630498081174,0.5410500168800354,0.2560199201107025,-0.2608000040054321,0.0010571223683655
1630498081235,0.5410500168800354,0.2252999246120453,-0.241930142045021,0.0010571223683655
1630498081362,0.5410500168800354,0.211544930934906,-0.2301640808582306,0.0010571223683655
1630498081440,0.5410500168800354,0.2146674692630767,-0.2194819450378418,0.0010571223683655
1630498081567,0.5410500168800354,0.2299749553203582,-0.202940747141838,0.0010571223683655
1630498081722,0.5410500168800354,0.2497736513614654,-0.1788456439971923,0.0010571223683655
1630498081804,0.5410500168800354,0.2692950665950775,-0.15276899933815,0.0010571223683655
1630498081862,0.5410500168800354,0.2868776023387909,-0.1309185922145843,0.0010571223683655
1630498081958,0.5410500168800354,0.302494466304779,-0.115669772028923,0.0010571223683655
1630498082035,0.5410500168800354,0.3168382942676544,-0.1068653017282486,0.0010571223683655
1630498082179,0.5410500168800354,0.3308598101139068,-0.1043817922472953,0.0010571223683655
1630498082272,0.5410500168800354,0.3476949632167816,-0.1085695177316665,0.0010571223683655
1630498082334,0.5410500168800354,0.3708404898643493,-0.1181443482637405,0.0010571223683655
1630498082476,0.5410500168800354,0.4011374711990356,-0.1297675222158432,0.0010571223683655
1630498082537,0.5362125039100647,0.4332576692104339,-0.1413552314043045,0.2251292169094085
1630498082663,0.5713407397270203,0.4603070914745331,-0.1523461490869522,0.2533105611801147
1630498082773,0.6079121828079224,0.4780464768409729,-0.1620170325040817,0.2696469724178314
1630498082883,0.6475410461425781,0.4857148826122284,-0.1708685010671615,0.280689537525177
1630498082976,0.675766110420227,0.4851264953613281,-0.1824932694435119,0.2921032309532165
1630498083103,0.675766110420227,0.4786516726016998,-0.2047678083181381,0.3027816712856293
1630498083167,0.675766110420227,0.4698760211467743,-0.243242934346199,0.3027816712856293
1630498083291,0.675766110420227,0.4627933204174042,-0.2936680018901825,0.3027816712856293
1630498083413,0.675766110420227,0.4591586887836456,-0.342440515756607,0.3027816712856293
1630498083510,0.675766110420227,0.4582710266113281,-0.3761849999427795,0.3027816712856293
1630498083647,0.675766110420227,0.4582172930240631,-0.3927721977233886,0.3027816712856293
1630498083679,0.675766110420227,0.4559800028800964,-0.3980027735233307,0.3027816712856293
1630498083790,0.6967929601669312,0.4462331533432007,-0.3987337350845337,0.3186907172203064
1630498083883,0.7196692824363708,0.4240584969520569,-0.399501085281372,0.3357451558113098
1630498084011,0.7495455145835876,0.3895786106586456,-0.4032694697380066,0.3494420051574707
1630498084088,0.7812146544456482,0.3489514291286468,-0.4095068573951721,0.356237530708313
1630498084238,0.7812146544456482,0.3128552436828613,-0.4125449955463409,0.3576163649559021
1630498084340,0.7812146544456482,0.2888979613780975,-0.4106606245040893,0.3576163649559021
1630498084415,0.7812146544456482,0.2790541648864746,-0.403569757938385,0.3576163649559021
1630498084507,0.7812146544456482,0.2785297334194183,-0.3927486538887024,0.3576163649559021
1630498084585,0.7812146544456482,0.2805570363998413,-0.3785706162452698,0.3576163649559021
1630498084711,0.7812146544456482,0.2820721566677093,-0.3604022860527038,0.3576163649559021
1630498084836,0.7812146544456482,0.2842480540275574,-0.3396275043487549,0.3576163649559021
1630498084882,0.7812146544456482,0.2918333113193512,-0.3200627267360687,0.3576163649559021
1630498084990,0.7812146544456482,0.3042555749416351,-0.3020301163196563,0.3576163649559021
1630498085099,0.7812146544456482,0.316063642501831,-0.2854783535003662,0.3576163649559021
1630498085226,0.7812146544456482,0.325657844543457,-0.2704622447490692,0.3576163649559021
1630498085335,0.7812146544456482,0.339359700679779,-0.2557125091552734,0.3576163649559021
1630498085445,0.7812146544456482,0.3623527884483337,-0.2414459139108657,0.3576163649559021
1630498085537,0.7812146544456482,0.3903603553771972,-0.227664053440094,0.3576163649559021
1630498085620,0.7812146544456482,0.4148951172828674,-0.2139555662870407,0.3576163649559021
1630498085679,0.6722431778907776,0.4318044185638428,-0.2013791799545288,0.2603646516799927
1630498085868,0.6599257588386536,0.4427038729190826,-0.1907363533973693,0.2603646516799927
1630498085936,0.6599257588386536,0.4503487944602966,-0.1840341091156005,0.2603646516799927
1630498086104,0.6599257588386536,0.4669909179210663,-0.188996359705925,0.2603646516799927
1630498086111,0.6599257588386536,0.4589371681213379,-0.1835745126008987,0.2603646516799927
1630498086282,0.6599257588386536,0.4738999307155609,-0.1975042670965194,0.2603646516799927
1630498086338,0.6599257588386536,0.4782297611236572,-0.2044530659914016,0.2603646516799927
1630498086432,0.6599257588386536,0.4766711592674255,-0.2079024761915207,0.2603646516799927
1630498086544,0.6599257588386536,0.4695801436901092,-0.2103890627622604,0.2603646516799927
1630498086603,0.6599257588386536,0.4633801579475403,-0.212453693151474,0.2603646516799927
1630498086713,0.6599257588386536,0.4648772180080414,-0.2112134248018264,0.2603646516799927
1630498086821,0.6599257588386536,0.4725708961486816,-0.204821228981018,0.2603646516799927
1630498086901,0.6667762994766235,0.4767861664295196,-0.1962954550981521,0.2603646516799927
1630498087137,0.6667762994766235,0.4692595601081848,-0.1896861046552658,0.2603646516799927
1630498087170,0.6667762994766235,0.4692595601081848,-0.1883168220520019,0.2603646516799927
1630498087231,0.6667762994766235,0.4692595601081848,-0.193108320236206,0.2603646516799927
1630498087341,0.6667762994766235,0.4692595601081848,-0.2037635296583175,0.2603646516799927
1630498087436,0.6667762994766235,0.4692595601081848,-0.2193939536809921,0.2603646516799927
1630498087593,0.6667762994766235,0.4692595601081848,-0.2370334863662719,0.2603646516799927
1630498087657,0.6667762994766235,0.4692595601081848,-0.252625972032547,0.2603646516799927
1630498087781,0.6667762994766235,0.4692595601081848,-0.2621246874332428,0.2603646516799927
1630498087831,0.6667762994766235,0.340637743473053,-0.2621717154979706,0.2603646516799927
1630498087971,0.6667762994766235,0.332629531621933,-0.2510274648666382,0.2603646516799927
1630498088034,0.6667762994766235,0.3154591917991638,-0.2313205599784851,0.2603646516799927
1630498088099,0.6667762994766235,0.2924953103065491,-0.2103889286518097,0.2603646516799927
1630498088302,0.6667762994766235,0.2671822011470794,-0.1937404572963714,0.2603646516799927
1630498088379,0.6667762994766235,0.2457557767629623,-0.1830556541681289,0.2603646516799927
1630498088457,0.6667762994766235,0.2316656410694122,-0.1781561076641082,0.2603646516799927
1630498088550,0.6667762994766235,0.2274032682180404,-0.1783505380153656,0.2603646516799927
1630498088644,0.6667762994766235,0.2315501868724823,-0.1809844076633453,0.2603646516799927
1630498088736,0.6667762994766235,0.2392430305480957,-0.1808638870716095,0.2603646516799927
1630498088977,0.6667762994766235,0.2461258471012115,-0.1743097305297851,0.2603646516799927
1630498089040,0.941798448562622,0.2512722313404083,-0.1597605496644973,0.2603646516799927
1630498089056,0.941798448562622,0.2528367042541504,-0.1391419172286987,0.2603646516799927
1630498089199,0.941798448562622,0.2512900829315185,-0.1171619072556495,0.2603646516799927
1630498089292,0.941798448562622,0.2463645339012146,-0.1000892519950866,0.2603646516799927
1630498089386,0.941798448562622,0.2395261079072952,-0.0938839241862297,0.2603646516799927
1630498089526,0.941798448562622,0.2354530245065689,-0.0989165753126144,0.2603646516799927
1630498089573,0.941798448562622,0.2395407855510711,-0.1093281358480453,0.2603646516799927
1630498089673,0.941798448562622,0.2524596452713012,-0.1180097758769989,0.2603646516799927
1630498089766,0.941798448562622,0.2729139328002929,-0.1240754425525665,0.2603646516799927
1630498089876,0.941798448562622,0.2952047288417816,-0.1316035687923431,0.2603646516799927
1630498089969,0.941798448562622,0.3130335211753845,-0.1402622014284134,0.2603646516799927
1630498090094,0.941798448562622,0.3203454315662384,-0.1440449655055999,0.2603646516799927
1630498090206,0.941798448562622,0.3157860040664673,-0.1377966850996017,0.2603646516799927
1630498090362,0.941798448562622,0.3056123852729797,-0.1254205852746963,0.2603646516799927
1630498090393,0.941798448562622,0.2997945547103882,-0.116098940372467,0.2603646516799927
1630498090518,0.941798448562622,0.303216814994812,-0.1168572083115577,0.2603646516799927
1630498090597,0.5563079118728638,0.3136696815490722,-0.1264142543077469,0.2428866475820541
1630498090696,0.5709600448608398,0.3264146149158478,-0.1354941874742508,0.2298325300216674
1630498090805,0.5793992877006531,0.3397597968578338,-0.1362987607717514,0.223208874464035
1630498090943,0.5861562490463257,0.355675995349884,-0.1288022994995117,0.225800558924675
1630498091005,0.5966383814811707,0.3749866783618927,-0.1192464008927345,0.225800558924675
1630498091099,0.5966383814811707,0.3944514095783233,-0.1139836609363555,0.225800558924675
1630498091161,0.5966383814811707,0.4093926846981048,-0.1146109253168106,0.225800558924675
1630498091302,0.5966383814811707,0.4163722693920135,-0.1179184466600418,0.225800558924675
1630498091427,0.5966383814811707,0.4153656661510467,-0.1169366911053657,0.225800558924675
1630498091552,0.5966383814811707,0.4117712080478668,-0.1056646108627319,0.225800558924675
1630498091662,0.5966383814811707,0.4139585494995117,-0.0879265591502189,0.225800558924675
1630498091755,0.5966383814811707,0.4255510866641998,-0.0736433714628219,0.225800558924675
1630498091786,0.6032708287239075,0.440221905708313,-0.0676030293107032,0.2295148074626922
1630498091927,0.613406240940094,0.4481520056724548,-0.0635437592864036,0.2208638191223144
1630498092067,0.6238986253738403,0.4463322460651397,-0.0535412393510341,0.2062797546386718
1630498092114,0.6335397958755493,0.4390549063682556,-0.0377871878445148,0.2062797546386718
1630498092224,0.6335397958755493,0.4322434961795807,-0.0228741411119699,0.2062797546386718
1630498092364,0.6335397958755493,0.4274107217788696,-0.0131014762446284,0.2062797546386718
1630498092427,0.6335397958755493,0.4201284050941467,-0.0078308284282684,0.2062797546386718
1630498092536,0.6335397958755493,0.4050703346729278,-0.0064286096021533,0.2003812491893768
1630498092661,0.6208081841468811,0.3804045021533966,-0.0107944160699844,0.1697479337453842
1630498092739,0.6236236095428467,0.3508410155773163,-0.019226973876357,0.1483476608991623
1630498092817,0.6316903829574585,0.3236363530158996,-0.0282677598297595,0.1346372663974762
1630498092927,0.6481660008430481,0.3059117496013641,-0.0373303741216659,0.12598617374897
1630498093083,0.6641716957092285,0.3008483350276947,-0.0492198280990123,0.1194575726985931
1630498093163,0.6740102171897888,0.3052872717380523,-0.0664943680167198,0.1103398352861404
1630498093273,0.6740102171897888,0.3128276467323303,-0.0874689370393753,0.1103398352861404
1630498093351,0.6740102171897888,0.3190082609653473,-0.1077980771660804,0.1103398352861404
1630498093476,0.6740102171897888,0.3225226700305938,-0.1266492754220962,0.1103398352861404
1630498093538,0.6740102171897888,0.321649819612503,-0.1452427357435226,0.1103398352861404
1630498093648,0.6740102171897888,0.3162939548492431,-0.1649707406759262,0.1103398352861404
1630498093819,0.6740102171897888,0.3089897036552429,-0.187637522816658,0.0876114293932914
1630498093882,0.6747952699661255,0.3037473261356354,-0.214630126953125,0.0659417808055877
1630498093991,0.6827214956283569,0.3045924603939056,-0.2441431730985641,0.046714462339878
1630498094069,0.6964437365531921,0.3118764162063598,-0.2687292993068695,0.0379202514886856
1630498094197,0.7123270034790039,0.3249243199825287,-0.2783657908439636,0.0414976328611373
1630498094244,0.7297430634498596,0.3401235342025757,-0.2760824263095855,0.0462549924850463
1630498094369,0.7297430634498596,0.3522163033485412,-0.270709216594696,0.0462549924850463
1630498094494,0.7297430634498596,0.3572640419006347,-0.2675716280937195,0.0462549924850463
1630498094572,0.7297430634498596,0.3535245656967163,-0.2665818929672241,0.0462549924850463
1630498094650,0.7297430634498596,0.3407163321971893,-0.2636455297470093,0.0462549924850463
1630498094791,0.5191317796707153,0.3221795260906219,-0.2572172582149505,0.0462549924850463
1630498094916,0.5576090216636658,0.304483950138092,-0.2490393668413162,0.0462549924850463
1630498094994,0.6032630801200867,0.2948558926582336,-0.2409254312515258,0.0462549924850463
1630498095072,0.6541732549667358,0.2966862618923187,-0.2334653735160827,0.0462549924850463
1630498095197,0.6541732549667358,0.3048426806926727,-0.2241864502429962,0.0462549924850463
1630498095322,0.6541732549667358,0.3129925727844238,-0.2111886739730835,0.0462549924850463
1630498095400,0.6541732549667358,0.3189501762390136,-0.1936895549297332,0.0462549924850463
1630498095509,0.6541732549667358,0.3223975002765655,-0.1746267229318618,0.0462549924850463
1630498095619,0.6541732549667358,0.324515551328659,-0.1585553884506225,0.0462549924850463
1630498095697,0.6541732549667358,0.3246823847293854,-0.1485355496406555,0.0462549924850463
1630498095791,0.6541732549667358,0.3231252133846283,-0.1440740376710891,0.0462549924850463
1630498095884,0.6541732549667358,0.3225269317626953,-0.1439926922321319,0.0462549924850463
1630498095994,0.6742434501647949,0.3236395120620727,-0.1493603289127349,0.0462549924850463
1630498096056,0.6995694041252136,0.3257151842117309,-0.1621410399675369,0.0462549924850463
1630498096275,0.7370126247406006,0.327401340007782,-0.1824037432670593,0.0462549924850463
1630498096290,0.7370126247406006,0.3257602751255035,-0.2040878385305404,0.0462549924850463
1630498096463,0.7370126247406006,0.3186120092868805,-0.2195086926221847,0.0462549924850463
1630498096510,0.7370126247406006,0.3053961098194122,-0.2253724485635757,0.0462549924850463
1630498096619,0.7370126247406006,0.2885560095310211,-0.2251218408346176,0.0462549924850463
1630498096713,0.5796349048614502,0.2730859816074371,-0.2256306111812591,0.1432505697011947
1630498096822,0.558256983757019,0.2623185813426971,-0.2305254787206649,0.1173034161329269
1630498096932,0.5453527569770813,0.255653828382492,-0.239420935511589,0.0998281314969062
1630498097041,0.5447614192962646,0.2508592009544372,-0.2485395222902298,0.0919719561934471
1630498097119,0.5467754006385803,0.2470972239971161,-0.2499813139438629,0.0872568264603614
1630498097200,0.5490362644195557,0.2478784620761871,-0.2376769185066223,0.0824653655290603
1630498097340,0.5511249303817749,0.2555569410324096,-0.213796466588974,0.077997550368309
1630498097434,0.5555331707000732,0.268961101770401,-0.185706079006195,0.072779506444931
1630498097528,0.5609764456748962,0.2875085771083832,-0.160242423415184,0.0653023794293403
1630498097621,0.570336639881134,0.3096285760402679,-0.1408503949642181,0.0556409768760204
1630498097715,0.5805696249008179,0.3325499296188354,-0.1265671700239181,0.0424830242991447
1630498097809,0.586513876914978,0.3545317649841308,-0.1171451359987258,0.0290871299803257
1630498097887,0.5886022448539734,0.3751568794250488,-0.1116622537374496,0.0069971429184079
1630498098028,0.5871777534484863,0.3954915404319763,-0.1102548614144325,-0.0132879326120018
1630498098106,0.5886906385421753,0.4147377908229828,-0.1140228286385536,-0.0238372571766376
1630498098221,0.5927472710609436,0.4302825331687927,-0.1228884682059288,-0.0201940480619668
1630498098330,0.6029994487762451,0.440879076719284,-0.1364942342042923,-0.0063314759172499
1630498098408,0.61399245262146,0.4475811719894409,-0.1539023518562317,-0.0067897774279117
1630498098518,0.6213762164115906,0.4528595209121704,-0.1546763479709625,-0.010744784027338
1630498098627,0.6284065246582031,0.4591061174869537,-0.1602368950843811,-0.0164785720407962
1630498098768,0.6365459561347961,0.4659889936447143,-0.1757571101188659,-0.0222177747637033
1630498098830,0.6467811465263367,0.4724536538124084,-0.2039212733507156,-0.0284434556961059
1630498098924,0.656032145023346,0.4777328073978424,-0.2305201143026352,-0.0337780676782131
1630498099005,0.665323793888092,0.4805721342563629,-0.2343736886978149,-0.0346631184220314
1630498099099,0.665323793888092,0.4776877462863922,-0.2079485952854156,-0.0284289252012968
1630498099224,0.665323793888092,0.4676561653614044,-0.1595210433006286,-0.0076911989599466
1630498099349,0.665323793888092,0.4343597292900085,-0.1056027933955192,0.024842532351613
1630498099427,0.665323793888092,0.4126412868499756,-0.061182290315628,0.0619165301322937
1630498099552,0.665323793888092,0.4152836799621582,-0.0300707146525383,0.0619165301322937
1630498099646,0.665323793888092,0.4527482390403747,-0.0094211073592305,0.0619165301322937
1630498099755,0.665323793888092,0.5280118584632874,0.0050528869032859,0.0619165301322937
1630498099849,0.665323793888092,0.5996258854866028,0.0165318939834833,0.0619165301322937
1630498099958,0.665323793888092,0.6587169766426086,0.0260342713445425,0.0619165301322937
1630498100036,0.665323793888092,0.6959613561630249,0.0049971244297921,0.0619165301322937
1630498100148,0.665323793888092,0.7091327905654907,-0.0140498550608754,0.0619165301322937
1630498100242,0.665323793888092,0.7025371193885803,-0.0297956094145774,0.0619165301322937
1630498100335,0.665323793888092,0.683736264705658,-0.0415202416479587,0.0619165301322937
1630498100515,0.665323793888092,0.6606181859970093,-0.0443308539688587,-0.0379675179719924
1630498100578,0.665323793888092,0.6384203433990479,-0.051000066101551,-0.0664547383785247
1630498100669,0.665323793888092,0.6194832921028137,-0.0645592957735061,-0.0664547383785247
1630498100764,0.665323793888092,0.603255569934845,-0.0866754576563835,-0.0664547383785247
1630498100873,0.665323793888092,0.5998518466949463,-0.1157288551330566,-0.0664547383785247
1630498100972,0.665323793888092,0.5932013988494873,-0.1477391421794891,-0.0664547383785247
1630498101113,0.665323793888092,0.5819111466407776,-0.1811043173074722,-0.0664547383785247
1630498101176,0.665323793888092,0.5660119652748108,-0.2146002799272537,-0.0453036911785602
1630498101242,0.6045268774032593,0.5450357794761658,-0.2437320947647094,-0.0397184193134307
1630498101352,0.6505919098854065,0.5162038207054138,-0.2623439133167267,-0.0416042171418666
1630498101461,0.6676763296127319,0.4767875373363495,-0.2686357200145721,-0.0343375131487846
1630498101539,0.6724998950958252,0.430794894695282,-0.2663333415985107,-0.0345115512609481
1630498101680,0.6645543575286865,0.3866949379444122,-0.2598986327648163,-0.0359403416514396
1630498101805,0.6566977500915527,0.3671762645244598,-0.2541572153568268,-0.0324467234313488
1630498101867,0.643556535243988,0.3711600601673126,-0.2529131770133972,-0.0238240547478199
1630498101992,0.6321269869804382,0.3845822513103485,-0.2572978734970093,-0.0089172460138797
1630498102055,0.6238952875137329,0.3931674361228943,-0.2602482736110687,0.0081907492130994
1630498102180,0.6184238195419312,0.3913816511631012,-0.2511667013168335,0.0081907492130994
1630498102307,0.6179301738739014,0.3830242753028869,-0.2309609204530716,0.0081907492130994
1630498102385,0.6198832988739014,0.3764567077159881,-0.2106150686740875,0.0081907492130994
1630498102526,0.6198832988739014,0.3784256875514984,-0.1962849646806717,0.0081907492130994
1630498102588,0.6278837323188782,0.387520432472229,-0.1842955350875854,0.0081907492130994
1630498102760,0.6286546587944031,0.3936610817909241,-0.1654546409845352,0.0030444043222814
1630498102776,0.6210021376609802,0.3849654495716095,-0.1379294693470001,-0.0058056395500898
1630498102932,0.6069648861885071,0.3575859069824219,-0.1082865670323371,-0.0127416355535388
1630498103026,0.5908674597740173,0.3192496299743652,-0.0831169709563255,-0.0167747680097818
1630498103119,0.5757637619972229,0.2820435464382171,-0.0662865713238716,-0.0121620446443557
1630498103213,0.5567885041236877,0.2680559158325195,-0.0582409426569938,-0.0121620446443557
1630498103307,0.5460478663444519,0.2408093810081482,-0.0557146146893501,-0.0121620446443557
1630498103448,0.5501235723495483,0.2113915681838989,-0.0543431863188743,-0.0121620446443557
1630498103541,0.5529358983039856,0.1867604553699493,-0.0522174052894115,-0.0121620446443557
1630498103619,0.5522308349609375,0.1776830554008484,-0.0525352470576763,-0.0121620446443557
1630498103713,0.5430655479431152,0.183163046836853,-0.0600597970187664,-0.0121620446443557
1630498103822,0.5298276543617249,0.1927188336849212,-0.0733166858553886,-0.0121620446443557
1630498103885,0.5198401212692261,0.1970740258693695,-0.0846142992377281,-0.0121620446443557
1630498103994,0.5355210304260254,0.1952701956033706,-0.087560698390007,-0.0121620446443557
1630498104166,0.5529066324234009,0.1921120733022689,-0.0802978575229644,-0.0121620446443557
1630498104229,0.5618108510971069,0.1928290724754333,-0.0670246332883834,-0.0121620446443557
1630498104385,0.5618108510971069,0.2037680894136428,-0.0508800335228443,-0.0121620446443557
1630498104416,0.5618108510971069,0.2250702083110809,-0.0334946662187576,-0.0121620446443557
1630498104557,0.5618108510971069,0.2493546158075332,-0.0157983712852001,-0.0121620446443557
1630498104588,0.5618108510971069,0.269048660993576,0.0013042473001405,-0.0121620446443557
1630498104760,0.5715430974960327,0.2814699411392212,0.0169059894979,-0.0121620446443557
1630498104853,0.5658631920814514,0.2885806858539581,0.0288877468556165,-0.0121620446443557
1630498104932,0.5572465062141418,0.2936685979366302,0.0355058945715427,-0.0121620446443557
1630498105057,0.547982931137085,0.2994220554828644,0.0365884639322757,-0.0121620446443557
1630498105119,0.5418750047683716,0.3116670846939087,0.0328615009784698,-0.0121620446443557
1630498105197,0.5488013625144958,0.3360521495342254,0.0273846518248319,-0.0121620446443557
1630498105387,0.5531485080718994,0.3675027787685394,0.0233274456113576,-0.0121620446443557
1630498105434,0.5493004322052002,0.3945724964141845,0.0215624030679464,-0.0121620446443557
1630498105543,0.531299352645874,0.4081794619560241,0.021678689867258,-0.0121620446443557
1630498105621,0.4929864406585693,0.4072367548942566,0.0217432957142591,-0.0121620446443557
1630498105730,0.446080207824707,0.3966456353664398,0.0199640914797782,-0.0121620446443557
1630498105840,0.446080207824707,0.3811428248882293,0.0138552580028772,-0.0121620446443557
1630498105965,0.446080207824707,0.3664705753326416,0.0033770240843296,-0.0121620446443557
1630498106074,0.446080207824707,0.358744353055954,-0.0091942204162478,-0.0121620446443557
1630498106152,0.446080207824707,0.3608653843402862,-0.0199599619954824,-0.0121620446443557
1630498106262,0.446080207824707,0.3681420087814331,-0.0258551426231861,-0.0121620446443557
1630498106340,0.446080207824707,0.3739431202411651,-0.0263463146984577,-0.0121620446443557
1630498106449,0.446080207824707,0.3741673827171325,-0.0217557549476623,-0.0121620446443557
1630498106599,0.446080207824707,0.3674413561820984,-0.0124571416527032,-0.0121620446443557
1630498106662,0.446080207824707,0.352060467004776,-2.482021773175802e-05,-0.0121620446443557
1630498106771,0.7579887509346008,0.3259867131710052,0.0135736716911196,0.3060883581638336
1630498106865,0.7266426682472229,0.2930498719215393,0.0249204710125923,0.3173133432865143
1630498106959,0.6905637979507446,0.2633078396320343,0.0322691202163696,0.3292035162448883
1630498107053,0.6565854549407959,0.2472681254148483,0.0360281132161617,0.3417470455169678
1630498107180,0.6312623023986816,0.2478311210870742,0.0367944315075874,0.3506633639335632
1630498107320,0.6161379218101501,0.2588111162185669,0.0345318205654621,0.3506633639335632
1630498107352,0.6161379218101501,0.2727023363113403,0.0281943753361701,0.3506633639335632
1630498107461,0.6161379218101501,0.2837320864200592,0.0175224505364894,0.3506633639335632
1630498107555,0.6161379218101501,0.2898563742637634,0.0046745617873966,0.3506633639335632
1630498107649,0.6161379218101501,0.2926653027534485,-0.006648342590779,0.3506633639335632
1630498107805,0.6161379218101501,0.2966648936271667,-0.0150248911231756,0.3506633639335632
1630498107898,0.6161379218101501,0.3033621609210968,-0.0214230380952358,0.3506633639335632
1630498108008,0.596284031867981,0.3112757503986358,-0.028790732845664,0.3651646971702575
1630498108086,0.5588549971580505,0.3175186514854431,-0.0403763577342033,0.375335544347763
1630498108180,0.5063642263412476,0.3195767998695373,-0.0562109425663948,0.3824687302112579
1630498108273,0.455601155757904,0.3171189129352569,-0.0758411288261413,0.3910861313343048
1630498108430,0.420833021402359,0.3113312423229217,-0.0972968637943267,0.3910861313343048
1630498108476,0.476809024810791,0.3063501417636871,-0.1183563321828842,0.3910861313343048
1630498108586,0.5628190636634827,0.3056406378746032,-0.1394237428903579,0.3910861313343048
1630498108664,0.6077753901481628,0.3090622425079345,-0.1622028201818466,0.3910861313343048
1630498108804,0.6130732297897339,0.3166195750236511,-0.1862359046936035,0.3910861313343048
1630498108851,0.5821952819824219,0.3267998099327087,-0.205344557762146,0.2530944347381592
1630498109023,0.5551192164421082,0.3363025486469269,-0.2119316458702087,0.2540294826030731
1630498109102,0.5461686253547668,0.3417485058307647,-0.2071189880371093,0.2406759858131408
1630498109198,0.5461686253547668,0.3399315774440765,-0.2007026374340057,0.2406759858131408
1630498109276,0.5461686253547668,0.330413281917572,-0.1998844891786575,0.2406759858131408
1630498109416,0.5461686253547668,0.3242388069629669,-0.2034937739372253,0.2406759858131408
1630498109557,0.5461686253547668,0.3228333592414856,-0.2035087198019027,0.2406759858131408
1630498109635,0.5461686253547668,0.3279439508914947,-0.194074347615242,0.2406759858131408
1630498109713,0.5461686253547668,0.3376416563987732,-0.1762727499008178,0.2406759858131408
1630498109791,0.5461686253547668,0.3503683805465698,-0.1580826640129089,0.2406759858131408
1630498109932,0.5461686253547668,0.3673947751522064,-0.1438262462615966,0.2406759858131408
1630498109994,0.5312359929084778,0.3875880539417267,-0.1329260766506195,0.2406759858131408
1630498110119,0.4897215962409973,0.4062319099903106,-0.1217462867498397,0.2496024370193481
1630498110307,0.453594297170639,0.4176625907421112,-0.1080441102385521,0.2536033391952514
1630498110338,0.453594297170639,0.415929764509201,-0.0946784242987632,0.2536033391952514
1630498110416,0.453594297170639,0.3988157510757446,-0.0845026150345802,0.2536033391952514
1630498110510,0.453594297170639,0.3988157510757446,-0.07954803109169,0.2536033391952514
1630498110650,0.453594297170639,0.3988157510757446,-0.0774630680680275,0.2536033391952514
1630498110729,0.453594297170639,0.3988157510757446,-0.0738504007458686,0.2536033391952514
1630498110838,0.453594297170639,0.3988157510757446,-0.0655270963907241,0.2536033391952514
1630498110932,0.453594297170639,0.3871777057647705,-0.0536186695098876,0.2536033391952514
1630498111072,0.453594297170639,0.3740301132202148,-0.0430939085781574,-0.013451587408781
1630498111166,0.6472806334495544,0.3609256148338318,-0.0366187468171119,0.0166591331362724
1630498111228,0.6141030788421631,0.3473610877990722,-0.0347388498485088,0.0478086732327938
1630498111322,0.5961431860923767,0.3373799324035644,-0.0348896086215972,0.0669157207012176
1630498111447,0.5959848165512085,0.3341494500637054,-0.0363585986196994,0.0669157207012176
1630498111541,0.601447343826294,0.3373687863349914,-0.0389947406947612,0.0669157207012176
1630498111635,0.6092759370803833,0.3440480828285217,-0.0423785150051116,0.0669157207012176
1630498111744,0.6117802858352661,0.3497463762760162,-0.0458502247929573,0.0669157207012176
1630498111791,0.6092341542243958,0.3514841496944427,-0.0488913655281066,0.0669157207012176
1630498111963,0.6092341542243958,0.3471609652042389,-0.0537931881844997,0.0669157207012176
1630498112103,0.6092341542243958,0.3395099937915802,-0.0617780648171901,0.0669157207012176
1630498112197,0.6092341542243958,0.3286076188087463,-0.0729998499155044,0.0669157207012176
1630498112228,0.6092341542243958,0.3189898133277893,-0.0872916430234909,0.0710572451353073
1630498112369,0.6033526062965393,0.3177708685398102,-0.105727806687355,0.0904777944087982
