timestamp,TP9,AF7,AF8,TP10
1630497978095,0.6629979610443115,0.5017568469047546,0.3416319489479065,0.5563406348228455
1630497978161,0.6629979610443115,0.5197446346282959,0.3416319489479065,0.5563406348228455
1630497978259,0.6629979610443115,0.5498012900352478,0.3416319489479065,0.5563406348228455
1630497978340,0.6629979610443115,0.5681803226470947,0.3416319489479065,0.5563406348228455
1630497978435,0.6629979610443115,0.5630712509155273,0.3449539542198181,0.5563406348228455
1630497978557,0.6629979610443115,0.5617526173591614,0.3480140268802643,0.5563406348228455
1630497978675,0.6629979610443115,0.5240002870559692,0.3431929647922516,0.5563406348228455
1630497978761,0.6629979610443115,0.4724940061569214,0.2774289548397064,0.5563406348228455
1630497978873,0.6629979610443115,0.4216688871383667,0.1798907071352005,0.5563406348228455
1630497978972,0.6629979610443115,0.448354572057724,0.1410548388957977,0.5563406348228455
1630497979059,0.6629979610443115,0.4838165938854217,0.1284409910440445,0.5563406348228455
1630497979182,0.6629979610443115,0.4973761737346649,0.1359760463237762,0.5563406348228455
1630497979298,0.6629979610443115,0.4973761737346649,0.1603011935949325,0.5563406348228455
1630497979414,0.6629979610443115,0.4973761737346649,0.230023592710495,0.5563406348228455
1630497979478,0.6629979610443115,0.4973761737346649,0.2571534812450409,0.5563406348228455
1630497979589,0.6629979610443115,0.4973761737346649,0.2659967243671417,0.5563406348228455
1630497979661,0.6629979610443115,0.4973761737346649,0.2659967243671417,0.5563406348228455
1630497979790,0.6629979610443115,0.4952977299690246,0.2594050765037536,0.5563406348228455
1630497979892,0.6629979610443115,0.4594083726406097,0.2222094982862472,0.5563406348228455
1630497979989,0.6629979610443115,0.4080236852169037,0.2080665081739425,0.5563406348228455
1630497980094,0.6629979610443115,0.4059995412826538,0.2102121412754058,0.5563406348228455
1630497980174,0.6629979610443115,0.4055867791175842,0.2028586268424987,0.5563406348228455
1630497980287,0.6629979610443115,0.4051645398139953,0.2127130180597305,0.5563406348228455
1630497980411,0.6629979610443115,0.4051645398139953,0.2179479897022247,0.5563406348228455
1630497980528,0.6629979610443115,0.3977160155773163,0.2276796251535415,0.5563406348228455
1630497980585,0.6629979610443115,0.3920224010944366,0.2311152815818786,0.5563406348228455
1630497980682,0.6629979610443115,0.3623737394809723,0.2409066408872604,0.5563406348228455
1630497980797,0.6629979610443115,0.3270844221115112,0.2647688686847687,0.5563406348228455
1630497980915,0.6629979610443115,0.3270844221115112,0.2788611352443695,0.5563406348228455
1630497981023,0.6629979610443115,0.3270844221115112,0.2642082571983337,0.5563406348228455
1630497981117,0.6629979610443115,0.3270844221115112,0.2672347724437713,0.5563406348228455
1630497981196,0.6629979610443115,0.3270844221115112,0.2824282050132751,0.5563406348228455
1630497981289,0.6629979610443115,0.3233445882797241,0.2860273122787475,0.5563406348228455
1630497981426,0.6629979610443115,0.3233445882797241,0.2939363718032837,0.5563406348228455
1630497981489,0.6629979610443115,0.3233445882797241,0.2946451902389526,0.5563406348228455
1630497981638,0.6629979610443115,0.3233445882797241,0.3009760975837707,0.5563406348228455
1630497981716,0.6629979610443115,0.3233445882797241,0.2946543395519256,0.5563406348228455
1630497981822,0.6629979610443115,-0.3208569288253784,0.2932859361171722,0.5563406348228455
1630497981932,0.6629979610443115,-0.3155273199081421,0.2908119261264801,0.5563406348228455
1630497982010,0.6629979610443115,-0.3155273199081421,0.2876655161380768,0.565037190914154
1630497982126,0.6629979610443115,-0.3155273199081421,0.2756186723709106,0.5895479917526245
1630497982243,0.6629979610443115,-0.3020529150962829,0.3031801879405975,0.6202417612075806
1630497982338,0.6629979610443115,-0.2160108834505081,0.3444266319274902,0.6202417612075806
1630497982419,0.6629979610443115,-0.106678768992424,0.3979943394660949,0.6202417612075806
1630497982525,0.6629979610443115,-0.0024181616026908,0.4703771471977234,0.6202417612075806
1630497982623,0.6629979610443115,0.0749304443597793,0.5017571449279785,0.6202417612075806
1630497982724,0.6629979610443115,0.1425812244415283,0.5002224445343018,0.6202417612075806
1630497982876,0.6629979610443115,0.2306943237781524,0.5013867616653442,0.6202417612075806
1630497982935,0.6629979610443115,0.293935626745224,0.5020808577537537,0.6202417612075806
1630497983059,0.6629979610443115,0.3222449123859405,0.5053192973136902,0.6202417612075806
1630497983175,0.6629979610443115,0.3277614116668701,0.5174168348312378,0.6202417612075806
1630497983271,0.6629979610443115,0.3377903699874878,0.5107889771461487,0.5846081972122192
1630497983319,0.6629979610443115,0.378424197435379,0.4958266913890838,0.576537549495697
1630497983443,0.6629979610443115,0.3968968093395233,0.4856094419956207,0.576537549495697
1630497983541,0.6629979610443115,0.3968968093395233,0.4840025305747986,0.576537549495697
1630497983642,0.6629979610443115,0.3968968093395233,0.4840025305747986,0.576537549495697
1630497983743,0.6629979610443115,0.3968968093395233,0.4840025305747986,0.576537549495697
1630497983839,0.6629979610443115,0.3968968093395233,0.4840025305747986,0.576537549495697
1630497983936,0.6629979610443115,0.3959311544895172,0.4840025305747986,0.576537549495697
1630497984073,0.6629979610443115,0.382704496383667,0.4809364080429077,0.576537549495697
1630497984226,0.6629979610443115,0.371486634016037,0.46424201130867,0.576537549495697
1630497984261,0.6629979610443115,0.3630637526512146,0.4264247119426727,0.576537549495697
1630497984357,0.6629979610443115,0.3647923171520233,0.3699742555618286,0.576537549495697
1630497984441,0.6629979610443115,0.3685515522956848,0.2791325151920318,0.576537549495697
1630497984522,0.6629979610443115,0.3591214716434479,0.1607067734003067,0.576537549495697
1630497984691,0.6629979610443115,0.3224439918994903,0.0819477513432502,0.576537549495697
1630497984809,0.6629979610443115,0.2796150147914886,0.034110352396965,0.576537549495697
1630497984871,0.6629979610443115,0.2590640485286712,-0.0082857869565486,0.576537549495697
1630497984999,0.6629979610443115,0.1861562132835388,-0.0414181500673294,0.576537549495697
1630497985046,0.6629979610443115,0.0997064337134361,-0.0452332608401775,0.576537549495697
1630497985177,1.392986536026001,0.0809054598212242,-0.0498154573142528,0.4611732959747314
1630497985308,1.3944096565246582,0.0544189289212226,-0.0538751818239688,0.4611732959747314
1630497985359,1.394594430923462,0.0371153876185417,-0.0278897061944007,0.4719631969928741
1630497985475,1.394594430923462,0.0531300604343414,0.0320000573992729,0.4917263090610504
1630497985626,1.394594430923462,0.109026700258255,0.0391581170260906,0.5057994723320007
1630497985671,1.3956058025360107,0.16032774746418,0.0391581170260906,0.5149070024490356
1630497985765,1.3956058025360107,0.2307426035404205,0.0400265157222747,0.5440494418144226
1630497985943,1.3956058025360107,0.2948412597179413,0.0432079583406448,0.5803495645523071
1630497986002,1.3956058025360107,0.3125308156013489,0.0880818217992782,0.5825223922729492
1630497986096,1.3956058025360107,0.3130539953708648,0.1550209820270538,0.5825223922729492
1630497986221,1.3956058025360107,0.3130539953708648,0.1914435923099517,0.5941656827926636
1630497986303,1.3956058025360107,0.3184771835803985,0.1851492375135421,0.6030612587928772
1630497986395,1.3956058025360107,0.3248064517974853,0.1708491593599319,0.574596107006073
1630497986542,1.3939958810806274,0.3266012370586395,0.1708491593599319,0.5137796401977539
1630497986612,1.379416823387146,0.3270756602287292,0.1708491593599319,0.4706112146377563
1630497986725,1.3194477558135986,0.3270756602287292,0.1708491593599319,0.442669540643692
1630497986787,1.2790168523788452,0.3270756602287292,0.1929476261138916,0.4446299970149994
1630497986896,1.2738858461380005,0.3278637528419494,0.2154338210821151,0.4463697969913482
1630497986977,1.2686315774917605,0.3443217277526855,0.2157317250967025,0.4471985101699829
1630497987125,1.2686315774917605,0.3576146364212036,0.1762048304080963,0.4471985101699829
1630497987226,1.2686315774917605,0.3653843700885772,0.1454760879278183,0.4473133683204651
1630497987327,1.2686315774917605,0.3703581392765045,0.1418998837471008,0.4589177966117859
1630497987412,1.2686315774917605,0.3417644798755646,0.1418998837471008,0.5286428332328796
1630497987529,1.2686315774917605,0.2636567950248718,0.1418998837471008,0.5824126601219177
1630497987599,1.2686315774917605,0.1908797770738601,0.1418998837471008,0.6004834771156311
1630497987768,1.2686315774917605,0.166422426700592,0.1318836212158203,0.6122992038726807
1630497987860,1.2686315774917605,0.1832569241523742,0.0819288343191146,0.6104335188865662
1630497987958,1.2686315774917605,0.2331655174493789,0.0638410896062851,0.628505289554596
1630497988041,1.2686315774917605,0.2676668167114258,0.084628976881504,0.6473245024681091
1630497988207,1.2686315774917605,0.2674110233783722,0.0691960752010345,0.6590495109558105
1630497988340,1.2686315774917605,0.2610909342765808,0.0691960752010345,0.6590495109558105
1630497988425,1.2686315774917605,0.2628877758979797,0.0617951638996601,0.6590495109558105
1630497988602,1.2686315774917605,0.2654954493045807,0.0114663820713758,0.6590495109558105
1630497988610,1.2686315774917605,0.2661214470863342,-0.0191940404474735,0.6590495109558105
1630497988695,1.2686315774917605,0.2612748742103576,0.0107607543468475,0.6590495109558105
1630497988800,1.2686315774917605,0.2475036978721618,0.0722721815109252,0.6590495109558105
1630497988978,1.2686315774917605,0.213753268122673,0.1188465505838394,0.6590495109558105
1630497989043,1.2686315774917605,0.1674434095621109,0.126212939620018,0.6379542350769043
1630497989143,1.2686315774917605,0.119287721812725,0.1235213726758956,0.5392823815345764
1630497989226,1.2686315774917605,0.0985486507415771,0.1235213726758956,0.4582753479480743
1630497989338,1.2686315774917605,0.1186195611953735,0.1235213726758956,0.4432389438152313
1630497989449,1.2686315774917605,0.1378652602434158,0.1235213726758956,0.4266681671142578
1630497989584,1.2686315774917605,0.1079229190945625,0.1190786883234977,0.4144152104854584
1630497989650,1.2686315774917605,0.0226737074553966,0.0765628889203071,0.4007888436317444
1630497989773,1.2686315774917605,-0.010640824213624,0.0200087670236825,0.4058713912963867
1630497989857,1.2686315774917605,0.0121765667572617,0.0417372398078441,0.4272846281528473
1630497989972,1.2686315774917605,0.0317204296588897,0.0429061502218246,0.436942845582962
1630497990034,1.2686315774917605,0.0309108141809701,0.0417969487607479,0.4206010699272156
1630497990194,1.2686315774917605,0.0369939096271991,0.0404990389943122,0.4186165928840637
1630497990285,1.2686315774917605,0.0354577973484993,0.0322982370853424,0.4259832799434662
1630497990404,1.2686315774917605,0.0451397895812988,0.0224866066128015,0.4325907230377197
1630497990451,1.2686315774917605,0.0530871041119098,0.0270171612501144,0.4477505683898926
1630497990529,1.2686315774917605,0.0591000393033027,0.0573499798774719,0.4513781666755676
1630497990639,1.2686315774917605,0.059167630970478,0.0804814770817756,0.464492529630661
1630497990795,1.2686315774917605,0.0634582415223121,0.0878447368741035,0.5113332271575928
1630497990857,1.2721954584121704,0.0871884897351265,0.0908722504973411,0.5544236302375793
1630497990982,1.2721954584121704,0.0992019474506378,0.1001542285084724,0.5860503911972046
1630497991061,1.2721954584121704,0.0679992064833641,0.1196993216872215,0.5932892560958862
1630497991232,1.2945635318756104,0.0292538218200206,0.178768903017044,0.5932892560958862
1630497991232,1.276248812675476,0.0422982834279537,0.1425398588180542,0.5932892560958862
1630497991407,1.3458245992660522,0.0336857959628105,0.2153974026441574,0.5932892560958862
1630497991485,1.376009464263916,0.043160893023014,0.2046981453895568,0.5932892560958862
1630497991610,1.4002918004989624,0.0544381253421306,0.1893327683210373,0.5969191193580627
1630497991688,1.4104104042053225,0.0586170330643653,0.1872118562459945,0.5987823605537415
1630497991750,1.410702347755432,0.0680238902568817,0.1861099302768707,0.601745069026947
1630497991985,1.4121065139770508,0.0671321153640747,0.185188427567482,0.601745069026947
1630497992063,1.4178292751312256,0.0583258680999279,0.1828336864709854,0.6055033802986145
1630497992094,1.4190629720687866,0.0503416955471038,0.1767843663692474,0.615606427192688
1630497992172,1.422537922859192,0.0503416955471038,0.1685676574707031,0.6227259635925293
1630497992266,1.433497667312622,0.0478023365139961,0.1819771826267242,0.6212353110313416
1630497992375,1.4720286130905151,0.0455170422792434,0.2011404186487198,0.6262561082839966
1630497992484,1.5042732954025269,0.0750662162899971,0.2130870521068573,0.6346799731254578
1630497992609,1.5417730808258057,0.0993289425969123,0.2163054645061493,0.6178174018859863
1630497992703,1.555796504020691,0.127405047416687,0.2163054645061493,0.6047491431236267
1630497992797,1.555796504020691,0.1134666055440902,0.2031095623970031,0.6006492376327515
1630497992891,1.555796504020691,0.0849936082959175,0.164401963353157,0.6006492376327515
1630497993000,1.555796504020691,0.0833331644535064,0.0984406024217605,0.6006492376327515
1630497993078,1.555796504020691,0.0860265344381332,0.0523654222488403,0.6006492376327515
1630497993209,1.5519473552703855,0.0856901928782463,0.0315679982304573,0.6139968037605286
1630497993302,1.5363647937774658,0.0813337489962577,0.0226443968713283,0.6038891673088074
1630497993412,1.5226713418960571,0.0782397463917732,0.0165211670100688,0.5923235416412354
1630497993505,1.5208678245544434,0.0685773640871048,-0.0023324086796492,0.5859545469284058
1630497993615,1.5208678245544434,0.069819226861,0.0371869690716266,0.5576339960098267
1630497993724,1.519937515258789,0.1087114885449409,0.1123677715659141,0.4888557493686676
1630497993849,1.5096131563186646,0.1737583726644516,0.1164473295211792,0.4523338377475738
1630497993990,1.5030252933502195,0.2054384499788284,0.1061025187373161,0.4556137025356293
1630497994052,1.4624931812286377,0.2080569267272949,0.0881845653057098,0.4593164026737213
1630497994068,1.425902009010315,0.176342561841011,0.0792481079697609,0.4632569849491119
1630497994196,1.3897329568862915,0.1485837548971176,0.0748866274952888,0.4731665253639221
1630497994305,1.3886698484420776,0.1446763277053833,0.0744170323014259,0.4731665253639221
1630497994415,1.3886698484420776,0.1503257900476455,0.0882685407996177,0.4729706943035126
1630497994524,1.3886698484420776,0.1594652384519577,0.1058771386742591,0.4569927453994751
1630497994696,1.3959888219833374,0.1696700602769851,0.1113043576478958,0.4614636301994324
1630497994712,1.4355134963989258,0.1635571718215942,0.1130526438355445,0.5038104057312012
1630497994821,1.45281183719635,0.1641949117183685,0.1104514077305793,0.642694354057312
1630497994915,1.454190015792847,0.1680675446987152,0.0992738902568817,0.7331427335739136
1630497995040,1.4531188011169434,0.1720611304044723,0.1120378822088241,0.7502748370170593
1630497995150,1.436981439590454,0.1745431125164032,0.1213050708174705,0.7502748370170593
1630497995255,1.4438529014587402,0.1717319339513778,0.1112455129623413,0.7494262456893921
1630497995380,1.4840954542160034,0.1378128379583358,0.0434776060283184,0.7494262456893921
1630497995458,1.522780179977417,0.095040924847126,0.0096049215644598,0.7494262456893921
1630497995489,1.5479447841644287,0.0589069873094558,0.0388421192765235,0.7516236901283264
1630497995664,1.5533367395401,0.0222787465900182,0.054199282079935,0.7452594637870789
1630497995749,1.5537112951278689,0.0039323419332504,0.0610510818660259,0.7397216558456421
1630497995843,1.5537112951278689,0.019586382433772,0.0910037085413932,0.7396410703659058
1630497995968,1.5537112951278689,0.0317261479794979,0.1315860003232956,0.752803385257721
1630497996030,1.5537112951278689,0.0317261479794979,0.1446225941181183,0.7697452306747437
1630497996128,1.5537112951278689,0.0317261479794979,0.1299984455108642,0.7801761031150818
1630497996238,1.549222707748413,0.0317261479794979,0.1606805324554443,0.7893155813217163
1630497996347,1.5523258447647097,0.0437085479497909,0.2087000161409378,0.7825300693511963
1630497996457,1.6344046592712402,0.0766497477889061,0.2665005028247833,0.746081531047821
1630497996535,1.7827101945877075,0.1315519660711288,0.3155168294906616,0.6995464563369751
1630497996707,1.814070463180542,0.1561576575040817,0.339615911245346,0.6716691255569458
1630497996738,1.816931128501892,0.1575518697500229,0.339615911245346,0.6576812267303467
1630497996863,1.821743726730347,0.1512538939714431,0.339615911245346,0.6571359634399414
1630497996972,1.821743726730347,0.140017881989479,0.339615911245346,0.6692041158676147
1630497997113,1.821743726730347,0.1298202723264694,0.339615911245346,0.6656442880630493
1630497997161,1.821743726730347,0.1270556896924972,0.3321529030799866,0.6719740033149719
1630497997271,1.821743726730347,0.1256244778633117,0.3222929239273071,0.6724927425384521
1630497997349,1.821743726730347,0.1144586652517318,0.3218545019626617,0.6760815382003784
1630497997475,1.821743726730347,0.1054184809327125,0.3277182877063751,0.6760815382003784
1630497997584,1.821743726730347,0.1044704988598823,0.3241427540779114,0.6407739520072937
1630497997771,1.821743726730347,0.1240356341004371,0.3084077835083008,0.5922261476516724
1630497997771,1.821743726730347,0.1192498579621315,0.285612016916275,0.5584282279014587
1630497997881,1.821743726730347,0.1424029916524887,0.3005267083644867,0.5215509533882141
1630497997990,1.821743726730347,0.1854048371315002,0.315030962228775,0.4904071986675262
1630497998084,1.814335942268372,0.1894185245037078,0.315197080373764,0.5162801742553711
1630497998212,1.7086710929870603,0.1894185245037078,0.282737672328949,0.5167674422264099
1630497998322,1.5260565280914309,0.1894185245037078,0.221187338232994,0.5167674422264099
1630497998480,1.3487589359283447,0.1894185245037078,0.1743236482143402,0.5167674422264099
1630497998510,1.2465269565582275,0.1923746168613433,0.1713352799415588,0.5060575604438782
1630497998587,1.1535743474960327,0.1986668854951858,0.1664183288812637,0.4778413474559784
1630497998711,1.0969456434249878,0.1986668854951858,0.1535573452711105,0.4761039316654205
1630497998791,1.04982590675354,0.1986668854951858,0.1462761908769607,0.4761039316654205
1630497998915,1.04982590675354,0.1990960240364074,0.1737550050020218,0.4693743884563446
1630497998994,1.04982590675354,0.2036741971969604,0.2052697986364364,0.4570998847484588
1630497999168,1.04982590675354,0.2321613132953643,0.2056962698698043,0.3752906322479248
1630497999170,1.04982590675354,0.2200173586606979,0.2174207866191864,0.4312738180160522
1630497999309,1.04982590675354,0.2226245552301406,0.1968463361263275,0.3365283012390136
1630497999400,1.356317162513733,0.2210014760494232,0.1905302256345749,0.3307595551013946
1630497999510,1.3723493814468384,0.1921590119600296,0.1526924669742584,0.3142833113670349
1630497999635,1.3726513385772705,0.1083657294511795,0.0786110460758209,0.3005258440971374
1630497999715,1.3726513385772705,0.0636606812477111,0.0310267582535743,0.2261341363191604
1630497999793,1.3726513385772705,0.0690190717577934,0.0019122543744742,0.0639611706137657
1630497999933,1.3726513385772705,0.0851834788918495,-0.0130734974518418,0.076933167874813
1630498000013,1.3792377710342407,0.0884855985641479,-0.0049076559953391,0.1910580843687057
1630498000107,1.3816266059875488,0.0884855985641479,-0.0030155139975249,0.3479059040546417
1630498000200,1.3857239484786987,0.0997411161661148,-0.0030155139975249,0.4272400736808777
1630498000291,1.389495849609375,0.0992292910814285,-0.0030155139975249,0.4366140365600586
1630498000401,1.4080885648727417,0.073109820485115,-0.0030155139975249,0.4468513429164886
1630498000525,1.417191505432129,0.064606562256813,-0.0030155139975249,0.4515756964683532
1630498000620,1.417191505432129,0.0559832341969013,-0.0170663837343454,0.4515756964683532
1630498000780,1.417191505432129,0.0274054855108261,-0.0532767735421657,0.4515756964683532
1630498000826,1.4163419008255005,0.0074765738099813,-0.0756622850894928,0.4515756964683532
1630498000958,1.4178794622421265,0.0273056142032146,-0.0756622850894928,0.4443517923355102
1630498001094,1.4119961261749268,0.0764331370592117,-0.0756622850894928,0.4232066869735718
1630498001156,1.405781865119934,0.0921387299895286,-0.0768880993127822,0.4184402823448181
1630498001219,1.4049499034881592,0.0921387299895286,-0.0833073407411575,0.4184402823448181
1630498001345,1.4049499034881592,0.0921387299895286,-0.1233899295330047,0.4184402823448181
1630498001455,1.4049499034881592,0.0717562213540077,-0.1928545087575912,0.4318950176239013
1630498001517,1.4049499034881592,0.0384279862046241,-0.2644354999065399,0.4563634991645813
1630498001578,1.4046086072921753,0.0368478558957576,-0.3490836322307586,0.4563634991645813
1630498001766,1.4084467887878418,0.0401160381734371,-0.3254975974559784,0.4570403397083282
1630498001877,1.4105974435806274,0.0442670583724975,-0.2496398389339447,0.4448679387569427
1630498001939,1.4153437614440918,0.0652313902974128,-0.2125443667173385,0.4421608746051788
1630498002002,1.4945061206817627,0.0767357945442199,-0.1970068961381912,0.4517862796783447
1630498002127,1.5568419694900513,0.0981513261795044,-0.1556897312402725,0.4852165579795837
1630498002206,1.6046713590621948,0.134966179728508,-0.1095955371856689,0.5094015598297119
1630498002351,1.658153414726257,0.148672729730606,-0.0383014716207981,0.5207383632659912
1630498002492,1.67955219745636,0.1999296993017196,0.0389504171907901,0.5364639163017273
1630498002551,1.6736009120941162,0.2528653740882873,0.0692917332053184,0.5543481111526489
1630498002675,1.6581772565841677,0.2620424628257751,0.0815827175974845,0.5543481111526489
1630498002751,1.638712763786316,0.244423359632492,0.0815827175974845,0.5543481111526489
1630498002813,1.638712763786316,0.2233799248933792,0.0927473679184913,0.5543481111526489
1630498002988,1.638712763786316,0.2174457013607025,0.1120472475886344,0.5472334623336792
1630498003083,1.638712763786316,0.2174457013607025,0.1249828189611435,0.5396237373352051
1630498003192,1.638712763786316,0.2174457013607025,0.1260996460914611,0.5182948708534241
1630498003256,1.638712763786316,0.2174457013607025,0.1248898580670356,0.4767188131809234
1630498003350,1.638712763786316,0.2174457013607025,0.1237611398100853,0.4204337894916534
1630498003445,1.6379010677337646,0.2174457013607025,0.1237611398100853,0.4054043292999267
1630498003554,1.6379010677337646,0.2143609821796417,0.1237611398100853,0.4054043292999267
1630498003680,1.6131446361541748,0.2143609821796417,0.1237611398100853,0.4283190369606018
1630498003773,1.5475847721099854,0.2143609821796417,0.1237611398100853,0.4785285890102386
1630498003835,1.4653704166412354,0.2063796520233154,0.1237611398100853,0.4884537160396576
1630498003961,1.4242124557495115,0.2063796520233154,0.1145209521055221,0.4861030876636505
1630498004118,1.3522003889083862,0.1824149638414383,0.0515418164432048,0.4819262623786926
1630498004179,1.28151273727417,0.0835515707731247,-0.054025612771511,0.4800296723842621
1630498004272,1.243319749832153,0.0319106578826904,-0.1039811372756958,0.4800296723842621
1630498004350,1.2347100973129272,-0.0014783495571464,-0.108731172978878,0.4800296723842621
1630498004511,1.2311512231826782,-0.0196371544152498,-0.108731172978878,0.4800296723842621
1630498004619,1.227716088294983,-0.0207374934107065,-0.126827210187912,0.4763591885566711
1630498004680,1.25509512424469,-0.0197308417409658,-0.1996514648199081,0.4648482799530029
1630498004808,1.26434588432312,-0.0131776696071028,-0.3014717698097229,0.4449078440666199
1630498004933,1.2779911756515503,-0.0050965417176485,-0.2365141361951828,0.4161939620971679
1630498005012,1.2833633422851562,-0.0054734796285629,-0.1590839624404907,0.3801712095737457
1630498005077,1.28742778301239,-0.0251270234584808,-0.1034676879644393,0.3500677943229675
1630498005226,1.28742778301239,-0.0559537075459957,-0.0721278637647628,0.3354624211788177
1630498005256,1.28742778301239,-0.1090788468718528,-0.0696136429905891,0.3253682255744934
1630498005381,1.28742778301239,-0.1370368599891662,-0.0865717306733131,0.2558953762054443
1630498005523,1.28742778301239,-0.0731764063239097,-0.0983481034636497,0.1310487985610962
1630498005634,1.28742778301239,0.0490349009633064,-0.0857707634568214,0.0135437129065394
1630498005696,1.28742778301239,0.2627497911453247,0.0081051858142018,-0.0387074314057827
1630498005799,1.28742778301239,0.3960593938827514,0.1151037216186523,-0.0984575971961021
1630498005896,1.2870856523513794,0.4177579879760742,0.1802179366350174,-0.1170646846294403
1630498006006,1.2799632549285889,0.4177579879760742,0.2063782066106796,-0.1374937444925308
1630498006180,1.2533085346221924,0.4177579879760742,0.2109288722276687,-0.1762542426586151
1630498006211,1.2279926538467407,0.4177579879760742,0.2109288722276687,-0.2344745993614196
1630498006318,1.2279926538467407,0.4177579879760742,0.2109288722276687,-0.2344745993614196
1630498006397,1.2279926538467407,0.4177579879760742,0.2109288722276687,-0.2344745993614196
1630498006618,1.2279926538467407,0.4177579879760742,0.2109288722276687,-0.2344745993614196
1630498006728,1.2279926538467407,0.4177579879760742,0.2023052126169204,-0.2344745993614196
1630498006806,1.2279926538467407,0.4177579879760742,0.1863858997821808,-0.2344745993614196
1630498006869,1.2279926538467407,0.4177579879760742,0.1770429462194442,-0.2344745993614196
1630498006898,1.2279926538467407,0.4177579879760742,0.1614982634782791,-0.2344745993614196
1630498007025,1.2279926538467407,0.4177579879760742,0.1460847407579422,-0.2344745993614196
1630498007088,1.2279926538467407,0.4177579879760742,0.1473537683486938,-0.2344745993614196
1630498007260,1.2279926538467407,0.4132870435714721,0.1485662758350372,-0.2344745993614196
1630498007335,1.2279926538467407,0.3808168470859527,0.1488886475563049,-0.2344745993614196
1630498007399,1.2279926538467407,0.239284485578537,0.1194472014904022,-0.2344745993614196
1630498007540,1.2279926538467407,0.0824347808957099,0.1063944101333618,-0.2344745993614196
1630498007618,1.2279926538467407,-0.055807814002037,0.1235610768198967,-0.2344745993614196
1630498007729,1.2279926538467407,-0.1056423485279083,0.148382231593132,-0.2344745993614196
1630498007853,1.2279926538467407,-0.1855772584676742,0.1812662929296493,-0.2344745993614196
1630498007979,1.2279926538467407,-0.0540150627493858,0.2264300882816314,-0.2344745993614196
1630498008027,1.3723931312561035,0.0246593654155731,0.2522597312927246,-0.2344745993614196
1630498008135,1.3942190408706665,0.0538542903959751,0.2608405649662018,-0.2344745993614196
1630498008244,1.3949079513549805,0.0641155168414115,0.248228833079338,-0.2344745993614196
1630498008324,1.3949079513549805,0.0641155168414115,0.2112506031990051,-0.2344745993614196
1630498008480,1.3949079513549805,0.0641155168414115,0.1850154101848602,-0.2344745993614196
1630498008562,1.3949079513549805,0.0641155168414115,0.2761507034301758,-0.2344745993614196
1630498008670,1.3949079513549805,0.0641155168414115,0.4056242704391479,-0.2344745993614196
1630498008760,1.3949079513549805,0.0641155168414115,0.4584507346153259,-0.2344745993614196
1630498008823,1.3949079513549805,0.0641155168414115,0.4584507346153259,-0.2344745993614196
1630498008917,1.3949079513549805,0.1310924589633941,0.4664032459259033,-0.2344745993614196
1630498009104,1.3949079513549805,0.1461781412363052,0.4788364470005035,-0.2344745993614196
1630498009163,1.3949079513549805,0.15208101272583,0.4840833842754364,-0.2344745993614196
1630498009225,1.3949079513549805,0.1575651913881302,0.4840833842754364,-0.2344745993614196
1630498009349,1.3940407037734983,0.1588552296161651,0.4840833842754364,-0.2344745993614196
1630498009425,1.501028299331665,0.1609287708997726,0.4845179319381714,-0.2344745993614196
1630498009504,1.552331805229187,0.1558796167373657,0.4785600006580353,-0.2344745993614196
1630498009666,1.6126712560653689,0.1829735487699508,0.4678181707859039,-0.2344745993614196
1630498009789,1.663232684135437,0.1352472603321075,0.4674379527568817,-0.2344745993614196
1630498009851,1.684839129447937,0.1462842375040054,0.4674379527568817,-0.2344745993614196
1630498009982,1.7094202041625977,0.175902172923088,0.4674379527568817,-0.2344745993614196
1630498010040,1.717696189880371,0.2143443822860717,0.4674379527568817,-0.2344745993614196
1630498010133,1.717696189880371,0.2429355233907699,0.4674379527568817,-0.2344745993614196
1630498010261,1.717696189880371,0.2651075422763824,0.4331795275211334,-0.2344745993614196
1630498010406,1.717696189880371,0.2891528308391571,0.358119934797287,-0.2344745993614196
1630498010482,1.717696189880371,0.2944447696208954,0.362054705619812,-0.2344745993614196
1630498010544,1.717696189880371,0.2919767200946808,0.3652998208999634,-0.1102629005908966
1630498010639,1.717696189880371,0.3031307756900787,0.3597181141376495,0.0176935903728008
1630498010782,1.717696189880371,0.3017780780792236,0.3892528116703033,0.1697310954332351
1630498010911,1.717696189880371,0.323044866323471,0.4574642777442932,0.3699527680873871
1630498011006,1.7096071243286133,0.3133270442485809,0.4990927278995514,0.5731924176216125
1630498011134,1.7075738906860352,0.3075754046440124,0.5209575891494751,0.7080765962600708
1630498011177,1.706356406211853,0.3062488734722137,0.5209575891494751,0.7491679191589355
1630498011286,1.6888386011123655,0.2933621704578399,0.5209575891494751,0.7607216238975525
1630498011364,1.6303198337554932,0.2716616690158844,0.5209575891494751,0.7607216238975525
1630498011522,1.5325312614440918,0.2689508199691772,0.5209575891494751,0.7607216238975525
1630498011638,1.410567283630371,0.2689508199691772,0.5209575891494751,0.7611585259437561
1630498011696,1.3052037954330444,0.2505557239055633,0.5209575891494751,0.7615949511528015
1630498011826,1.3052037954330444,0.1969461590051651,0.5209575891494751,0.7615949511528015
1630498011907,1.3052037954330444,0.1987581402063369,0.5209575891494751,0.7615949511528015
1630498011963,1.3052037954330444,0.1863189041614532,0.519935131072998,0.7615949511528015
1630498012166,1.3052037954330444,0.191898301243782,0.5163362622261047,0.7615949511528015
1630498012211,1.3052037954330444,0.221664011478424,0.506187915802002,0.7615949511528015
1630498012291,1.3052037954330444,0.2403450310230255,0.4828300774097442,0.7741819620132446
1630498012431,1.3052037954330444,0.2025770843029022,0.4613669216632843,0.8071684837341309
1630498012504,1.3052037954330444,0.2172267138957977,0.4365697205066681,0.8218460083007812
1630498012568,1.3052037954330444,0.2331433147192001,0.3624110519886017,0.8338760137557983
1630498012726,1.3052037954330444,0.2438325136899948,0.2521906793117523,0.8315247297286987
1630498012834,1.3052037954330444,0.2759073674678802,0.0393331348896026,0.8288687467575073
1630498012930,1.3052037954330444,0.3518285453319549,0.0471986159682273,0.817706823348999
1630498013012,1.3052037954330444,0.467263787984848,0.0723228454589843,0.8248950242996216
1630498013100,1.3052037954330444,0.5076926946640015,0.0946833789348602,0.8320186138153076
1630498013188,1.3052037954330444,0.5151275992393494,0.1181639656424522,0.8256787061691284
1630498013368,1.3052037954330444,0.5151275992393494,0.1268701702356338,0.8256787061691284
1630498013429,1.3052037954330444,0.5081930756568909,0.1607710272073745,0.8256787061691284
1630498013525,1.3052037954330444,0.4851553738117218,0.2705833315849304,0.8256787061691284
1630498013589,1.3052037954330444,0.4800309240818023,0.3705165386199951,0.8256787061691284
1630498013777,1.3052037954330444,0.4751513302326202,0.3951060175895691,0.8256787061691284
1630498013778,1.3052037954330444,0.4744913876056671,0.3951060175895691,0.8256787061691284
1630498013937,1.3052037954330444,0.4773309528827667,0.3951060175895691,0.8209256529808044
1630498014016,1.3052037954330444,0.4804708063602447,0.3951060175895691,0.7824795246124268
1630498014112,1.3052037954330444,0.4860224723815918,0.3951060175895691,0.7500028610229492
1630498014220,1.3052037954330444,0.487585186958313,0.3951060175895691,0.7050718665122986
1630498014315,1.3052037954330444,0.4929701685905456,0.3951060175895691,0.6659893989562988
1630498014473,1.3052037954330444,0.4932139217853546,0.3951060175895691,0.6659893989562988
1630498014535,1.3052037954330444,0.4894644916057586,0.3951060175895691,0.6659893989562988
1630498014633,1.3052037954330444,0.4169806540012359,0.3951060175895691,0.6659893989562988
1630498014806,1.3052037954330444,0.3433865904808044,0.3951060175895691,0.6659893989562988
1630498014885,1.3052037954330444,0.3107313513755798,0.394424170255661,0.6659893989562988
1630498014959,1.3052037954330444,0.2801649868488312,0.3926839232444763,0.6659893989562988
1630498015022,1.3052037954330444,0.2682982981204986,0.3972373306751251,0.6659893989562988
1630498015165,1.3052037954330444,0.2862665951251983,0.3656471371650696,0.6659893989562988
1630498015240,1.3052037954330444,0.3167924880981445,0.3048340082168579,0.6659893989562988
1630498015349,1.3052037954330444,0.3424240350723266,0.2219898253679275,0.6659893989562988
1630498015412,1.3052037954330444,0.360719233751297,0.1466943621635437,0.6659893989562988
1630498015553,1.3052037954330444,0.3656934201717376,0.1218037828803062,0.6659893989562988
1630498015616,1.3052037954330444,0.3656934201717376,0.1526307016611099,0.6659893989562988
1630498015806,1.3052037954330444,0.3656934201717376,0.1808472275733947,0.6659893989562988
1630498015867,1.3052037954330444,0.3603790700435638,0.203622281551361,0.6659893989562988
1630498015948,1.3052037954330444,0.356401652097702,0.2140364199876785,0.6659893989562988
1630498016043,1.3052037954330444,0.4103855490684509,0.2228734940290451,0.6659893989562988
1630498016131,1.3052037954330444,0.4868473708629608,0.2212417125701904,0.6659893989562988
1630498016273,1.3052037954330444,0.5081435441970825,0.2151804715394973,0.6659893989562988
1630498016401,1.3052037954330444,0.5081435441970825,0.2149109244346618,0.6659893989562988
1630498016508,1.3052037954330444,0.5081435441970825,0.2149109244346618,0.6659893989562988
1630498016586,1.3052037954330444,0.5081435441970825,0.214216873049736,0.6659893989562988
1630498016683,1.3052037954330444,0.5081435441970825,0.1928666681051254,0.6659893989562988
1630498016759,1.3052037954330444,0.5329960584640503,0.1957508772611618,0.6659893989562988
1630498016883,1.3052037954330444,0.6046909093856812,0.2572667002677917,0.6659893989562988
1630498017044,1.3052037954330444,0.6568138599395752,0.3103404939174652,0.6659893989562988
1630498017121,1.3052037954330444,0.6787172555923462,0.3163220584392547,0.6659893989562988
1630498017187,1.3052037954330444,0.685969352722168,0.3116345405578613,0.6659893989562988
1630498017327,1.3052037954330444,0.685969352722168,0.30465167760849,0.6659893989562988
1630498017388,1.3052037954330444,0.685969352722168,0.2911149263381958,0.6659893989562988
1630498017436,1.3052037954330444,0.685969352722168,0.2832915782928467,0.6659893989562988
1630498017591,1.3052037954330444,0.685969352722168,0.2789790332317352,0.6659893989562988
1630498017701,1.3052037954330444,0.685969352722168,0.2792766988277435,0.6659893989562988
1630498017826,1.3052037954330444,0.6671934127807617,0.2691782712936401,0.6659893989562988
1630498017904,1.3052037954330444,0.6640010476112366,0.2670814394950866,0.3816719949245453
1630498017996,0.9578742980957032,0.6640010476112366,0.2630463242530823,0.443726897239685
1630498018078,1.0103996992111206,0.6640010476112366,0.2590506672859192,0.5176575183868408
1630498018183,1.0545454025268557,0.6640010476112366,0.2590506672859192,0.5871920585632324
1630498018278,1.0949044227600098,0.6640010476112366,0.2590506672859192,0.6738883852958679
1630498018372,1.1344658136367798,0.6563035845756531,0.2775023281574249,0.778861403465271
1630498018529,1.1450804471969604,0.6183523535728455,0.3311918675899505,0.8684741854667664
1630498018609,1.163320541381836,0.5425136685371399,0.3586645424365997,0.9005444645881653
1630498018689,1.1805845499038696,0.4290120005607605,0.346666932106018,0.9197040796279908
1630498018814,1.1880425214767456,0.3159824311733246,0.3458585143089294,0.9197040796279908
1630498018924,1.1951545476913452,0.2917006909847259,0.3525438606739044,0.9197040796279908
1630498018986,1.2227951288223269,0.3326952457427978,0.3591736257076263,0.9197040796279908
1630498019111,1.2508586645126345,0.3830275535583496,0.3724477291107178,0.9197040796279908
1630498019236,1.2860753536224363,0.3855269253253937,0.3551001846790313,0.9197040796279908
1630498019282,1.3209680318832395,0.3753139674663543,0.3191573321819305,0.9197040796279908
1630498019393,1.3492460250854492,0.3705190420150757,0.3179317116737366,0.9197040796279908
1630498019516,1.3709220886230469,0.3731117248535156,0.3179317116737366,0.9197040796279908
1630498019625,1.3798013925552368,0.3756897747516632,0.3179317116737366,0.9161170125007628
1630498019782,1.378400444984436,0.3801208138465881,0.3231938481330871,0.9057223200798036
1630498019858,1.373373031616211,0.3879260718822479,0.3286621570587158,0.8952978849411011
1630498019919,1.3937374353408811,0.3946488201618194,0.3231424987316131,0.8923942446708679
1630498020047,1.393907904624939,0.3962255120277405,0.3245841264724731,0.8838289380073547
1630498020137,1.376044511795044,0.3992892503738403,0.3142187297344208,0.8449628949165344
1630498020216,1.3703510761260986,0.3983423709869385,0.2951124310493469,0.6724959015846252
1630498020358,1.3763588666915894,0.3983423709869385,0.2804287075996399,0.680209219455719
1630498020418,1.385646104812622,0.4064490795135498,0.2740959227085113,0.6906509399414062
1630498020511,1.4213600158691406,0.4339891076087951,0.2677954733371734,0.6906509399414062
1630498020654,1.4213600158691406,0.4505718052387237,0.2474980056285858,0.6906509399414062
1630498020716,1.4213600158691406,0.4554628431797027,0.2005047798156738,0.6906509399414062
1630498020809,1.4213600158691406,0.4446004033088684,0.1563062071800232,0.6906509399414062
1630498020923,1.4213600158691406,0.4427196681499481,0.148993968963623,0.6906509399414062
1630498021013,1.4213600158691406,0.4427196681499481,0.1787265837192535,0.6906509399414062
1630498021094,1.4213600158691406,0.4427196681499481,0.1998056769371032,0.6906509399414062
1630498021268,1.4213600158691406,0.4427196681499481,0.214331567287445,0.6906509399414062
1630498021365,1.4213600158691406,0.4427196681499481,0.2399945557117462,0.6906509399414062
1630498021474,1.4213467836380005,0.4460511207580566,0.3859261274337768,0.6863623261451721
1630498021550,1.4087203741073608,0.4475720822811126,0.5789406895637512,0.6830362677574158
1630498021611,1.3740065097808838,0.4489793181419372,0.6914997100830078,0.6756294369697571
1630498021720,1.3740065097808838,0.4263103306293487,0.7123511433601379,0.6756294369697571
1630498021863,1.3740065097808838,0.4018970429897308,0.6959677934646606,0.6756294369697571
1630498021940,1.3740065097808838,0.3863960206508636,0.6899872422218323,0.6756294369697571
1630498022099,1.3740065097808838,0.3666490912437439,0.6901583075523376,0.6756294369697571
1630498022147,1.3740065097808838,0.3533872961997986,0.6904457211494446,0.6756294369697571
1630498022257,1.3740065097808838,0.2851312160491943,0.6906879544258118,0.6756294369697571
1630498022352,1.3740065097808838,0.1360910236835479,0.6910515427589417,0.6756294369697571
1630498022512,1.3740065097808838,0.2446585148572921,0.6924824714660645,0.6756294369697571
1630498022570,1.3740065097808838,0.2599796950817108,0.6940839886665344,0.6756294369697571
1630498022699,1.3740065097808838,0.2774937152862549,0.6941917538642883,0.6756294369697571
1630498022777,1.3740065097808838,0.3278852105140686,0.6942752003669739,0.6756294369697571
1630498022888,1.3740065097808838,0.3556703329086303,0.6942752003669739,0.6756294369697571
1630498022980,1.3740065097808838,0.363105833530426,0.6942752003669739,0.6756294369697571
1630498023137,1.3740065097808838,0.3662934303283691,0.696871280670166,0.6756294369697571
1630498023200,1.3740065097808838,0.365753024816513,0.6699720025062561,0.6756294369697571
1630498023266,1.3740065097808838,0.3748959898948669,0.5735549330711365,0.6756294369697571
1630498023355,1.3740065097808838,0.3998573422431946,0.4941123425960541,0.6756294369697571
1630498023564,1.3740065097808838,0.4153269529342651,0.4381994009017944,0.6756294369697571
1630498023566,1.3740065097808838,0.4150921404361725,0.4461215436458587,0.6756294369697571
1630498023698,1.3740065097808838,0.4153269529342651,0.4256395399570465,0.6756294369697571
1630498023792,1.3740065097808838,0.4153269529342651,0.3821782171726227,0.6756294369697571
1630498023903,1.3740065097808838,0.4153269529342651,0.3242112696170807,0.6756294369697571
1630498023976,1.3740065097808838,0.4045078754425049,0.2799497842788696,0.6756294369697571
1630498024055,1.3740065097808838,0.3586988151073456,0.2617187201976776,0.6756294369697571
1630498024163,1.3740065097808838,0.321512371301651,0.2499726265668869,0.6756294369697571
1630498024290,1.3740065097808838,0.3135609030723572,0.2472680360078811,0.6756294369697571
1630498024472,1.4094476699829102,0.2940979599952698,0.2437575906515121,0.6756294369697571
1630498024515,1.3878275156021118,0.3041117191314697,0.2482521831989288,0.6756294369697571
1630498024679,1.3900882005691528,0.3708788156509399,0.2955718636512756,0.753796398639679
1630498024710,1.3928428888320925,0.388239175081253,0.3368774652481079,0.7978705763816833
1630498024756,1.4062460660934448,0.3831392526626587,0.3437488377094269,0.8116475343704224
1630498024882,1.4159702062606812,0.3738562762737274,0.3125377893447876,0.8213077187538147
1630498025007,1.4159702062606812,0.3546565771102905,0.2952449321746826,0.8241962194442749
1630498025100,1.4159702062606812,0.3280750513076782,0.2935990393161773,0.8241962194442749
1630498025194,1.4159702062606812,0.3273325562477112,0.2935990393161773,0.8241962194442749
1630498025288,1.4159702062606812,0.340802937746048,0.2905072569847107,0.8241962194442749
1630498025395,1.4159702062606812,0.3554801642894745,0.2769423723220825,0.8241962194442749
1630498025523,1.4159702062606812,0.3838913738727569,0.2725523114204407,0.8241962194442749
1630498025614,1.4159702062606812,0.3903232216835022,0.2725523114204407,0.8241962194442749
1630498025784,1.4015834331512451,0.3903232216835022,0.2725523114204407,0.8241962194442749
1630498025817,1.388523817062378,0.3903232216835022,0.2725523114204407,0.8241962194442749
1630498025912,1.3288003206253052,0.3938950002193451,0.2729976773262024,0.8241962194442749
1630498026040,1.237492918968201,0.3976774513721466,0.2877437770366668,0.8241962194442749
1630498026129,1.185732364654541,0.3992770314216614,0.276186466217041,0.8057119846343994
1630498026281,1.1742788553237915,0.3908325731754303,0.26453498005867,0.7041035294532776
1630498026333,1.1728026866912842,0.3791146278381347,0.2373387813568115,0.7041035294532776
1630498026445,1.1621363162994385,0.3660800755023956,0.2205905765295028,0.7041035294532776
1630498026522,1.1344143152236938,0.3660800755023956,0.2205905765295028,0.7041035294532776
1630498026683,1.123320698738098,0.3660800755023956,0.2205905765295028,0.7041035294532776
1630498026810,1.123320698738098,0.3660800755023956,0.2205905765295028,0.7041035294532776
1630498026840,1.123320698738098,0.3605951368808746,0.2205905765295028,0.7041035294532776
1630498026952,1.123320698738098,0.3251572847366333,0.2205905765295028,0.7041035294532776
1630498027028,1.123320698738098,0.3021727502346039,0.2070149928331375,0.7041035294532776
1630498027137,1.123320698738098,0.3096425235271454,0.1787172555923462,0.7041035294532776
1630498027246,1.123320698738098,0.377224326133728,0.1728976219892501,0.7041035294532776
1630498027389,1.123320698738098,0.4026307165622711,0.1731811016798019,0.7041035294532776
1630498027452,1.123320698738098,0.4069873988628387,0.1748408079147339,0.7041035294532776
1630498027514,1.123320698738098,0.4105068445205688,0.1743757724761963,0.7041035294532776
1630498027623,1.123320698738098,0.4054958820343017,0.1475335508584976,0.7041035294532776
1630498027714,1.123320698738098,0.4035269618034363,0.1746836453676223,0.7041035294532776
1630498027808,1.123320698738098,0.4035269618034363,0.1897570639848709,0.7041035294532776
1630498027979,1.123320698738098,0.4035269618034363,0.1907346248626709,0.7041035294532776
1630498028027,1.123320698738098,0.404195100069046,0.1907346248626709,0.7041035294532776
1630498028139,1.123320698738098,0.404195100069046,0.1907346248626709,0.7041035294532776
1630498028215,1.123320698738098,0.404195100069046,0.1907346248626709,0.7041035294532776
1630498028373,1.123320698738098,0.404195100069046,0.1907346248626709,0.7041035294532776
1630498028450,1.123320698738098,0.404195100069046,0.1963968425989151,0.7041035294532776
1630498028544,1.123320698738098,0.4031758904457092,0.2045888304710388,0.7041035294532776
1630498028638,1.4359461069107056,0.4031758904457092,0.145913541316986,0.7041035294532776
1630498028758,1.441580295562744,0.4039864540100097,0.1020179912447929,0.7041035294532776
1630498028821,1.453614354133606,0.3689282834529876,0.1041273400187492,0.216102734208107
1630498028917,1.4653249979019165,0.2994262278079986,0.1041273400187492,0.2629432082176208
1630498029040,1.4653249979019165,0.2403298914432525,0.1041273400187492,0.3301540017127991
1630498029157,1.4653249979019165,0.1681697368621826,0.0927259624004364,0.4241394698619842
1630498029314,1.4653249979019165,0.1195478737354278,0.0667832940816879,0.5759878158569336
1630498029373,1.4653249979019165,0.1107177436351776,0.015156059525907,0.72657710313797
1630498029499,1.4653249979019165,0.1142391562461853,-0.040691677480936,0.8193145394325256
1630498029608,1.4653249979019165,0.1249449253082275,-0.0386766754090786,0.8695555329322815
1630498029639,1.4653249979019165,0.1858578026294708,-0.0386766754090786,0.877581775188446
1630498029872,1.4653249979019165,0.3123697936534881,-0.0386766754090786,0.877581775188446
1630498029890,1.4628472328186035,0.3123697936534881,-0.0386766754090786,0.877581775188446
1630498029937,1.4575976133346558,0.3123697936534881,-0.0386766754090786,0.8804051280021667
1630498030093,1.4400731325149536,0.3123697936534881,-0.0256078485399484,0.8804051280021667
1630498030172,1.4400731325149536,0.3123697936534881,-0.0228870324790477,0.8804051280021667
1630498030233,1.4400731325149536,0.2882467806339264,0.0061898157000541,0.8804051280021667
1630498030375,1.4400731325149536,0.2564782202243805,0.0433515273034572,0.8804051280021667
1630498030507,1.4400731325149536,0.239089548587799,0.0558246187865734,0.8804051280021667
1630498030600,1.4400731325149536,0.2273626327514648,0.0536170750856399,0.8804051280021667
1630498030679,1.4400731325149536,0.2204230427742004,0.0535229668021202,0.8804051280021667
1630498030762,1.4400731325149536,0.2204230427742004,0.0481421910226345,0.8804051280021667
1630498030868,1.4400731325149536,0.2204230427742004,0.0383774116635322,0.8783473968505859
1630498030999,1.4400731325149536,0.2204230427742004,0.0410565882921218,0.8398482203483582
1630498031122,1.4400731325149536,0.2204230427742004,0.0479056239128112,0.813366711139679
1630498031201,1.4400731325149536,0.2204230427742004,0.0629340633749961,0.813366711139679
1630498031289,1.4400731325149536,0.2204230427742004,0.0883635357022285,0.813366711139679
1630498031352,1.4400731325149536,0.2204230427742004,0.1116524711251258,0.813366711139679
1630498031461,1.4400731325149536,0.2204230427742004,0.1560273617506027,0.813366711139679
1630498031643,1.4400731325149536,0.2204230427742004,0.1806965619325637,0.813366711139679
1630498031711,1.4168832302093506,0.0276667177677154,0.1832246929407119,0.813366711139679
1630498031806,1.42683744430542,0.122191734611988,0.1808570027351379,0.813366711139679
1630498031916,1.4272348880767822,0.126474991440773,0.1628333628177642,0.813366711139679
1630498032037,1.4272348880767822,0.126474991440773,0.151932954788208,0.813366711139679
1630498032149,1.4272348880767822,0.126474991440773,0.1295201927423477,0.813366711139679
1630498032243,1.4272348880767822,0.126474991440773,0.1177619770169258,0.813366711139679
1630498032308,1.4272348880767822,0.139273852109909,0.1095990091562271,0.813366711139679
1630498032435,1.4272348880767822,0.1932284832000732,0.1038307845592498,0.813366711139679
1630498032494,1.4272348880767822,0.2418277710676193,0.0989174768328666,0.813366711139679
1630498032589,1.4272348880767822,0.2536996006965637,0.1008929312229156,0.813366711139679
1630498032682,1.4272348880767822,0.2536996006965637,0.0999942496418953,0.813366711139679
1630498032823,1.4272348880767822,0.2536996006965637,0.0999942496418953,0.813366711139679
1630498032971,1.28058922290802,0.243442878127098,0.0999942496418953,0.813366711139679
1630498033057,1.1601524353027344,0.2424978017807006,0.0999942496418953,0.813366711139679
1630498033117,1.0705395936965942,0.2654323279857635,0.0623134970664978,0.813366711139679
1630498033211,1.0540986061096191,0.3078592419624328,-0.0054461434483528,0.813366711139679
1630498033287,1.0540986061096191,0.317155659198761,-0.0742367878556251,0.813366711139679
1630498033428,1.0540986061096191,0.2913205623626709,-0.132616713643074,0.813366711139679
1630498033539,1.0540986061096191,0.2905056476593017,-0.1000347137451171,0.813366711139679
1630498033649,1.0540986061096191,0.2905056476593017,-0.0050655067898333,0.813366711139679
1630498033742,1.4102935791015625,0.2905056476593017,0.0519782081246376,0.0653335303068161
1630498033900,1.4394159317016602,0.2905056476593017,0.0647888630628585,0.0653335303068161
1630498034009,1.4537887573242188,0.2905056476593017,0.1010386571288108,0.0653335303068161
1630498034106,1.4757882356643677,0.281850516796112,0.1223331242799758,0.0653335303068161
1630498034170,1.4845311641693115,0.2626074850559234,0.1366419792175293,0.0653335303068161
1630498034283,1.4928703308105469,0.2508209645748138,0.1459405720233917,0.0861778408288955
1630498034325,1.4988712072372437,0.2477616369724273,0.1459405720233917,0.1274371892213821
1630498034486,1.5018277168273926,0.2477616369724273,0.1459405720233917,0.1492605805397033
1630498034533,1.5084904432296753,0.2477616369724273,0.1459405720233917,0.1492605805397033
1630498034689,1.5223733186721802,0.2493442147970199,0.1474388390779495,0.1492605805397033
1630498034767,1.529108643531799,0.2761834263801574,0.1590684056282043,0.158824011683464
1630498034877,1.529108643531799,0.2940974235534668,0.1748966574668884,0.164250910282135
1630498034958,1.5244276523590088,0.261404275894165,0.2102393954992294,0.164250910282135
1630498035055,1.5197495222091677,0.1982507705688476,0.2308414876461029,0.1621197462081909
1630498035187,1.5117123126983645,0.1690632253885269,0.2369955331087112,0.1469838470220565
1630498035296,1.510029435157776,0.1690632253885269,0.2239815592765808,0.108377955853939
1630498035361,1.5092108249664309,0.1690632253885269,0.2127556949853897,0.0921948328614234
1630498035439,1.5060908794403076,0.1690632253885269,0.2127556949853897,0.0898842141032219
1630498035632,1.5048584938049316,0.1690632253885269,0.2178043127059936,0.1024502739310264
1630498035697,1.4947028160095217,0.1690632253885269,0.2429771721363067,0.1265596896409988
1630498035772,1.4720813035964966,0.1690632253885269,0.2946124374866485,0.1398655474185943
1630498035976,1.4236955642700195,0.1665178686380386,0.3481111824512481,0.1785515248775482
1630498036022,1.3922102451324463,0.1519777327775955,0.371267169713974,0.2812649011611938
1630498036069,1.4017833471298218,0.1395270824432373,0.3732684254646301,0.3689710199832916
1630498036228,1.4176795482635498,0.1348644793033599,0.376588225364685,0.4395225942134857
1630498036353,1.4136922359466553,0.1483934819698333,0.376588225364685,0.4588856399059295
1630498036478,1.4180293083190918,0.1647745966911316,0.376588225364685,0.4738341271877289
1630498036556,1.4301409721374512,0.1338642388582229,0.376588225364685,0.4898045361042022
1630498036636,1.432221293449402,0.0551305189728736,0.3602395057678222,0.4988854229450226
1630498036674,1.4302432537078855,0.0167006775736808,0.337436705827713,0.4988854229450226
1630498036752,1.4259254932403564,0.0141382049769163,0.3337075114250183,0.4988854229450226
1630498036877,1.4260644912719729,0.0224881134927272,0.3435832262039184,0.4956550896167755
1630498036971,1.4260644912719729,0.0263891331851482,0.3461199700832367,0.4956550896167755
1630498037130,1.4260644912719729,0.0270055811852216,0.3461199700832367,0.4956550896167755
1630498037193,1.4228594303131104,0.0348535552620887,0.3416776061058044,0.4956550896167755
1630498037317,1.421448826789856,0.0424584150314331,0.3330402076244354,0.4956550896167755
1630498037380,1.421448826789856,0.0424584150314331,0.306830883026123,0.4956550896167755
1630498037471,1.421448826789856,0.0424584150314331,0.2507750391960144,0.4953315258026123
1630498037580,1.421448826789856,0.0424584150314331,0.1548350006341934,0.4929085671901703
1630498037705,1.406727313995361,0.0424584150314331,0.0575789250433445,0.480829119682312
1630498037799,1.3740966320037842,0.0424584150314331,-0.0281263068318367,0.3932035267353058
1630498037971,1.3965510129928589,0.0316860750317573,-0.0840104073286056,0.268905907869339
1630498038049,1.399504780769348,0.0006353230564855,-0.1006394252181053,0.227884829044342
1630498038223,1.400399684906006,0.0028051037807017,-0.094872698187828,0.2603966891765594
1630498038301,1.3984085321426392,0.0007573062903247,-0.0885864272713661,0.3015084564685821
1630498038395,1.3984085321426392,-0.000829950615298,-0.0816046595573425,0.3096813261508941
1630498038567,1.3984085321426392,0.0308078676462173,-0.0797013267874717,0.3147309720516205
1630498038692,1.3984085321426392,0.1286859512329101,-0.1139063239097595,0.3184942305088043
1630498038801,1.3984085321426392,0.250589519739151,-0.1988115459680557,0.3214491307735443
1630498038864,1.3984085321426392,0.2930163145065307,-0.2710759937763214,0.3214491307735443
1630498038911,1.3984085321426392,0.2875856161117553,-0.2932314276695251,0.3214491307735443
1630498038989,1.3984085321426392,0.2807691991329193,-0.2766221165657043,0.3214491307735443
1630498039067,1.3984085321426392,0.2805803716182709,-0.2719109654426574,0.3260468244552612
1630498039099,1.3984085321426392,0.2980362474918365,-0.2695367932319641,0.3432597219944
1630498039190,1.3984085321426392,0.3170772492885589,-0.2495644688606262,0.3582425117492676
1630498039332,1.3984085321426392,0.331211656332016,-0.1955924183130264,0.3675140738487243
1630498039396,1.381941556930542,0.3424961268901825,-0.1827055811882019,0.3636295199394226
1630498039568,1.2924904823303225,0.3445472717285156,-0.1624169498682022,0.4127394258975982
1630498039662,1.238295316696167,0.3445472717285156,-0.1513437330722808,0.4705677926540375
1630498039724,1.239356279373169,0.3445472717285156,-0.1490165442228317,0.5065585970878601
1630498039802,1.2754201889038086,0.3445472717285156,-0.1492140293121338,0.5314229130744934
1630498039943,1.3013637065887451,0.3445472717285156,-0.083290621638298,0.5938022136688232
1630498040006,1.314311146736145,0.3445472717285156,0.008161325007677,0.7044590711593628
1630498040212,1.3605059385299685,0.3407976329326629,0.0886731147766113,0.830024003982544
1630498040244,1.4104138612747192,0.2876100838184356,0.1779804527759552,0.930473268032074
1630498040400,1.4573439359664917,0.1620168685913086,0.2441912144422531,1.005152702331543
1630498040462,1.4736841917037964,0.0689584985375404,0.252916157245636,1.04455828666687
1630498040509,1.4786332845687866,0.0907868444919586,0.2544544339179992,1.0561381578445437
1630498040587,1.4786332845687866,0.1544368416070938,0.2599055767059326,1.0564296245574951
1630498040775,1.4786332845687866,0.1655768454074859,0.2599055767059326,1.0534485578536987
1630498040884,1.4786332845687866,0.1541988551616668,0.2599570155143738,1.052401065826416
1630498041040,1.4786332845687866,0.1737792491912841,0.2609285414218902,1.0523473024368286
1630498041087,1.4786332845687866,0.2003674954175949,0.2609973549842834,1.0523473024368286
1630498041165,1.4786332845687866,0.205409750342369,0.2612049877643585,1.0523473024368286
1630498041278,1.4786332845687866,0.2108625769615173,0.2612049877643585,1.0525327920913696
1630498041372,1.475778579711914,0.2253017276525497,0.2612049877643585,1.0514423847198486
1630498041465,1.4700313806533811,0.23368501663208,0.2612049877643585,1.0568687915802002
1630498041537,1.4697903394699097,0.2445510029792785,0.2497317790985107,1.058048129081726
1630498041693,1.4697903394699097,0.2445510029792785,0.2286099344491958,1.0585620403289795
1630498041787,1.460577368736267,0.2445510029792785,0.2247891277074813,1.057008981704712
1630498041850,1.4419069290161133,0.2445510029792785,0.2244447767734527,1.0484530925750732
1630498041959,1.414002537727356,0.2445510029792785,0.1622035354375839,1.0057047605514526
1630498042052,1.358586668968201,0.2445510029792785,0.0527919642627239,0.894275963306427
1630498042162,1.2892729043960571,0.2326836436986923,-0.0045460946857929,0.7064785957336426
1630498042258,1.257870078086853,0.1787440329790115,-0.0505116730928421,0.4797568917274475
1630498042352,1.2193806171417236,0.1681400537490844,-0.0433955714106559,0.3151745796203613
1630498042430,1.198456645011902,0.1869266778230667,-0.0191585514694452,0.2481085807085037
1630498042617,1.198456645011902,0.2309554666280746,0.0061371456831693,0.22841477394104
1630498042680,1.197230100631714,0.2531736493110657,0.0292623303830623,0.216421827673912
1630498042773,1.1943374872207642,0.2656153738498688,0.0632053986191749,0.188310831785202
1630498042898,1.1864345073699951,0.2704488933086395,0.1066854149103164,0.179933413863182
1630498042961,1.1842434406280518,0.2704488933086395,0.1608832478523254,0.1750939339399337
1630498043101,1.1794147491455078,0.2704488933086395,0.1779058575630188,0.1542309373617172
1630498043195,1.175833821296692,0.2704488933086395,0.1779058575630188,0.0892353728413581
1630498043336,1.158831000328064,0.2704488933086395,0.1779058575630188,-0.0380270853638649
1630498043383,1.1577033996582031,0.2704488933086395,0.1779058575630188,-0.0380270853638649
1630498043508,1.1577033996582031,0.2704488933086395,0.1733005940914154,-0.0380270853638649
1630498043664,1.1577033996582031,0.2704488933086395,0.1621776074171066,-0.0380270853638649
1630498043695,1.1577033996582031,0.2662494480609894,0.1609427481889724,-0.0380270853638649
1630498043836,1.1577033996582031,0.2598666548728943,0.1609427481889724,-0.0380270853638649
1630498043945,1.0906046628952026,0.2559525966644287,0.1754854917526245,0.5607272982597351
1630498044026,1.0906046628952026,0.249768927693367,0.2010909467935562,0.5948228240013123
1630498044090,1.095841407775879,0.2397290766239166,0.2211915850639343,0.6007322072982788
1630498044246,1.1172608137130735,0.2138715833425521,0.2316009700298309,0.6029545664787292
1630498044278,1.1263041496276855,0.1599076986312866,0.2262333035469055,0.6170958280563354
1630498044387,1.1396836042404177,0.0613647699356079,0.2071489095687866,0.6425840854644775
1630498044481,1.177597165107727,0.0819858238101005,0.1999463737010955,0.6680596470832825
1630498044590,1.2561743259429932,0.1533517092466354,0.2016158998012542,0.6813924312591553
1630498044684,1.3459351062774658,0.2025552988052368,0.2766365706920624,0.6896165013313293
1630498044793,1.405911564826965,0.2097704857587814,0.3082679808139801,0.6944212913513184
1630498044871,1.4364889860153198,0.2141027301549911,0.3082679808139801,0.6997624039649963
1630498045012,1.439311146736145,0.2141027301549911,0.3082679808139801,0.7010018229484558
1630498045168,1.4356536865234375,0.2141027301549911,0.3082679808139801,0.7010018229484558
1630498045199,1.4313411712646484,0.2194726318120956,0.3082679808139801,0.7086705565452576
1630498045311,1.4313411712646484,0.2347689568996429,0.3082679808139801,0.7086705565452576
1630498045421,1.4313411712646484,0.2687575817108154,0.3082679808139801,0.7159754633903503
1630498045514,1.4721444845199585,0.2934393882751465,0.3098123073577881,0.7223842144012451
1630498045655,1.5104053020477295,0.2983265519142151,0.3106605410575866,0.7111232280731201
1630498045717,1.5432153940200806,0.3042231500148773,0.3089905977249145,0.6955122947692871
1630498045811,1.5505390167236328,0.3042231500148773,0.3036239743232727,0.6920166611671448
1630498045889,1.5505390167236328,0.3042231500148773,0.3036239743232727,0.6920166611671448
1630498045984,1.5505390167236328,0.3022066950798034,0.3007731437683105,0.6964352130889893
1630498046136,1.5505390167236328,0.2897004783153534,0.3042226135730743,0.6885473728179932
1630498046235,1.5505390167236328,0.2833945453166961,0.306419163942337,0.6885473728179932
1630498046326,1.542575120925903,0.2456962019205093,0.2624877691268921,0.667730450630188
1630498046436,1.5155023336410522,0.2352247834205627,0.1888137012720108,0.6129705905914307
1630498046516,1.4880234003067017,0.2352247834205627,0.1587823629379272,0.5661696195602417
1630498046639,1.491376280784607,0.2446540594100952,0.157226413488388,0.5252289175987244
1630498046702,1.5026313066482544,0.2446540594100952,0.157226413488388,0.4825060963630676
1630498046826,1.5115540027618408,0.2446540594100952,0.157226413488388,0.4180869460105896
1630498046936,1.5165438652038574,0.2417086809873581,0.157226413488388,0.3756166994571686
1630498047045,1.5156458616256714,0.2376242280006408,0.1517257392406463,0.3667298257350921
1630498047125,1.5003844499588013,0.2355629205703735,0.1398534029722213,0.3741461336612701
1630498047203,1.4578708410263062,0.2390933632850647,0.1069530248641967,0.4118609726428985
1630498047380,1.3773634433746338,0.2196541726589203,0.0726564228534698,0.4752059280872345
1630498047508,1.3108513355255127,0.2026054859161377,0.0457993187010288,0.5209121108055115
1630498047665,1.25788152217865,0.1989834308624267,0.0524369962513446,0.4942744672298431
1630498047739,1.2299199104309082,0.1967302411794662,0.0895652174949646,0.4917888641357422
1630498047754,1.227343201637268,0.1944990158081054,0.1613203883171081,0.4917119443416595
1630498047833,1.227022409439087,0.1939158290624618,0.200074166059494,0.4910610616207123
1630498047972,1.227022409439087,0.1612267345190048,0.2012448906898498,0.4851588308811188
1630498048035,1.227022409439087,0.1350346505641937,0.2012448906898498,0.4626060724258423
1630498048179,1.2262961864471436,0.1254097521305084,0.2012448906898498,0.412365972995758
1630498048261,1.2152814865112305,0.1019745245575904,0.2012448906898498,0.3934712409973144
1630498048336,1.1934155225753784,0.0503018386662006,0.2012448906898498,0.3918980956077575
1630498048440,1.1347107887268066,0.0270938742905855,0.2012448906898498,0.3906229734420776
1630498048534,1.0790801048278809,-0.0158467795699834,0.2006796598434448,0.3889352679252624
1630498048671,1.031705021858215,-0.0547288097441196,0.1982354521751403,0.3889352679252624
1630498048765,0.9777257442474364,-0.103217601776123,0.1775807738304138,0.3889352679252624
1630498048843,0.9777257442474364,-0.173819437623024,0.1413085311651229,0.3889352679252624
1630498048951,0.9777257442474364,-0.173819437623024,0.1181535869836807,0.3889352679252624
1630498049047,0.9777257442474364,-0.173819437623024,0.1148036271333694,0.3889352679252624
1630498049140,0.9777257442474364,-0.173819437623024,0.1010222434997558,0.3889352679252624
1630498049284,0.9777257442474364,-0.173819437623024,0.0782174170017242,0.3889352679252624
1630498049393,0.9777257442474364,-0.173819437623024,0.0749619379639625,0.3889352679252624
1630498049471,0.9777257442474364,0.1976453959941864,0.0171129945665597,0.3889352679252624
1630498049627,0.9777257442474364,0.3265949189662933,-0.0469589345157146,0.3889352679252624
1630498049643,0.9777257442474364,0.2540563642978668,-0.0333185493946075,0.3889352679252624
1630498049752,0.9777257442474364,0.3936505615711212,-0.0092036938294768,0.3889352679252624
1630498049924,0.9777257442474364,0.39864382147789,0.0698447674512863,0.3889352679252624
1630498050021,0.9777257442474364,0.39864382147789,0.0767706930637359,0.3889352679252624
1630498050082,0.9777257442474364,0.39864382147789,0.0451859645545482,0.3889352679252624
1630498050191,0.9777257442474364,0.39864382147789,0.0088880751281976,0.3889352679252624
1630498050287,0.9777257442474364,0.39864382147789,-0.0123091153800487,0.3889352679252624
1630498050369,0.9777257442474364,0.39864382147789,-0.0123091153800487,0.3889352679252624
1630498050515,0.9777257442474364,0.39864382147789,-0.0123091153800487,0.3889352679252624
1630498050592,0.9777257442474364,0.39864382147789,-0.0123091153800487,0.3889352679252624
1630498050670,0.9777257442474364,0.39864382147789,-0.0123091153800487,0.3889352679252624
1630498050779,0.9777257442474364,0.4036691784858703,-0.0029659834690392,0.3889352679252624
1630498050873,0.9777257442474364,0.4181864559650421,-0.002341547049582,0.3889352679252624
1630498050966,1.278213620185852,0.4220057129859924,-0.0337753295898437,0.3710845708847046
1630498051107,1.2992961406707764,0.4198761880397796,-0.0278054904192686,0.3928668797016144
1630498051248,1.3123207092285156,0.4072635173797607,0.0002626782807055,0.4247032701969147
1630498051327,1.3161978721618652,0.3881562054157257,0.0014512793859466,0.4539666473865509
1630498051409,1.323454976081848,0.3636506199836731,0.0014512793859466,0.4757788777351379
1630498051518,1.3235265016555786,0.4101671874523163,-0.031920526176691,0.4862522184848785
1630498051596,1.3235265016555786,0.4263899028301239,-0.1125193759799003,0.5152555108070374
1630498051690,1.3235265016555786,0.4263899028301239,-0.1475137621164322,0.5731427669525146
1630498051867,1.3270543813705444,0.4271628558635711,-0.1278705894947052,0.6404901742935181
1630498051945,1.3277586698532104,0.4299630522727966,-0.0884600803256034,0.7004644274711609
1630498051992,1.3549715280532837,0.4299630522727966,-0.0439505167305469,0.7295705676078796
1630498052101,1.3720043897628784,0.4299630522727966,0.0030692568980157,0.730824887752533
1630498052230,1.3978886604309082,0.4299630522727966,0.0648760423064231,0.730824887752533
1630498052355,1.4204344749450684,0.4289760291576385,0.0789864137768745,0.7349311709403992
1630498052433,1.4454560279846191,0.4117980897426605,0.0819358304142952,0.7373532056808472
1630498052538,1.461275339126587,0.4365805983543396,0.0957038700580596,0.7441065311431885
1630498052684,1.4807759523391724,0.4729300737380981,0.1291382014751434,0.7556166648864746
1630498052702,1.4828444719314575,0.5059852600097656,0.1528106331825256,0.7662950158119202
1630498052792,1.4793256521224976,0.5210839509963989,0.1727960258722305,0.7755417227745056
1630498052917,1.4704281091690063,0.5198136568069458,0.1727977097034454,0.7801021337509155
1630498053089,1.4673551321029663,0.4924381971359253,0.1727977097034454,0.7801021337509155
1630498053151,1.4673551321029663,0.473922461271286,0.1727977097034454,0.7827821969985962
1630498053240,1.4694474935531616,0.4620303511619568,0.1727977097034454,0.7875053882598877
1630498053336,1.4871485233306885,0.4736230373382568,0.1727977097034454,0.7967329621315002
1630498053429,1.507574200630188,0.4864277243614197,0.1994624733924865,0.8088604211807251
1630498053539,1.5168540477752686,0.5141392946243286,0.2036789804697036,0.8077025413513184
1630498053617,1.513538837432861,0.521526038646698,0.2036789804697036,0.7799672484397888
1630498053765,1.5135589838027954,0.5234145522117615,0.1981440484523773,0.7248073816299438
1630498053827,1.5135589838027954,0.5234145522117615,0.1609686315059662,0.6594265103340149
1630498053924,1.5135589838027954,0.5234145522117615,0.1031457036733627,0.6251430511474609
1630498054002,1.505587458610535,0.5234145522117615,0.0843383893370628,0.5921422243118286
1630498054208,1.4684211015701294,0.5234145522117615,0.0789329335093498,0.57566237449646
1630498054317,1.384253740310669,0.5234145522117615,0.0624323263764381,0.572790801525116
1630498054348,1.3205194473266602,0.4986110329627991,0.0525758266448974,0.5602269768714905
1630498054441,1.255894899368286,0.4427741169929504,0.0433556884527206,0.5476459264755249
1630498054566,1.2381490468978882,0.3638351857662201,0.069453090429306,0.5376211404800415
1630498054631,1.242827296257019,0.3309378921985626,0.1356198191642761,0.5511928796768188
1630498054770,1.2428356409072876,0.3336515724658966,0.1498250812292099,0.5559974312782288
1630498054874,1.2395379543304443,0.3316441476345062,0.1498250812292099,0.5458356738090515
1630498054936,1.234640121459961,0.305514931678772,0.1414672136306762,0.5312554836273193
1630498055014,1.2184666395187378,0.256447821855545,0.1015492007136344,0.4553706645965576
1630498055181,1.2049438953399658,0.2946529984474182,0.1096765324473381,0.3800768554210663
1630498055289,1.1765373945236206,0.3364630043506622,0.1423727124929428,0.4337904453277588
1630498055367,1.137579083442688,0.3585255146026611,0.1612569093704223,0.4756261706352234
1630498055471,1.1251027584075928,0.3692344725131988,0.180480808019638,0.4828579425811767
1630498055565,1.1204549074172974,0.3821371793746948,0.1980011910200119,0.4828579425811767
1630498055638,1.116439700126648,0.3963781595230102,0.1990429013967514,0.4828579425811767
1630498055763,1.1138715744018557,0.3963781595230102,0.1990429013967514,0.4828579425811767
1630498055872,1.1105493307113647,0.3963781595230102,0.1990429013967514,0.4828579425811767
1630498055997,1.1184062957763672,0.3963781595230102,0.1990429013967514,0.4828579425811767
1630498056128,1.140377640724182,0.3900191485881805,0.1986134350299835,0.4828579425811767
1630498056185,1.1809508800506592,0.3705141246318817,0.1963549852371215,0.4758185446262359
1630498056308,1.2148845195770264,0.3518909513950348,0.1564217954874038,0.4512083828449249
1630498056385,1.2379151582717896,0.3450864851474762,0.1485669463872909,0.4339994192123413
1630498056449,1.2166274785995483,0.3581902980804443,0.1485669463872909,0.4256586730480194
1630498056591,1.2480599880218506,0.3873843550682068,0.1485669463872909,0.4229491651058197
1630498056697,1.2554962635040283,0.4146865904331207,0.1457097381353378,0.4236228764057159
1630498056779,1.272424817085266,0.415121465921402,0.1357283741235733,0.4277073442935943
1630498056856,1.2848055362701416,0.3707320094108581,0.1141401976346969,0.421663224697113
1630498056964,1.3149185180664062,0.3232545554637909,0.0907256379723548,0.3865947723388672
1630498057038,1.330835461616516,0.2745074033737182,0.0382538177073001,0.3436183929443359
1630498057181,1.331666111946106,0.2237669378519058,-0.0135553497821092,0.3284676969051361
1630498057277,1.3356910943984983,0.176688089966774,-0.0498155318200588,0.3197786509990692
1630498057370,1.3361207246780396,0.1580321490764618,-0.0749398469924926,0.3389464616775512
1630498057479,1.3368006944656372,0.1644814163446426,-0.0961218699812889,0.3497090935707092
1630498057574,1.340407133102417,0.1761717647314071,-0.1109196096658706,0.3497090935707092
1630498057669,1.3440868854522705,0.183794617652893,-0.1109196096658706,0.3497090935707092
1630498057817,1.3149964809417725,0.1952861547470092,-0.1197741329669952,0.3301074802875519
1630498057937,1.296950101852417,0.2051766067743301,-0.1642997562885284,0.2893469631671905
1630498058015,1.2966933250427246,0.2076750099658966,-0.1357918083667755,0.2620508670806885
1630498058095,1.2908556461334229,0.2088912725448608,-0.0760804787278175,0.25026735663414
1630498058220,1.284307837486267,0.2120608389377594,-0.0339574851095676,0.25026735663414
1630498058282,1.284307837486267,0.2573117315769195,0.0681097581982612,0.25026735663414
1630498058439,1.284307837486267,0.3369430899620056,0.1859719008207321,0.25026735663414
1630498058502,1.2782427072525024,0.3146785795688629,0.3150658309459686,0.25026735663414
1630498058673,1.2632883787155151,0.2992264032363891,0.3899789154529571,0.25026735663414
1630498058720,1.2383244037628174,0.286727637052536,0.4158603847026825,0.2407610565423965
1630498058814,1.2063778638839722,0.2773861289024353,0.431826651096344,0.2207562625408172
1630498058891,1.2019294500350952,0.2712787985801697,0.4353522956371307,0.2184547781944275
1630498059111,1.1951706409454346,0.2625713050365448,0.4353522956371307,0.2043644338846206
1630498059236,1.1638057231903076,0.2586148381233215,0.4376225471496582,0.196566492319107
1630498059239,1.1638057231903076,0.2586148381233215,0.4363906979560852,0.196566492319107
1630498059314,1.1638057231903076,0.2521719634532928,0.444298654794693,0.196566492319107
1630498059436,1.1638057231903076,0.2307260334491729,0.4445654153823852,0.196566492319107
1630498059515,1.1638057231903076,0.1992639601230621,0.4445654153823852,0.196566492319107
1630498059657,1.1638057231903076,0.1992639601230621,0.4445654153823852,0.196566492319107
1630498059751,1.1638057231903076,0.1992639601230621,0.4445654153823852,0.196566492319107
1630498059811,1.1638057231903076,0.1992639601230621,0.4445654153823852,0.196566492319107
1630498060015,1.1638057231903076,0.1992639601230621,0.4445654153823852,0.196566492319107
1630498060080,1.1638057231903076,0.1992639601230621,0.4445756077766418,0.196566492319107
1630498060126,1.1638057231903076,0.1992639601230621,0.4220134913921356,0.196566492319107
1630498060281,1.1638057231903076,0.1992639601230621,0.3364148437976837,0.196566492319107
1630498060344,1.1638057231903076,0.1992639601230621,0.2767874300479889,0.196566492319107
1630498060423,1.1638057231903076,0.1992639601230621,0.251667857170105,0.196566492319107
1630498060579,1.1638057231903076,0.1992639601230621,0.2457969784736633,0.196566492319107
1630498060640,1.1638057231903076,0.1992639601230621,0.2696158289909363,0.196566492319107
1630498060736,1.1638057231903076,0.1992639601230621,0.2770370841026306,0.196566492319107
1630498060889,1.1638057231903076,0.1992639601230621,0.2500287294387817,0.196566492319107
1630498060952,1.1638057231903076,0.1992639601230621,0.2386791557073593,0.196566492319107
1630498061107,1.1638057231903076,0.1992639601230621,0.2484121471643448,0.196566492319107
1630498061139,1.1638057231903076,0.5824112296104431,0.2391022741794586,0.8709955811500549
1630498061265,1.1638057231903076,0.6010726094245911,0.2404972612857818,0.8721882700920105
1630498061329,1.1638057231903076,0.6017119884490967,0.2404972612857818,0.8832124471664429
1630498061486,1.1638057231903076,0.6017119884490967,0.2404972612857818,0.895317792892456
1630498061580,1.1638057231903076,0.6017119884490967,0.2394182831048965,0.8954293727874756
1630498061642,1.1638057231903076,0.6017119884490967,0.2394182831048965,0.8954293727874756
1630498061741,1.1638057231903076,0.6017119884490967,0.2394182831048965,0.8954293727874756
1630498061817,1.1638057231903076,0.6017119884490967,0.2394182831048965,0.8954293727874756
1630498061963,1.1638057231903076,0.6017119884490967,0.2870890200138092,0.8954293727874756
1630498062086,1.1638057231903076,0.606462836265564,0.435329407453537,0.8954293727874756
1630498062134,1.1638057231903076,0.606462836265564,0.5578219294548035,0.8954293727874756
1630498062293,1.1638057231903076,0.606462836265564,0.6177310347557068,0.8954293727874756
1630498062371,1.1638057231903076,0.4541952013969421,0.6096072196960449,0.7509124875068665
1630498062466,1.1638057231903076,0.3200312554836273,0.5997866988182068,0.6862431764602661
1630498062544,1.1638057231903076,0.2789780795574188,0.5906921625137329,0.6784149408340454
1630498062699,1.1638057231903076,0.2692768275737762,0.579898476600647,0.6660128831863403
1630498062782,1.1638057231903076,0.2622155249118805,0.5625180602073669,0.6660128831863403
1630498062871,1.1638057231903076,0.2148909419775009,0.5454646348953247,0.6660128831863403
1630498062965,1.1638057231903076,0.1467592120170593,0.5682061910629272,0.6660128831863403
1630498063057,1.1638057231903076,0.1126213744282722,0.5702825784683228,0.6660128831863403
1630498063183,1.1638057231903076,0.1457295268774032,0.5736676454544067,0.6660128831863403
1630498063292,1.1638057231903076,0.1651498973369598,0.5776479840278625,0.6660128831863403
1630498063369,1.5851494073867798,0.1755179762840271,0.5788785815238953,0.6660128831863403
1630498063498,1.5851494073867798,0.2437979876995086,0.5809382200241089,0.6660128831863403
1630498063591,1.5851494073867798,0.3102607131004333,0.5820490121841431,0.6660128831863403
1630498063687,1.5851494073867798,0.4046669900417328,0.5882070660591125,0.6660128831863403
1630498063811,1.5851494073867798,0.4774093329906463,0.2653640806674957,0.6660128831863403
1630498063903,1.5851494073867798,0.5052677392959595,0.3170932829380035,0.6660128831863403
1630498064013,1.5851494073867798,0.5142530202865601,0.348412424325943,0.6660128831863403
1630498064088,1.5851494073867798,0.5142530202865601,0.3525750637054443,0.6660128831863403
1630498064194,1.5851494073867798,0.5142530202865601,0.3525750637054443,0.6660128831863403
1630498064273,1.5851494073867798,0.5142530202865601,0.3525750637054443,0.6660128831863403
1630498064368,1.5851494073867798,0.5142530202865601,0.3525750637054443,0.6660128831863403
1630498064510,1.5851494073867798,0.5142530202865601,0.3368031680583954,0.6660128831863403
1630498064618,1.5851494073867798,0.5142530202865601,0.329480767250061,0.6660128831863403
1630498064702,1.5851494073867798,0.510259211063385,0.3127679824829101,0.6660128831863403
1630498064774,1.5851494073867798,0.5003998279571533,0.3086269199848175,0.6660128831863403
1630498064887,1.5851494073867798,0.4989480674266815,0.3583597242832184,0.6660128831863403
1630498064974,1.5851494073867798,0.4989480674266815,0.3700658679008484,0.6660128831863403
1630498065118,1.5851494073867798,0.4989480674266815,0.3700658679008484,0.6660128831863403
1630498065229,1.5851494073867798,0.4989480674266815,0.3700658679008484,0.6660128831863403
1630498065293,1.5851494073867798,0.4973732829093933,0.3700658679008484,0.6660128831863403
1630498065418,1.5851494073867798,0.4926970303058624,0.3658761978149414,0.6660128831863403
1630498065531,1.5851494073867798,0.7148634195327759,0.342256098985672,0.6660128831863403
1630498065562,1.5851494073867798,0.8019578456878662,0.3191467225551605,0.6660128831863403
1630498065765,1.5851494073867798,0.8019578456878662,0.3113334774971008,0.6660128831863403
1630498065827,1.5851494073867798,0.8019578456878662,0.3113334774971008,0.6660128831863403
1630498065923,1.5851494073867798,0.8019578456878662,0.3113334774971008,0.6660128831863403
1630498066046,1.1780104637145996,0.8019578456878662,0.3113334774971008,0.6660128831863403
1630498066093,1.1780104637145996,0.8019578456878662,0.3113334774971008,0.6660128831863403
1630498066189,1.1780104637145996,0.8019578456878662,0.3055574297904968,0.6660128831863403
1630498066409,1.1780104637145996,0.8019578456878662,0.2809281051158905,0.6660128831863403
1630498066454,1.1780104637145996,0.8019578456878662,0.2382320761680603,0.6660128831863403
1630498066533,1.1780104637145996,0.8019578456878662,0.1629517823457718,0.6660128831863403
1630498066660,1.1780104637145996,0.8019578456878662,0.1048158854246139,0.6660128831863403
1630498066751,1.1780104637145996,0.8019578456878662,0.0983301922678947,0.6660128831863403
1630498066815,1.1780104637145996,0.8019578456878662,0.1044075042009353,0.6660128831863403
1630498066972,1.1780104637145996,0.8019578456878662,0.1265707015991211,0.6660128831863403
1630498067035,1.1780104637145996,0.8019578456878662,0.1424309015274047,0.6660128831863403
1630498067190,1.1780104637145996,0.7525944709777832,0.1592876762151718,0.6660128831863403
1630498067270,0.9895691871643066,0.6355124115943909,0.1671783626079559,0.6660128831863403
1630498067348,0.9895691871643066,0.5862653851509094,0.1671783626079559,0.6660128831863403
1630498067444,0.9895691871643066,0.6378034949302673,0.1671783626079559,0.6660128831863403
1630498067537,0.9895691871643066,0.6948627829551697,0.198774978518486,0.6660128831863403
1630498067631,0.9895691871643066,0.7071110606193542,0.2442445307970047,0.6660128831863403
1630498067773,0.9895691871643066,0.7052108645439148,0.3023262917995453,0.6660128831863403
1630498067864,0.9895691871643066,0.7057307362556458,0.3392868936061859,0.6660128831863403
1630498067911,0.9895691871643066,0.705764889717102,0.3517595529556274,0.6660128831863403
1630498068068,0.9895691871643066,0.705764889717102,0.3548679053783417,0.6660128831863403
1630498068161,0.9895691871643066,0.705764889717102,0.3548679053783417,0.6660128831863403
1630498068287,0.9895691871643066,0.6898201107978821,0.3583633601665497,0.6660128831863403
1630498068377,0.9895691871643066,0.6572079658508301,0.3598079085350036,0.6660128831863403
1630498068504,0.9895691871643066,0.6615875959396362,0.3650935292243957,0.6660128831863403
1630498068549,0.9895691871643066,0.6718303561210632,0.3681625723838806,0.6660128831863403
1630498068626,0.9895691871643066,0.6755243539810181,0.3681625723838806,0.6660128831863403
1630498068799,0.9895691871643066,0.6760582327842712,0.3681625723838806,0.6660128831863403
1630498068875,0.9895691871643066,0.6760582327842712,0.3681625723838806,0.6660128831863403
1630498068938,0.9895691871643066,0.6760582327842712,0.3681625723838806,0.6660128831863403
1630498069082,0.9895691871643066,0.6735430955886841,0.3681625723838806,0.6660128831863403
1630498069194,0.9895691871643066,0.6110192537307739,0.3615598082542419,0.6660128831863403
1630498069254,0.9895691871643066,0.5065305233001709,0.3176382780075073,0.6660128831863403
1630498069380,0.9895691871643066,0.4016740024089813,0.284223347902298,0.6660128831863403
1630498069475,0.9895691871643066,0.3237849175930023,0.2730961441993713,0.6660128831863403
1630498069567,1.123421311378479,0.2543002963066101,0.243964210152626,0.6660128831863403
1630498069658,1.170588135719299,0.1915391981601715,0.2265569567680359,0.4941657781600952
1630498069738,1.1978979110717771,0.1373390108346939,0.204912930727005,0.4941657781600952
1630498069866,1.2028363943099976,0.1042652130126953,0.1996789723634719,0.4941657781600952
1630498070006,1.2059675455093384,0.0909377187490463,0.1980558633804321,0.4941657781600952
1630498070097,1.2059675455093384,0.1059425771236419,0.2043638378381729,0.4941657781600952
1630498070175,1.2059675455093384,0.1567674875259399,0.1937937438488006,0.4941657781600952
1630498070285,1.2059675455093384,0.1510114073753357,0.1570019721984863,0.4941657781600952
1630498070364,1.2059675455093384,0.1402831226587295,0.1204561293125152,0.4941657781600952
1630498070534,1.2059675455093384,0.1704132854938507,0.1290201842784881,0.4941657781600952
1630498070627,1.2059675455093384,0.2674481868743896,0.1585994362831115,0.4941657781600952
1630498070689,1.2059675455093384,0.3970819413661957,0.2235798984766006,0.4941657781600952
1630498070752,1.2059675455093384,0.4835871160030365,0.3195507526397705,0.4941657781600952
1630498070926,1.2059675455093384,0.5232871174812317,0.3597756624221802,0.4941657781600952
1630498070986,1.2033555507659912,0.5555973052978516,0.3716482520103454,0.4941657781600952
1630498071080,1.193775296211243,0.5771828293800354,0.3792089819908142,0.4941657781600952
1630498071270,1.1622133255004885,0.5771828293800354,0.3885587751865387,0.4941657781600952
1630498071376,1.1043927669525146,0.5771828293800354,0.3981116414070129,0.4941657781600952
1630498071408,1.1043927669525146,0.5771828293800354,0.3986271619796753,0.4941657781600952
1630498071501,1.1043927669525146,0.5771828293800354,0.3986271619796753,0.4941657781600952
1630498071674,1.1043927669525146,0.5802348256111145,0.3986271619796753,0.4941657781600952
1630498071736,1.1043927669525146,0.5802740454673767,0.3986271619796753,0.4941657781600952
1630498071814,1.1043927669525146,0.5726433992385864,0.3986271619796753,0.4941657781600952
1630498071922,0.9042248725891112,0.566540539264679,0.3986271619796753,0.7160800695419312
1630498072015,0.9042248725891112,0.5624485015869141,0.3996452987194061,0.7160800695419312
1630498072140,0.9042248725891112,0.5573075413703918,0.4026296138763428,0.7160800695419312
1630498072204,0.9042248725891112,0.5549742579460144,0.4054502844810486,0.7160800695419312
1630498072281,0.9042248725891112,0.5307031869888306,0.4119248390197754,0.7160800695419312
1630498072437,0.9042248725891112,0.5120483040809631,0.3837337493896484,0.7160800695419312
1630498072531,0.9042248725891112,0.4876253604888916,0.3154086172580719,0.7160800695419312
1630498072640,0.9042248725891112,0.3472828865051269,0.2615401744842529,0.7160800695419312
1630498072751,0.9042248725891112,0.3520642817020416,0.2306954115629196,0.7160800695419312
1630498072768,0.9042248725891112,0.3547741174697876,0.1778829246759414,0.7160800695419312
1630498072909,0.9042248725891112,0.3582189381122589,0.1094946041703224,0.7160800695419312
1630498073065,0.9042248725891112,0.3624841570854187,0.0340873636305332,0.7160800695419312
1630498073145,0.9042248725891112,0.3529299795627594,-0.030219480395317,0.7160800695419312
1630498073287,0.9042248725891112,0.3288973271846771,-0.0710156857967376,0.7160800695419312
1630498073335,0.9042248725891112,0.3260159790515899,-0.0893830731511116,0.7160800695419312
1630498073428,0.9042248725891112,0.3260159790515899,-0.1074810698628425,0.7160800695419312
1630498073508,0.9042248725891112,0.3260159790515899,-0.0973873138427734,0.8163751363754272
1630498073651,0.9042248725891112,0.3260159790515899,-0.0504913553595542,0.9093093276023864
1630498073777,0.9042248725891112,0.3315795958042145,-0.0361385568976402,0.9215213656425476
1630498073851,0.9042248725891112,0.3443408012390136,-0.0275663174688816,0.9285309910774232
1630498073929,0.9042248725891112,0.3443408012390136,-0.0265309568494558,0.9285309910774232
1630498074057,0.9042248725891112,0.3211711347103119,-0.0254244580864906,0.9285309910774232
1630498074117,0.9042248725891112,0.2810637056827545,-0.0248628072440624,0.9285309910774232
1630498074245,0.9042248725891112,0.2770586013793945,-0.0248628072440624,0.9285309910774232
1630498074335,0.9042248725891112,0.2770586013793945,-0.0060579348355531,0.9285309910774232
1630498074432,0.9042248725891112,0.276322066783905,0.0355315692722797,0.9285309910774232
1630498074557,0.9042248725891112,0.274229496717453,0.0462819635868072,0.9285309910774232
1630498074636,0.9042248725891112,0.2713946998119354,0.0932980179786682,0.9285309910774232
1630498074713,0.9042248725891112,0.2507537007331848,0.128904640674591,0.9284998774528505
1630498074855,0.9042248725891112,0.2298529595136642,0.1667343229055404,0.9284998774528505
1630498074969,0.9042248725891112,0.2191177755594253,0.2361215204000473,0.9262255430221558
1630498075060,0.9042248725891112,0.2191177755594253,0.3070196211338043,0.9262255430221558
1630498075169,0.9042248725891112,0.2191177755594253,0.3332411050796509,0.9262255430221558
1630498075232,0.9042248725891112,0.2191177755594253,0.3332411050796509,0.9262255430221558
1630498075328,0.9042248725891112,0.2191177755594253,0.3332411050796509,0.9262255430221558
1630498075517,0.9042248725891112,0.2191177755594253,0.3332411050796509,0.9262255430221558
1630498075549,0.9042248725891112,0.2191177755594253,0.3332411050796509,0.9262255430221558
1630498075674,0.9042248725891112,0.2191177755594253,0.3332411050796509,0.9262255430221558
1630498075768,0.9042248725891112,0.2191177755594253,0.3416746854782104,0.9262255430221558
1630498075863,1.2084152698516846,0.5007787942886353,0.3678110539913177,0.9262255430221558
1630498075941,1.2084152698516846,0.5048579573631287,0.38846555352211,0.9262255430221558
1630498076097,1.2084152698516846,0.5049269795417786,0.3692907094955444,0.9262255430221558
1630498076192,1.2084152698516846,0.5049269795417786,0.3662983179092407,0.9262255430221558
1630498076300,1.2084152698516846,0.5058350563049316,0.3741077184677124,0.9262255430221558
1630498076349,1.2084152698516846,0.506975531578064,0.3762637376785278,0.9262255430221558
1630498076489,1.2084152698516846,0.5087447762489319,0.3791485726833343,0.9262255430221558
1630498076570,1.2084152698516846,0.5087447762489319,0.3717857897281647,0.9262255430221558
1630498076708,1.2084152698516846,0.5087447762489319,0.3290660679340362,0.9262255430221558
1630498076862,1.2084152698516846,0.509760856628418,0.3409877419471741,0.9262255430221558
1630498076866,1.2084152698516846,0.5087683200836182,0.3301714360713959,0.9262255430221558
1630498076971,1.2084152698516846,0.5099341869354248,0.3418974876403808,0.9262255430221558
1630498077065,1.2084152698516846,0.5099341869354248,0.3418974876403808,0.9262255430221558
1630498077179,1.2084152698516846,0.5099341869354248,0.3418974876403808,0.9262255430221558
1630498077334,1.2084152698516846,0.4971309304237366,0.3418974876403808,0.9262255430221558
1630498077399,1.2084152698516846,0.3844603896141052,0.3418974876403808,0.9262255430221558
1630498077542,1.2297265529632568,0.2158583253622055,0.3416557312011719,0.9262255430221558
1630498077555,1.2523447275161743,0.1855067312717437,0.3320793509483337,0.9262255430221558
1630498077696,1.260279417037964,0.1837965697050094,0.3278682827949524,0.9262255430221558
1630498077788,1.2618242502212524,0.1836828142404556,0.3266831040382385,0.9262255430221558
1630498077914,1.2618242502212524,0.1832706928253173,0.3244187831878662,0.9262255430221558
1630498078005,1.2618242502212524,0.2714557647705078,0.3210457563400268,0.9262255430221558
1630498078100,1.2618242502212524,0.2624988555908203,0.315777838230133,0.9262255430221558
1630498078211,1.2618242502212524,0.2656930685043335,0.3096486032009125,0.9262255430221558
1630498078386,1.2618242502212524,0.2708128094673157,0.2992188036441803,0.9262255430221558
1630498078413,1.2618242502212524,0.3255003690719604,0.3511772751808166,0.9262255430221558
1630498078532,1.2618242502212524,0.4935856461524963,0.4472311437129974,0.9262255430221558
1630498078635,1.2618242502212524,0.57579106092453,0.4784080982208252,0.9262255430221558
1630498078713,1.250201940536499,0.5917311906814575,0.4825985431671142,0.9262255430221558
1630498078806,1.2169218063354492,0.5926202535629272,0.4846733510494232,0.9262255430221558
1630498078900,1.1964164972305298,0.5926202535629272,0.4846733510494232,0.9262255430221558
1630498078994,1.190440654754639,0.5926202535629272,0.4846733510494232,0.9262255430221558
1630498079136,1.190440654754639,0.5926202535629272,0.4846733510494232,0.9262255430221558
1630498079260,1.190440654754639,0.5926202535629272,0.4846733510494232,0.9262255430221558
1630498079338,1.190440654754639,0.5926202535629272,0.4787892997264862,0.9262255430221558
1630498079400,1.190440654754639,0.5926202535629272,0.4590085446834564,0.9262255430221558
1630498079510,0.9005504250526428,0.5926202535629272,0.4449959695339203,0.9262255430221558
1630498079621,0.9005504250526428,0.5926202535629272,0.4449959695339203,0.9262255430221558
1630498079760,0.9005504250526428,0.5926202535629272,0.4449959695339203,0.5597463846206665
1630498079855,0.9215726852416992,0.5926202535629272,0.4449959695339203,0.5610036849975586
1630498079915,0.9232507944107056,0.5926202535629272,0.4436046779155731,0.5610036849975586
1630498080056,0.9270591139793396,0.5768542289733887,0.4090902507305145,0.5610036849975586
1630498080136,0.9270591139793396,0.525018572807312,0.2920922636985779,0.5610036849975586
1630498080214,0.9270591139793396,0.4246703684329986,0.0998100861907005,0.5610036849975586
1630498080358,0.9270591139793396,0.3816926777362823,-0.1118760481476783,0.5610036849975586
1630498080454,0.9270591139793396,0.3658879697322845,-0.1133743301033973,0.5610036849975586
1630498080549,0.9270591139793396,0.3624087274074554,-0.0532621182501316,0.5610036849975586
1630498080627,0.9270591139793396,0.3855343759059906,-0.0272468384355306,0.5610036849975586
1630498080751,0.8571420311927795,0.420991986989975,-0.0144200176000595,0.5610036849975586
1630498080831,0.8110775351524353,0.4166516065597534,-0.0167033039033412,0.5610036849975586
1630498080954,0.7626860737800598,0.4233858585357666,-0.0162754040211439,0.4296586811542511
1630498081079,0.7016783952713013,0.4317697286605835,-0.0021176682785153,0.2424702793359756
1630498081173,0.6111849546432495,0.4128848910331726,0.0402942337095737,0.2424702793359756
1630498081235,0.6111849546432495,0.4210174679756164,0.0707268193364143,0.2424702793359756
1630498081362,0.6111849546432495,0.4572132229804992,0.0815897285938263,0.2424702793359756
1630498081440,0.6111849546432495,0.5071219801902771,0.0908549576997757,0.2424702793359756
1630498081566,0.6111849546432495,0.5460971593856812,0.1087055578827858,0.2424702793359756
1630498081737,0.6111849546432495,0.5460971593856812,0.1143976524472236,0.2424702793359756
1630498081801,0.6111849546432495,0.5460971593856812,0.1149092614650726,0.2424702793359756
1630498081862,0.6111849546432495,0.5460971593856812,0.1161777526140213,0.2424702793359756
1630498081959,0.6111849546432495,0.5450311899185181,0.1208366826176643,0.2424702793359756
1630498082038,0.6111849546432495,0.5395891666412354,0.1216993778944015,0.2424702793359756
1630498082178,0.6111849546432495,0.5395891666412354,0.1251809448003769,0.2424702793359756
1630498082271,0.6111849546432495,0.5395891666412354,0.1197535470128059,0.2424702793359756
1630498082335,0.6111849546432495,0.5395891666412354,0.1077388897538185,0.2424702793359756
1630498082477,0.6111849546432495,0.5362206697463989,0.1158104836940765,0.2424702793359756
1630498082552,0.7512937784194946,0.5362206697463989,0.1272936761379242,0.3830477595329284
1630498082663,0.7628225088119507,0.5362206697463989,0.1375511884689331,0.4063502848148346
1630498082778,0.7728713154792786,0.5362206697463989,0.1468134373426437,0.4325987100601196
1630498082883,0.7830237150192261,0.5151018500328064,0.1477696299552917,0.4926939606666565
1630498082976,0.7958557605743408,0.4865165948867798,0.1441706269979477,0.5742826461791992
1630498083102,0.7958557605743408,0.4480727612972259,0.1441706269979477,0.6453222036361694
1630498083165,0.7958557605743408,0.3639189600944519,0.1419273912906646,0.6453222036361694
1630498083291,0.7958557605743408,0.258008062839508,0.1406981199979782,0.6453222036361694
1630498083413,0.7958557605743408,0.1678893715143203,0.1524151712656021,0.6453222036361694
1630498083511,0.7958557605743408,0.1434530913829803,0.1904194205999374,0.6453222036361694
1630498083648,0.7958557605743408,0.1162084862589836,0.2221837639808654,0.6453222036361694
1630498083679,0.7958557605743408,0.0734691470861435,0.2271497994661331,0.6453222036361694
1630498083789,0.7152949571609497,0.0467141643166542,0.2257888317108154,0.6236112713813782
1630498083883,0.7051024436950684,0.0482790060341358,0.2247535139322281,0.620106041431427
1630498084010,0.7051024436950684,0.052393190562725,0.2166041284799575,0.620106041431427
1630498084088,0.7051024436950684,0.052393190562725,0.1961269378662109,0.6196150183677673
1630498084229,0.7051024436950684,0.0528713539242744,0.1787876486778259,0.6193557977676392
1630498084339,0.7051024436950684,0.056857094168663,0.1512995660305023,0.6193557977676392
1630498084415,0.7051024436950684,0.0548423528671264,0.1393213868141174,0.6193557977676392
1630498084507,0.7051024436950684,0.0519565604627132,0.1483633071184158,0.6193557977676392
1630498084585,0.7051024436950684,0.0483034290373325,0.1658682376146316,0.6193557977676392
1630498084710,0.7051024436950684,0.0269639287143945,0.1868110597133636,0.6193557977676392
1630498084836,0.7051024436950684,-0.0314934290945529,0.1868110597133636,0.6193557977676392
1630498084881,0.7051024436950684,-0.0669403672218322,0.1868110597133636,0.6193557977676392
1630498084990,0.7051024436950684,-0.0797410085797309,0.1868110597133636,0.6193557977676392
1630498085099,0.7051024436950684,-0.1010708063840866,0.1817696243524551,0.6193557977676392
1630498085225,0.7051024436950684,-0.123336911201477,0.1658823043107986,0.6193557977676392
1630498085334,0.7051024436950684,-0.1197488605976104,0.1537712216377258,0.6193557977676392
1630498085445,0.7051024436950684,-0.1260908544063568,0.1505951732397079,0.6193557977676392
1630498085537,0.7051024436950684,-0.1223903447389602,0.1502878218889236,0.6193557977676392
1630498085627,0.7051024436950684,-0.0578337162733078,0.1320706903934478,0.6193557977676392
1630498085679,0.4301614761352539,0.0952862054109573,0.1018683984875679,0.3435750305652618
1630498085869,0.6387142539024353,0.2954790890216827,0.0967747047543525,0.3435750305652618
1630498085937,0.6387142539024353,0.4985763728618622,0.1175659075379371,0.3435750305652618
1630498086104,0.6387142539024353,0.4985763728618622,0.2903879880905151,0.3435750305652618
1630498086111,0.6387142539024353,0.4985763728618622,0.2027234882116317,0.3435750305652618
1630498086279,0.6387142539024353,0.4985763728618622,0.3463321626186371,0.3435750305652618
1630498086340,0.6387142539024353,0.4985763728618622,0.3555703163146972,0.3435750305652618
1630498086433,0.6387142539024353,0.4985763728618622,0.3588619828224182,0.3435750305652618
1630498086543,0.6387142539024353,0.4985763728618622,0.357884407043457,0.3435750305652618
1630498086603,0.6387142539024353,0.4985763728618622,0.3651007115840912,0.3435750305652618
1630498086714,0.6387142539024353,0.4985763728618622,0.3643226623535156,0.3435750305652618
1630498086821,0.6387142539024353,0.4985763728618622,0.3594801127910614,0.3435750305652618
1630498086901,0.6225274801254272,0.4978295862674713,0.3621782958507538,0.3435750305652618
1630498087137,0.6225274801254272,0.4961251020431518,0.3674681186676025,0.3435750305652618
1630498087169,0.6225274801254272,0.4961251020431518,0.37305548787117,0.3435750305652618
1630498087232,0.6225274801254272,0.4961251020431518,0.3867861628532409,0.3435750305652618
1630498087341,0.6225274801254272,0.4961251020431518,0.3942686915397644,0.3435750305652618
1630498087439,0.6225274801254272,0.4961251020431518,0.4007101058959961,0.3435750305652618
1630498087593,0.6225274801254272,0.4961251020431518,0.4007101058959961,0.3435750305652618
1630498087657,0.6225274801254272,0.4961251020431518,0.4007101058959961,0.3435750305652618
1630498087781,0.6225274801254272,0.4961251020431518,0.3996936380863189,0.3435750305652618
1630498087831,0.6225274801254272,0.3097281455993652,0.3496509194374084,0.3435750305652618
1630498087972,0.6225274801254272,0.3791472017765045,0.2807952165603637,0.3435750305652618
1630498088036,0.6225274801254272,0.3833860754966736,0.2382044792175293,0.3435750305652618
1630498088099,0.6225274801254272,0.3858291804790497,0.247099295258522,0.3435750305652618
1630498088301,0.6225274801254272,0.3887982070446014,0.2542202174663543,0.3435750305652618
1630498088379,0.6225274801254272,0.3887982070446014,0.2623176574707031,0.3435750305652618
1630498088457,0.6225274801254272,0.3887982070446014,0.2663073241710663,0.3435750305652618
1630498088550,0.6225274801254272,0.3887982070446014,0.2663073241710663,0.3435750305652618
1630498088645,0.6225274801254272,0.3887982070446014,0.2663073241710663,0.3435750305652618
1630498088736,0.6225274801254272,0.3926355838775635,0.2452597916126251,0.3435750305652618
1630498088977,0.6225274801254272,0.4040201604366302,0.1698808372020721,0.3435750305652618
1630498089040,0.9224151968955994,0.415252685546875,0.1254765838384628,0.3435750305652618
1630498089056,0.9224151968955994,0.4383179843425751,0.1068737208843231,0.3435750305652618
1630498089199,0.9224151968955994,0.4522682130336761,0.1875840723514557,0.3435750305652618
1630498089292,0.9224151968955994,0.4522682130336761,0.2444867938756942,0.3435750305652618
1630498089386,0.9224151968955994,0.4522682130336761,0.2518310844898224,0.3435750305652618
1630498089511,0.9224151968955994,0.4323330521583557,0.2461256682872772,0.3435750305652618
1630498089589,0.9224151968955994,0.3479863405227661,0.2230567187070846,0.3435750305652618
1630498089673,0.9224151968955994,0.2887080609798431,0.1846572160720825,0.3435750305652618
1630498089751,0.9224151968955994,0.2705947756767273,0.146506130695343,0.3435750305652618
1630498089876,0.9224151968955994,0.2619791030883789,0.1279291063547134,0.3435750305652618
1630498089969,0.9224151968955994,0.2622467875480652,0.1389985680580139,0.3435750305652618
1630498090094,0.9224151968955994,0.2583676278591156,0.1616048067808151,0.3435750305652618
1630498090206,0.9224151968955994,0.2599546313285827,0.190105989575386,0.3435750305652618
1630498090347,0.9224151968955994,0.2652556300163269,0.2141158580780029,0.3435750305652618
1630498090393,0.9224151968955994,0.2732964754104614,0.2293627560138702,0.3435750305652618
1630498090518,0.9224151968955994,0.2817881107330322,0.2433105558156967,0.3435750305652618
1630498090597,1.1658258438110352,0.2867335379123688,0.2433105558156967,0.9180922508239746
1630498090711,1.17290198802948,0.2797964811325073,0.2433105558156967,0.9180922508239746
1630498090821,1.2025713920593262,0.2903755605220794,0.2334173023700714,0.9180922508239746
1630498090943,1.254901647567749,0.3106624782085418,0.1825831085443496,0.9180922508239746
1630498091005,1.2999368906021118,0.3007280826568603,0.1318453252315521,0.9180922508239746
1630498091114,1.2999368906021118,0.2885778248310089,0.1204689815640449,0.9180922508239746
1630498091161,1.2999368906021118,0.2871927917003631,0.1204689815640449,0.9180922508239746
1630498091317,1.2999368906021118,0.2972520887851715,0.1204689815640449,0.9180922508239746
1630498091427,1.2999368906021118,0.3165266215801239,0.1204689815640449,0.9180922508239746
1630498091552,1.2999368906021118,0.3297984004020691,0.1204689815640449,0.9180922508239746
1630498091662,1.2999368906021118,0.3323134183883667,0.1204689815640449,0.9180922508239746
1630498091755,1.2999368906021118,0.3186904489994049,0.1193930655717849,0.9180922508239746
1630498091786,1.2999368906021118,0.3150098323822021,0.098251424729824,0.9016340970993042
1630498091927,1.2999368906021118,0.3150098323822021,0.0791478306055069,0.895897626876831
1630498092067,1.295541524887085,0.3150098323822021,0.0740769952535629,0.8869193196296692
1630498092114,1.2824088335037231,0.3150098323822021,0.0326746515929698,0.8869193196296692
1630498092224,1.2824088335037231,0.3121297359466553,0.0522669292986393,0.8869193196296692
1630498092349,1.2824088335037231,0.3121297359466553,0.0854349881410598,0.8869193196296692
1630498092427,1.2824088335037231,0.3067323267459869,0.1115313991904258,0.8869193196296692
1630498092552,1.2824088335037231,0.3196788132190704,0.1471473276615142,0.4345787167549133
1630498092677,0.7596145868301392,0.3498615622520447,0.1913208812475204,0.448032021522522
1630498092723,0.7903977036476135,0.3525133728981018,0.2080215513706207,0.4500439465045929
1630498092833,0.8020013570785522,0.345443844795227,0.2128303498029709,0.4500439465045929
1630498092942,0.8062258958816528,0.3394221067428589,0.2100442796945572,0.4530344307422638
1630498093067,0.8190876841545105,0.3398236632347107,0.2107975929975509,0.4769383370876312
1630498093163,0.8262368440628052,0.3467811644077301,0.2107975929975509,0.5480774641036987
1630498093288,0.8262368440628052,0.3568409085273742,0.2109875231981277,0.5480774641036987
1630498093351,0.8262368440628052,0.3581853806972503,0.2109875231981277,0.5480774641036987
1630498093460,0.8262368440628052,0.3581853806972503,0.2109875231981277,0.5480774641036987
1630498093538,0.8262368440628052,0.3581853806972503,0.2109875231981277,0.5480774641036987
1630498093648,0.8262368440628052,0.3581853806972503,0.215039923787117,0.5480774641036987
1630498093819,0.8262368440628052,0.3581853806972503,0.2080519348382949,0.5436890721321106
1630498093867,0.8262368440628052,0.3660889565944671,0.1786478906869888,0.5228192210197449
1630498093976,0.8195460438728333,0.3792249858379364,0.1224779710173606,0.4899365901947021
1630498094069,0.7999169230461121,0.3872480094432831,0.1044219210743904,0.4487166702747345
1630498094197,0.7239148616790771,0.4005573391914367,0.0803043693304061,0.4201333224773407
1630498094244,0.7081062197685242,0.4384731948375702,0.0494068972766399,0.4104216396808624
1630498094384,0.7081062197685242,0.4195782244205475,0.0657560378313064,0.4104216396808624
1630498094478,0.7081062197685242,0.3998559713363647,0.0457775294780731,0.4104216396808624
1630498094556,0.7081062197685242,0.3859581649303436,0.0343634895980358,0.4104216396808624
1630498094666,0.7081062197685242,0.3740965127944946,0.0394646078348159,0.4104216396808624
1630498094791,1.2392605543136597,0.3591351807117462,0.0413284301757812,0.4104216396808624
1630498094916,1.278207778930664,0.348889946937561,0.0426818765699863,0.4104216396808624
1630498095009,1.285339593887329,0.3348431289196014,0.0426818765699863,0.4104216396808624
1630498095072,1.286076307296753,0.3435556888580322,0.0437931604683399,0.4104216396808624
1630498095181,1.286076307296753,0.3435556888580322,0.0437931604683399,0.4104216396808624
1630498095322,1.286076307296753,0.3435556888580322,0.0428145043551921,0.4104216396808624
1630498095384,1.286076307296753,0.3435556888580322,0.1070041880011558,0.4104216396808624
1630498095509,1.286076307296753,0.325821965932846,0.2616329193115234,0.4104216396808624
1630498095619,1.286076307296753,0.3200874626636505,0.3650945425033569,0.4104216396808624
1630498095697,1.286076307296753,0.3629709780216217,0.4012702703475952,0.4104216396808624
1630498095791,1.286076307296753,0.3763099312782287,0.4177501797676086,0.4104216396808624
1630498095884,1.286076307296753,0.3763099312782287,0.4336167871952057,0.4104216396808624
1630498095978,1.271332025527954,0.3763099312782287,0.4848462641239166,0.4104216396808624
1630498096056,1.2562228441238403,0.3763099312782287,0.5171830058097839,0.4104216396808624
1630498096259,1.2556923627853394,0.3763099312782287,0.5207604765892029,0.4104216396808624
1630498096290,1.2556923627853394,0.3763099312782287,0.5207604765892029,0.4104216396808624
1630498096463,1.2556923627853394,0.3763099312782287,0.5207604765892029,0.4104216396808624
1630498096494,1.2556923627853394,0.3759056031703949,0.5209798216819763,0.4104216396808624
1630498096619,1.2556923627853394,0.3909600079059601,0.5281867980957031,0.4104216396808624
1630498096713,0.7932184934616089,0.3952938318252563,0.5346158146858215,0.191282719373703
1630498096822,0.8328627347946167,0.3952938318252563,0.5346158146858215,0.2254821211099624
1630498096932,0.8685774207115173,0.3952938318252563,0.5346158146858215,0.2294970154762268
1630498097056,0.8816580772399902,0.3952938318252563,0.5346158146858215,0.2294970154762268
1630498097119,0.8872724771499634,0.3952938318252563,0.5298444628715515,0.2294970154762268
1630498097200,0.8888396620750427,0.3532295227050781,0.47519651055336,0.2294970154762268
1630498097340,0.889038622379303,0.2924626171588897,0.4167412221431732,0.2328144609928131
1630498097418,0.889038622379303,0.2300433963537216,0.3907913863658905,0.2551555931568146
1630498097528,0.889038622379303,0.1627508997917175,0.3760963976383209,0.2745122015476227
1630498097606,0.889038622379303,0.0716457068920135,0.3602953553199768,0.2745122015476227
1630498097715,0.889038622379303,0.0287067200988531,0.2800448536872864,0.2745122015476227
1630498097825,0.8893833160400391,0.094594232738018,0.1470339149236679,0.2745122015476227
1630498097887,0.8601235747337341,0.147116333246231,0.0200970266014337,0.2654088735580444
1630498098028,0.841249406337738,0.1582569032907486,-0.0455503016710281,0.2580881118774414
1630498098130,0.8143072128295898,0.1482763141393661,-0.0455503016710281,0.2434455305337906
1630498098205,0.7781656980514526,0.1289957761764526,-0.0607576817274093,0.2381680011749267
1630498098314,0.7764275074005127,0.1095423176884651,-0.0736653059720993,0.3454764485359192
1630498098408,0.7764275074005127,0.0956364348530769,-0.0058057359419763,0.308318167924881
1630498098518,0.7523462772369385,0.0936479941010475,-0.0176436249166727,0.3011152744293213
1630498098643,0.7342100739479065,0.0936479941010475,-0.0286492314189672,0.3011152744293213
1630498098768,0.7097921967506409,0.0933342650532722,-0.0313269905745983,0.3011152744293213
1630498098830,0.685032844543457,0.0862239822745323,-0.0347698293626308,0.3011152744293213
1630498098924,0.6482947468757629,0.0735139399766922,0.115144170820713,0.3003196120262146
1630498099021,0.6381399035453796,0.0656824260950088,0.1377387046813964,0.2977925539016723
1630498099099,0.6381399035453796,0.0628062710165977,0.1397913247346878,0.2977925539016723
1630498099239,0.6381399035453796,0.0628062710165977,0.1397913247346878,0.2977925539016723
1630498099349,0.6381399035453796,0.1386303305625915,0.1418718099594116,0.2977925539016723
1630498099443,0.6381399035453796,0.1330197900533676,0.1426919102668762,0.2977925539016723
1630498099536,0.6381399035453796,0.1044125854969024,0.158194214105606,0.2977925539016723
1630498099630,0.6381399035453796,0.0562231428921222,0.1961996704339981,0.2977925539016723
1630498099739,0.6381399035453796,0.0218110904097557,0.2381362617015838,0.2977925539016723
1630498099864,0.6381399035453796,0.0218110904097557,0.2732917666435241,0.2977925539016723
1630498099942,0.6381399035453796,0.0218110904097557,0.2833289504051208,0.2977925539016723
1630498100036,0.6381399035453796,0.0218110904097557,0.2920887768268585,0.2977925539016723
1630498100163,0.6381399035453796,0.0218110904097557,0.3062822520732879,0.2977925539016723
1630498100242,0.6381399035453796,0.0218110904097557,0.3291406333446502,0.2977925539016723
1630498100320,0.6381399035453796,0.0225321613252162,0.352385401725769,0.2977925539016723
1630498100515,0.6381399035453796,0.0231146719306707,0.351511001586914,0.7490512132644653
1630498100578,0.6381399035453796,0.0288027040660381,0.3497178256511688,0.7589009404182434
1630498100669,0.6381399035453796,0.0646729990839958,0.3469599187374115,0.7589009404182434
1630498100748,0.6381399035453796,0.1350663751363754,0.3533968925476074,0.7589009404182434
1630498100873,0.6381399035453796,0.1756864190101623,0.36394003033638,0.7589009404182434
1630498100972,0.6381399035453796,0.1514203548431396,0.3847140967845917,0.7589009404182434
1630498101113,0.6381399035453796,0.1232809349894523,0.388999342918396,0.7589009404182434
1630498101175,0.6381399035453796,0.1374304592609405,0.3893596231937408,0.823183000087738
1630498101258,1.219720482826233,0.1787942498922348,0.3893596231937408,0.8905877470970154
1630498101367,1.26882004737854,0.217156320810318,0.3788958489894867,0.9480604529380798
1630498101445,1.270117998123169,0.2208927124738693,0.348439484834671,0.9716494679450988
1630498101539,1.270117998123169,0.2208927124738693,0.3458341062068939,0.975933313369751
1630498101680,1.270117998123169,0.2208927124738693,0.3443719446659088,0.975933313369751
1630498101820,1.270117998123169,0.2208927124738693,0.3390455245971679,0.975933313369751
1630498101867,1.270117998123169,0.2230930924415588,0.3112974464893341,0.9667940139770508
1630498101992,1.270117998123169,0.225303366780281,0.2626546621322632,0.9101908802986144
1630498102055,1.270117998123169,0.225303366780281,0.2630459070205688,0.797481894493103
1630498102180,1.280754327774048,0.2136912047863006,0.2633817493915558,0.797481894493103
1630498102323,1.3500638008117676,0.1961806565523147,0.2577817440032959,0.797481894493103
1630498102385,1.407577395439148,0.1758006960153579,0.2657130360603332,0.797481894493103
1630498102526,1.407577395439148,0.154849499464035,0.2635752260684967,0.797481894493103
1630498102588,1.407577395439148,0.1440120339393615,0.2635752260684967,0.797481894493103
1630498102745,1.407577395439148,0.1350817531347274,0.2635752260684967,0.783621072769165
1630498102776,1.4050222635269165,0.122346706688404,0.2675218284130096,0.7727413177490234
1630498102916,1.364922046661377,0.1080982983112335,0.2706130146980285,0.73798006772995
1630498103026,1.3028570413589478,0.1031232103705406,0.3143001794815063,0.6473191380500793
1630498103119,1.2850472927093506,0.1248838081955909,0.33968386054039,0.4818738996982574
1630498103213,1.2850472927093506,0.1970839351415634,0.33968386054039,0.4818738996982574
1630498103307,1.2850472927093506,0.2214964926242828,0.344008207321167,0.4818738996982574
1630498103448,1.2850472927093506,0.2214964926242828,0.3509366810321808,0.4818738996982574
1630498103541,1.2850472927093506,0.2214964926242828,0.3578637838363647,0.4818738996982574
1630498103619,1.2828795909881592,0.2227165549993515,0.3740078508853912,0.4818738996982574
1630498103713,1.2627689838409424,0.2236406356096267,0.3620954155921936,0.4818738996982574
1630498103822,1.2513779401779177,0.2231302559375763,0.3265044689178467,0.4818738996982574
1630498103885,0.9819220900535583,0.2224762886762619,0.3011075854301452,0.4818738996982574
1630498103994,1.1391223669052124,0.2185186743736267,0.2761670649051666,0.4818738996982574
1630498104166,1.2846155166625977,0.270281434059143,0.2616108357906341,0.4818738996982574
1630498104229,1.3702313899993896,0.3296218514442444,0.2561291456222534,0.4818738996982574
1630498104369,1.3702313899993896,0.3474792242050171,0.2540033161640167,0.4818738996982574
1630498104416,1.3702313899993896,0.3635764718055725,0.2504945993423462,0.4818738996982574
1630498104557,1.3702313899993896,0.4103876948356628,0.2504945993423462,0.4818738996982574
1630498104588,1.3702313899993896,0.4352006614208221,0.233814463019371,0.4818738996982574
1630498104760,1.3676484823226929,0.4289058744907379,0.1722821742296219,0.4818738996982574
1630498104853,1.3676484823226929,0.4241743385791778,0.1398179531097412,0.4818738996982574
1630498104932,1.3689630031585691,0.4241743385791778,0.1398179531097412,0.4818738996982574
1630498105057,1.3698348999023438,0.4241743385791778,0.1398179531097412,0.4818738996982574
1630498105119,1.3728102445602417,0.4241743385791778,0.1398179531097412,0.4818738996982574
1630498105213,1.3728102445602417,0.422968327999115,0.1368409246206283,0.4818738996982574
1630498105387,1.3728102445602417,0.421199083328247,0.103540264070034,0.4818738996982574
1630498105434,1.3728102445602417,0.4214661121368408,0.0533713474869728,0.4818738996982574
1630498105543,1.3728102445602417,0.422926664352417,0.0074449032545089,0.4818738996982574
1630498105621,1.3677406311035156,0.4288478493690491,0.0613179244101047,0.4818738996982574
1630498105730,0.7787930965423584,0.4351232051849365,0.1519331783056259,0.4818738996982574
1630498105840,0.7787930965423584,0.4303690791130066,0.2160511761903762,0.4818738996982574
1630498105965,0.7787930965423584,0.4125264585018158,0.2375852316617965,0.4818738996982574
1630498106090,0.7787930965423584,0.3950051665306091,0.2412443310022354,0.4818738996982574
1630498106152,0.7787930965423584,0.3422363698482513,0.2500487565994262,0.4818738996982574
1630498106262,0.7787930965423584,0.2431583255529403,0.2563188672065735,0.4818738996982574
1630498106340,0.7787930965423584,0.1988784521818161,0.2620653212070465,0.4818738996982574
1630498106449,0.7787930965423584,0.1882147639989853,0.2670341730117798,0.4818738996982574
1630498106599,0.7787930965423584,0.1818737387657165,0.2691223919391632,0.4818738996982574
1630498106662,0.7787930965423584,0.1818737387657165,0.2688498795032501,0.4818738996982574
1630498106771,1.024247407913208,0.1818660348653793,0.2682844996452331,-0.0316756889224052
1630498106865,1.042417287826538,0.1754850894212722,0.2682844996452331,0.0387415774166584
1630498106943,1.0452691316604614,0.1649303287267685,0.2682844996452331,0.0745176002383232
1630498107053,1.0527942180633545,0.1478211432695388,0.2682844996452331,0.1030285134911537
1630498107180,1.0562872886657717,0.1596725285053253,0.2682844996452331,0.1516502797603607
1630498107320,1.081464767456055,0.1746049225330352,0.2682844996452331,0.1516502797603607
1630498107352,1.081464767456055,0.1828000396490097,0.2423626780509948,0.1516502797603607
1630498107461,1.081464767456055,0.1809069365262985,0.15916109085083,0.1516502797603607
1630498107555,1.081464767456055,0.165031298995018,0.1079713180661201,0.1516502797603607
1630498107649,1.081464767456055,0.1989562362432479,0.1340831965208053,0.1516502797603607
1630498107805,1.081464767456055,0.2821580767631531,0.1336627453565597,0.1516502797603607
1630498107898,1.081464767456055,0.3498807251453399,0.1336627453565597,0.1516502797603607
1630498108008,1.0763521194458008,0.372220367193222,0.1336627453565597,0.1495872437953949
1630498108086,1.0588992834091189,0.372220367193222,0.1336627453565597,0.1363142728805542
1630498108180,1.0362300872802734,0.372220367193222,0.1336627453565597,0.1125437691807746
1630498108258,1.0155044794082642,0.372220367193222,0.1336627453565597,0.0756032094359397
1630498108430,1.0074925422668457,0.3705532550811767,0.1336627453565597,0.0756032094359397
1630498108476,1.078730821609497,0.3670744597911834,0.1326014846563339,0.0756032094359397
1630498108586,1.081052541732788,0.3722543120384216,0.1296541690826416,0.0756032094359397
1630498108680,1.0918046236038208,0.3891345560550689,0.1286094933748245,0.0756032094359397
1630498108804,0.9231680035591124,0.3898319005966186,0.1286094933748245,0.0756032094359397
1630498108851,0.9427597522735596,0.3789356648921966,0.1276488155126571,0.5819795727729797
1630498109039,0.994358777999878,0.37288898229599,0.1262642741203308,0.5867400765419006
1630498109103,1.034467101097107,0.3708274960517883,0.1240741834044456,0.5887575745582581
1630498109182,1.034467101097107,0.3708274960517883,0.0740082338452339,0.5887575745582581
1630498109276,1.034467101097107,0.3706853687763214,-0.0518844239413738,0.5887575745582581
1630498109416,1.034467101097107,0.3627923429012298,-0.087639681994915,0.5887575745582581
1630498109557,1.034467101097107,0.3108812868595123,0.0679949671030044,0.5887575745582581
1630498109635,1.034467101097107,0.2233739495277404,0.2048080414533615,0.5887575745582581
1630498109698,1.034467101097107,0.1588316708803177,0.2742559611797333,0.5887575745582581
1630498109791,1.034467101097107,0.1431956887245178,0.2996197938919067,0.5887575745582581
1630498109932,1.034467101097107,0.1431956887245178,0.3115318417549133,0.5887575745582581
1630498109979,0.974377453327179,0.1431956887245178,0.3145897090435028,0.5887575745582581
1630498110119,0.9734225869178772,0.1402048170566558,0.3221901655197143,0.4905383586883545
1630498110307,0.9734225869178772,0.1266342252492904,0.3352062106132507,0.3069804906845093
1630498110354,0.9734225869178772,0.0375826731324195,0.3416583836078644,0.3069804906845093
1630498110416,0.9734225869178772,-0.1478278636932373,0.3513578176498413,0.3069804906845093
1630498110510,0.9734225869178772,-0.1478278636932373,0.3645801544189453,0.3069804906845093
1630498110650,0.9734225869178772,-0.1478278636932373,0.3709271848201751,0.3069804906845093
1630498110729,0.9734225869178772,-0.1478278636932373,0.3649993240833282,0.3069804906845093
1630498110838,0.9734225869178772,-0.1478278636932373,0.3584382236003876,0.3069804906845093
1630498110932,0.9734225869178772,-0.0265221036970615,0.3584382236003876,0.3069804906845093
1630498111072,0.9734225869178772,0.0411391369998455,0.3584382236003876,0.0852205753326416
1630498111166,0.5646551251411438,0.0781286060810089,0.3584382236003876,0.1907804012298584
1630498111228,0.6653186678886414,0.0824631750583648,0.3337597250938415,0.2756998836994171
1630498111322,0.7968644499778748,0.0824631750583648,0.2720462679862976,0.324172705411911
1630498111447,0.9355681538581848,0.0824631750583648,0.2239472568035125,0.324172705411911
1630498111541,1.0998027324676514,0.0824631750583648,0.1562666743993759,0.324172705411911
1630498111635,1.2963305711746216,0.0831267312169075,0.1026652231812477,0.324172705411911
1630498111744,1.4065883159637451,0.097040057182312,0.0854533687233924,0.324172705411911
1630498111806,1.4419877529144287,0.097040057182312,0.0803942456841468,0.324172705411911
1630498111963,1.4419877529144287,0.0971863567829132,0.0803942456841468,0.324172705411911
1630498112088,1.4419877529144287,0.0999606549739837,0.0803942456841468,0.324172705411911
1630498112197,1.4419877529144287,0.1047941520810127,0.0707374289631843,0.324172705411911
1630498112228,1.4419877529144287,0.1062754392623901,0.0426539815962314,0.2938861548900604
1630498112353,1.4419877529144287,0.1149151250720024,-0.0048513156361877,0.2358623892068863
1630498112447,1.4419877529144287,0.1161940395832061,-0.0170351602137088,0.2068306654691696
1630498112525,1.4419877529144287,0.1027937605977058,0.0312920100986957,0.2068306654691696
1630498112681,1.4419877529144287,0.0673955157399177,0.0632620081305503,0.2068306654691696
1630498112759,1.4419877529144287,0.088044948875904,0.0650789439678192,0.2068306654691696
1630498112837,1.4419877529144287,0.2328517735004425,0.0650789439678192,0.2068306654691696
1630498112947,1.4419877529144287,0.382259339094162,0.0522327572107315,0.2068306654691696
1630498113087,1.4419877529144287,0.441342681646347,0.0102718900889158,0.2068306654691696
1630498113134,1.4419877529144287,0.4549237489700317,-0.001328712562099,0.2068306654691696
1630498113306,1.4419877529144287,0.4549237489700317,0.0025261535774916,0.2068306654691696
1630498113415,1.4419877529144287,0.4549237489700317,-0.004118082113564,0.2068306654691696
1630498113431,1.4419877529144287,0.4549237489700317,-0.0119551373645663,0.2068306654691696
1630498113587,1.4419877529144287,0.4549237489700317,-0.0151236839592456,0.2068306654691696
1630498113665,1.4419877529144287,0.4549237489700317,-0.0208069309592247,0.2068306654691696
1630498113775,1.4419877529144287,0.4549237489700317,-0.0116979395970702,0.2068306654691696
1630498113900,1.4419877529144287,0.4549237489700317,-0.0081398980692029,0.2068306654691696
