timestamp,TP9,AF7,AF8,TP10
1630497978095,0.4618127942085266,0.5169849395751953,0.4261048436164856,0.6472108364105225
1630497978161,0.4618127942085266,0.5350518822669983,0.488828957080841,0.6472108364105225
1630497978259,0.4618127942085266,0.5917696952819824,0.5885341763496399,0.6472108364105225
1630497978342,0.4618127942085266,0.6621751189231873,0.6978238224983215,0.6472108364105225
1630497978437,0.4618127942085266,0.7234286069869995,0.7831751108169556,0.6472108364105225
1630497978556,0.4618127942085266,0.7445176839828491,0.8355975151062012,0.6472108364105225
1630497978676,0.4618127942085266,0.7264541387557983,0.8630282878875732,0.6472108364105225
1630497978758,0.4618127942085266,0.6931051015853882,0.8779166340827942,0.6472108364105225
1630497978872,0.4618127942085266,0.6677061319351196,0.8866308331489563,0.6472108364105225
1630497978960,0.4618127942085266,0.6615242958068848,0.8852137327194214,0.6472108364105225
1630497979057,0.4618127942085266,0.6772674322128296,0.878341794013977,0.6472108364105225
1630497979182,0.4618127942085266,0.7002387046813965,0.8693369626998901,0.6472108364105225
1630497979299,0.4618127942085266,0.7234371900558472,0.8643016219139099,0.6472108364105225
1630497979413,0.4618127942085266,0.7397846579551697,0.8657368421554565,0.6472108364105225
1630497979492,0.4618127942085266,0.7508997321128845,0.872836709022522,0.6472108364105225
1630497979588,0.4618127942085266,0.7580757141113281,0.8721602559089661,0.6472108364105225
1630497979660,0.4618127942085266,0.7495067119598389,0.8513380885124207,0.6472108364105225
1630497979790,0.4618127942085266,0.7188369035720825,0.8089499473571777,0.6472108364105225
1630497979891,0.4618127942085266,0.6684882640838623,0.7456603050231934,0.6472108364105225
1630497980003,0.4618127942085266,0.6188269257545471,0.6745333075523376,0.6472108364105225
1630497980094,0.4618127942085266,0.5896952748298645,0.6096483469009399,0.6472108364105225
1630497980176,0.4618127942085266,0.5935656428337097,0.5609711408615112,0.6472108364105225
1630497980287,0.4618127942085266,0.6108868718147278,0.5226903557777405,0.6472108364105225
1630497980413,0.4618127942085266,0.633644700050354,0.4923059046268463,0.6472108364105225
1630497980523,0.4618127942085266,0.651623547077179,0.4779908061027527,0.6472108364105225
1630497980585,0.4618127942085266,0.6543785333633423,0.4612114429473877,0.6472108364105225
1630497980682,0.4618127942085266,0.650664746761322,0.4418635368347168,0.6472108364105225
1630497980797,0.4618127942085266,0.6473126411437988,0.418138176202774,0.6472108364105225
1630497980914,0.4618127942085266,0.6570913791656494,0.3916327059268951,0.6472108364105225
1630497981040,0.4618127942085266,0.6755503416061401,0.3675423562526703,0.6472108364105225
1630497981116,0.4618127942085266,0.6982741355895996,0.3526996970176697,0.6472108364105225
1630497981195,0.4618127942085266,0.724711537361145,0.3400979042053222,0.6472108364105225
1630497981289,0.4618127942085266,0.7432721853256226,0.3158318102359772,0.6472108364105225
1630497981426,0.4618127942085266,0.7432721853256226,0.2700605690479278,0.6472108364105225
1630497981489,0.4618127942085266,0.7432721853256226,0.2029289156198501,0.6472108364105225
1630497981638,0.4618127942085266,0.7432721853256226,0.1389091908931732,0.6472108364105225
1630497981716,0.4618127942085266,0.7432721853256226,0.1002398058772087,0.6472108364105225
1630497981822,0.4618127942085266,-0.2408537417650222,0.0815958455204963,0.6472108364105225
1630497981931,0.4618127942085266,-0.2551514804363251,0.0725458413362503,0.6472108364105225
1630497982011,0.4618127942085266,-0.2508596777915954,0.0674277245998382,0.9582452178001404
1630497982125,0.4618127942085266,-0.2526805400848388,0.0728938430547714,0.9189069867134094
1630497982242,0.4618127942085266,-0.1739896684885025,0.0772588551044464,0.9531186819076538
1630497982338,0.4618127942085266,0.0236232578754425,0.1041316613554954,0.9531186819076538
1630497982421,0.4618127942085266,0.2399835437536239,0.1555190682411193,0.9531186819076538
1630497982524,0.4618127942085266,0.4140523374080658,0.2368545085191726,0.9531186819076538
1630497982624,0.4618127942085266,0.5280827283859253,0.3441237807273865,0.9531186819076538
1630497982724,0.4618127942085266,0.5893849730491638,0.4737557172775268,0.9531186819076538
1630497982876,0.4618127942085266,0.611327052116394,0.5974545478820801,0.9531186819076538
1630497982937,0.4618127942085266,0.6115992069244385,0.6897716522216797,0.9531186819076538
1630497983061,0.4618127942085266,0.6188316941261292,0.7415415644645691,0.9531186819076538
1630497983173,0.4618127942085266,0.6216490268707275,0.7603368759155273,0.9531186819076538
1630497983271,0.4618127942085266,0.6262929439544678,0.762863278388977,0.8919335603713989
1630497983319,0.4618127942085266,0.6337798833847046,0.7615794539451599,0.8740137219429016
1630497983440,0.4618127942085266,0.6412845253944397,0.7592614889144897,0.8740137219429016
1630497983542,0.4618127942085266,0.647377610206604,0.7574291825294495,0.8740137219429016
1630497983640,0.4618127942085266,0.6518435478210449,0.7550815343856812,0.8740137219429016
1630497983743,0.4618127942085266,0.6513408422470093,0.7539510130882263,0.8740137219429016
1630497983839,0.4618127942085266,0.6363715529441833,0.7517860531806946,0.8740137219429016
1630497983953,0.4618127942085266,0.6055992245674133,0.7475914359092712,0.8740137219429016
1630497984073,0.4618127942085266,0.5620213150978088,0.7350842356681824,0.8740137219429016
1630497984226,0.4618127942085266,0.5131460428237915,0.70264732837677,0.8740137219429016
1630497984262,0.4618127942085266,0.4668310880661011,0.6311907768249512,0.8740137219429016
1630497984354,0.4618127942085266,0.4298110008239746,0.5103977918624878,0.8740137219429016
1630497984443,0.4618127942085266,0.4015921652317047,0.354197084903717,0.8740137219429016
1630497984538,0.4618127942085266,0.3873252272605896,0.2167661637067794,0.8740137219429016
1630497984692,0.4618127942085266,0.3822309672832489,0.153563842177391,0.8740137219429016
1630497984808,0.4618127942085266,0.3721833825111389,0.1450123041868209,0.8740137219429016
1630497984874,0.4618127942085266,0.3561210334300995,0.1545539051294326,0.8740137219429016
1630497984999,0.4618127942085266,0.339157223701477,0.1747218072414398,0.8740137219429016
1630497985047,0.4618127942085266,0.3245858252048492,0.1971190273761749,0.8740137219429016
1630497985178,0.2406292259693145,0.3152461647987366,0.2160860002040863,0.5089218616485596
1630497985308,0.1938510239124298,0.3039336800575256,0.222158670425415,0.5102801322937012
1630497985359,0.1808992624282837,0.2848511934280395,0.206452339887619,0.4878609478473663
1630497985476,0.1750476360321045,0.2384549230337143,0.1631639003753662,0.4503813982009887
1630497985625,0.1757678985595703,0.1468764394521713,0.0947456359863281,0.414801150560379
1630497985671,0.1672118604183197,0.0093564204871654,0.0169939026236534,0.3863859474658966
1630497985765,0.1548884958028793,-0.1530655473470688,-0.0453277193009853,0.3585918843746185
1630497985943,0.1474382281303405,-0.2890679538249969,-0.0827131196856498,0.3305865824222564
1630497986002,0.1474382281303405,-0.3675075471401214,-0.1100959107279777,0.3034158647060394
1630497986096,0.1474382281303405,-0.4040749669075012,-0.1374464780092239,0.2777937650680542
1630497986245,0.1474382281303405,-0.4113832116127014,-0.1611298620700836,0.2569909691810608
1630497986303,0.1474382281303405,-0.3966607749462127,-0.1834158450365066,0.2410174310207367
1630497986395,0.1001391559839248,-0.3686127960681915,-0.2143058478832245,0.2214590907096862
1630497986543,0.0811937227845192,-0.3388651609420776,-0.2719059884548187,0.1775014102458953
1630497986627,0.0678919479250907,-0.3143337666988373,-0.3545524477958679,0.1087528243660926
1630497986725,0.0835664868354797,-0.3051153421401977,-0.4520561695098877,0.0336714386940002
1630497986788,0.1045708507299423,-0.2992851138114929,-0.5313433408737183,-0.032840896397829
1630497986896,0.1035532280802726,-0.2981637120246887,-0.5701423287391663,-0.0676517114043235
1630497986976,0.0944476500153541,-0.2928843796253204,-0.5738508105278015,-0.061739258468151
1630497987126,0.0944476500153541,-0.2841016948223114,-0.5623769760131836,-0.0357093289494514
1630497987225,0.0944476500153541,-0.2627216279506683,-0.5211332440376282,0.0045918943360447
1630497987327,0.0944476500153541,-0.2263987511396408,-0.4431012570858001,0.065809778869152
1630497987411,0.0944476500153541,-0.1907733529806137,-0.349785715341568,0.1351548433303833
1630497987525,0.0944476500153541,-0.165639266371727,-0.2749598324298858,0.1978009194135666
1630497987603,0.0944476500153541,-0.1485989391803741,-0.2327899783849716,0.2502822279930115
1630497987760,0.0944476500153541,-0.1407381296157837,-0.2191553264856338,0.2879944443702698
1630497987860,0.0944476500153541,-0.1412136852741241,-0.2159430384635925,0.3110650777816772
1630497987959,0.0944476500153541,-0.1505494564771652,-0.2147055119276046,0.3229089379310608
1630497988042,0.0944476500153541,-0.165062814950943,-0.2100044190883636,0.330348789691925
1630497988191,0.0944476500153541,-0.2094072252511978,-0.1913802772760391,0.3389970958232879
1630497988340,0.0944476500153541,-0.2312980145215988,-0.1877317875623703,0.3377772867679596
1630497988426,0.0944476500153541,-0.2513977289199829,-0.1860647499561309,0.3308168947696686
1630497988598,0.0944476500153541,-0.3042610287666321,-0.1903369575738906,0.3019658029079437
1630497988611,0.0944476500153541,-0.2758329212665558,-0.1858762353658676,0.3188806772232055
1630497988692,0.0944476500153541,-0.3464039862155914,-0.2088441550731659,0.2770192325115204
1630497988802,0.0944476500153541,-0.4006619453430176,-0.2438894808292389,0.2455579787492752
1630497988979,0.0944476500153541,-0.4514859914779663,-0.2868399322032928,0.2103232443332672
1630497989046,0.0944476500153541,-0.4845751523971557,-0.3155291080474853,0.1727457791566848
1630497989143,0.0944476500153541,-0.5020462274551392,-0.3185283839702606,0.1327122896909713
1630497989226,0.0944476500153541,-0.4996778070926666,-0.3084061443805694,0.0963208973407745
1630497989338,0.0944476500153541,-0.4811713695526123,-0.3033556044101715,0.0700041875243187
1630497989449,0.0944476500153541,-0.438620775938034,-0.3054441511631012,0.0680896863341331
1630497989587,0.0944476500153541,-0.3857286870479584,-0.3109582364559173,0.0787445083260536
1630497989646,0.0944476500153541,-0.3363782167434692,-0.3176509737968445,0.0924782529473304
1630497989758,0.0944476500153541,-0.3056901693344116,-0.3222403824329376,0.1005017384886741
1630497989857,0.0944476500153541,-0.2909627556800842,-0.3254352807998657,0.1019185185432434
1630497989972,0.0944476500153541,-0.2824963331222534,-0.3323589563369751,0.1013449355959892
1630497990035,0.0944476500153541,-0.2704801857471466,-0.3445254564285278,0.099453791975975
1630497990190,0.0944476500153541,-0.2509724199771881,-0.3593658208847046,0.102074846625328
1630497990285,0.0944476500153541,-0.2266310006380081,-0.3714794218540191,0.1082872822880745
1630497990404,0.0944476500153541,-0.2069386541843414,-0.389970451593399,0.1056296452879905
1630497990467,0.0944476500153541,-0.1989803463220596,-0.4198021590709686,0.0880061388015747
1630497990529,0.0944476500153541,-0.1998696774244308,-0.4527208507061004,0.0689706057310104
1630497990639,0.0944476500153541,-0.2011863887310028,-0.4728865921497345,0.0648828446865081
1630497990795,0.0944476500153541,-0.2023063451051712,-0.470789223909378,0.0797215327620506
1630497990873,0.5043712854385376,-0.2065254896879196,-0.4605057537555694,0.1070696860551834
1630497990982,0.4969106316566467,-0.2191978991031646,-0.4566806256771087,0.123211458325386
1630497991061,0.4721949398517608,-0.2416604310274124,-0.4588856995105743,0.1241637021303176
1630497991232,0.4314329326152801,-0.2606971561908722,-0.4660325646400451,0.1174113824963569
1630497991232,0.3944198489189148,-0.2689787447452545,-0.4754712879657745,0.1166832074522972
1630497991407,0.3532942533493042,-0.2731784880161285,-0.4821047782897949,0.1305667012929916
1630497991469,0.315721720457077,-0.2792482674121856,-0.4837339222431183,0.1523808687925338
1630497991610,0.2830262184143066,-0.2913417816162109,-0.478793740272522,0.1754974424839019
1630497991688,0.255953311920166,-0.3115301132202148,-0.4640436768531799,0.1852068305015564
1630497991750,0.2380661368370056,-0.3366061151027679,-0.4474524259567261,0.1874883770942688
1630497991985,0.2266044914722442,-0.359548956155777,-0.4229134321212768,0.1907179355621338
1630497992063,0.220857098698616,-0.3783389329910278,-0.3906590640544891,0.2004773318767547
1630497992094,0.1929845809936523,-0.3968810439109802,-0.3668791949748993,0.207174077630043
1630497992172,0.139932632446289,-0.4199801087379455,-0.3679534196853637,0.1994571387767791
1630497992266,0.0792093276977539,-0.4419625401496887,-0.3904033005237579,0.1785857826471328
1630497992375,0.0186486225575208,-0.4526131749153137,-0.4184404611587524,0.15430349111557
1630497992484,-0.0094158630818128,-0.4566135108470917,-0.4370774328708648,0.1367917358875274
1630497992609,0.0047561274841427,-0.4661982357501983,-0.445816695690155,0.1277540028095245
1630497992703,0.0378956086933612,-0.4931933879852295,-0.4439113140106201,0.1186587288975715
1630497992797,0.0513135753571987,-0.5190240740776062,-0.4199627935886383,0.0993700101971626
1630497992891,0.0635413378477096,-0.5241209864616394,-0.377255231142044,0.0667749717831611
1630497993000,0.0772173777222633,-0.5093702673912048,-0.3299839794635772,0.028985159471631
1630497993078,0.0858142301440239,-0.4840056300163269,-0.2971973419189453,-0.0079796938225626
1630497993209,0.0938593223690986,-0.4603018164634704,-0.2828466892242431,-0.0319799445569515
1630497993287,0.0961813777685165,-0.4470710754394531,-0.2831714153289795,-0.0501260347664356
1630497993396,0.0895789116621017,-0.4448335766792297,-0.2968620359897613,-0.0637383759021759
1630497993505,0.0770111158490181,-0.4466182291507721,-0.3257899284362793,-0.068049132823944
1630497993615,0.0701377242803573,-0.4509937763214111,-0.36639204621315,-0.0549190044403076
1630497993724,0.0805522054433822,-0.4538217782974243,-0.4036383032798767,-0.0310073271393775
1630497993849,0.1148201674222946,-0.4616302251815796,-0.4276275932788849,-0.0198903307318687
1630497993990,0.1498390436172485,-0.4753774404525757,-0.4344108700752258,-0.0271985474973917
1630497994052,0.167061448097229,-0.4913361072540283,-0.4261722564697265,-0.0384760685265064
1630497994068,0.1634829193353653,-0.4882284104824066,-0.4047423601150512,-0.0293895024806261
1630497994196,0.1473144143819809,-0.4649393260478973,-0.3739710450172424,0.0003925503697246
1630497994305,0.1389523595571518,-0.4410368204116821,-0.3444326519966125,0.0392167828977108
1630497994399,0.1381773650646209,-0.4309794902801513,-0.3193831741809845,0.0716627985239029
1630497994509,0.1457867473363876,-0.4339109361171722,-0.299478530883789,0.0912179872393608
1630497994696,0.1490605026483535,-0.4469472169876098,-0.2838145196437835,0.0996669083833694
1630497994712,0.1453887671232223,-0.4627423286437988,-0.2735207080841064,0.1019622460007667
1630497994821,0.1449252068996429,-0.4751442670822143,-0.2678197622299194,0.1006176397204399
1630497994915,0.1635260879993438,-0.4867092072963714,-0.2661559283733368,0.0940525457262992
1630497995040,0.1975286453962326,-0.4963928163051605,-0.2694628536701202,0.0774705111980438
1630497995151,0.2330669164657592,-0.49912029504776,-0.2756942808628082,0.0497645027935504
1630497995255,0.2540722191333771,-0.4966394007205963,-0.283509612083435,0.0170618034899234
1630497995380,0.249880701303482,-0.4922228157520294,-0.2913463413715362,-0.006962442304939
1630497995458,0.2236038595438003,-0.4936036765575409,-0.2980659604072571,-0.0257377885282039
1630497995489,0.2165884524583816,-0.498612642288208,-0.3055421710014343,-0.0483765564858913
1630497995664,0.2397432923316955,-0.508162260055542,-0.3191977739334106,-0.07709302008152
1630497995749,0.2942282855510711,-0.5169075727462769,-0.3437964916229248,-0.0973358303308487
1630497995843,0.3431994915008545,-0.5187217593193054,-0.3884224891662597,-0.1002695858478546
1630497995968,0.3800245523452759,-0.5141832232475281,-0.4563243985176086,-0.0899600684642791
1630497996030,0.3889364302158355,-0.5005204677581787,-0.5420662760734558,-0.0818737968802452
1630497996124,0.3978250920772552,-0.4682593047618866,-0.6057939529418945,-0.0829792544245719
1630497996238,0.4086933434009552,-0.4189338982105255,-0.6028102040290833,-0.0891385972499847
1630497996347,0.4318651556968689,-0.3725329935550689,-0.5266719460487366,-0.0920813158154487
1630497996457,0.4713958203792572,-0.3355323076248169,-0.4211066365242004,-0.0813335329294204
1630497996535,0.5341207981109619,-0.3083648085594177,-0.3253560364246368,-0.0502920970320701
1630497996707,0.6080474853515625,-0.2852990925312042,-0.2551399767398834,-0.0023786153178662
1630497996738,0.6787368059158325,-0.266826331615448,-0.2121035605669021,0.050805315375328
1630497996863,0.7267767190933228,-0.2566326558589935,-0.1898132562637329,0.097685307264328
1630497996956,0.7537779808044434,-0.2435205429792404,-0.1797311455011367,0.1381758600473404
1630497997113,0.759231686592102,-0.2251374125480651,-0.1713098734617233,0.1686166077852249
1630497997161,0.7506826519966125,-0.2039434760808944,-0.1627324968576431,0.1808737218379974
1630497997271,0.7308851480484009,-0.1864341348409652,-0.1558554023504257,0.1717068254947662
1630497997349,0.7123468518257141,-0.1797141283750534,-0.1520154178142547,0.1474058032035827
1630497997490,0.6965794563293457,-0.181269958615303,-0.1547199040651321,0.1149664670228958
1630497997584,0.6925820708274841,-0.1803880631923675,-0.1628700047731399,0.0906913876533508
1630497997771,0.7116633057594299,-0.1765890568494796,-0.2060234099626541,0.0816766247153282
1630497997771,0.6914771795272827,-0.1755553185939788,-0.1789674162864685,0.0811681151390075
1630497997881,0.7251249551773071,-0.1771974116563797,-0.2438108325004577,0.085110493004322
1630497997990,0.7231665253639221,-0.1705597788095474,-0.2793762385845184,0.0843092650175094
1630497998084,0.6904393434524536,-0.1591817736625671,-0.3066577911376953,0.0765377879142761
1630497998212,0.6194364428520203,-0.1483693271875381,-0.3178776204586029,0.0592400096356868
1630497998323,0.5009250044822693,-0.1412459462881088,-0.3145819008350372,0.0338968075811862
1630497998469,0.3599625825881958,-0.1341778188943863,-0.3023154139518738,-0.0049091633409261
1630497998509,0.2314810007810592,-0.1330685168504715,-0.2806438505649566,-0.0489488504827022
1630497998587,0.1490186005830764,-0.1384173184633255,-0.257388710975647,-0.1111142635345459
1630497998712,0.1058043241500854,-0.1468265950679779,-0.2417589724063873,-0.1621594578027725
1630497998790,0.1099229454994201,-0.1518473178148269,-0.2367120534181594,-0.1878053992986679
1630497998916,0.1099229454994201,-0.1459830105304718,-0.2376195043325424,-0.1972045600414276
1630497998994,0.1099229454994201,-0.1322754025459289,-0.2381598353385925,-0.1930588036775589
1630497999169,0.1099229454994201,-0.1240547895431518,-0.2361530512571334,-0.188525304198265
1630497999178,0.1099229454994201,-0.1321114748716354,-0.233065515756607,-0.1824019849300384
1630497999309,0.1099229454994201,-0.148018404841423,-0.2332292050123214,-0.1626909226179123
1630497999400,0.3431413471698761,-0.1725798547267913,-0.2341033220291137,-0.1234563812613487
1630497999511,0.2984613180160522,-0.196859061717987,-0.240308478474617,-0.0772634223103523
1630497999635,0.2775620818138122,-0.2037284672260284,-0.2335557788610458,-0.0404553934931755
1630497999716,0.2689970731735229,-0.1910489946603775,-0.2114249169826507,-0.0174143034964799
1630497999793,0.2569689154624939,-0.1714239418506622,-0.1862599104642868,0.0043869670480489
1630497999934,0.2452544718980789,-0.1589953899383545,-0.1701418757438659,0.0371085330843925
1630498000012,0.2367666512727737,-0.1609478890895843,-0.1740510314702987,0.0556668117642402
1630498000106,0.2406007200479507,-0.176917165517807,-0.1958714127540588,0.0762197971343994
1630498000200,0.2652367353439331,-0.2026412487030029,-0.2198100388050079,0.0877443253993988
1630498000292,0.3224693536758423,-0.2315679639577865,-0.2350526750087738,0.0934936851263046
1630498000401,0.3985036611557007,-0.2552500963211059,-0.2395379990339279,0.1012354269623756
1630498000526,0.4498873651027679,-0.2643723785877228,-0.2335975617170334,0.1169726997613906
1630498000621,0.4845108091831207,-0.2614928483963012,-0.2217703014612198,0.1353540569543838
1630498000779,0.5162285566329956,-0.2509116232395172,-0.20469531416893,0.1451127678155899
1630498000827,0.5590201020240784,-0.2422765642404556,-0.1800312101840973,0.1388436555862426
1630498000954,0.6007277369499207,-0.2347931861877441,-0.1629667431116104,0.1131989136338234
1630498001094,0.6341961026191711,-0.2403714507818222,-0.1575060486793518,0.0732640624046325
1630498001156,0.6554322242736816,-0.2669371366500854,-0.1691784560680389,0.0270721912384033
1630498001219,0.6646647453308105,-0.3091174960136413,-0.1965929865837097,-0.0202874578535556
1630498001345,0.6718905568122864,-0.3496741652488708,-0.2293540686368942,-0.0742174759507179
1630498001455,0.6894947290420532,-0.3447140157222748,-0.243203192949295,-0.1253401488065719
1630498001517,0.7349356412887573,-0.2736410796642303,-0.2193991392850875,-0.1408711373805999
1630498001578,0.8020588159561157,-0.1688632518053054,-0.1680041551589965,-0.1017842963337898
1630498001765,0.8714296817779541,-0.0706707388162612,-0.1178716346621513,-0.0385929606854915
1630498001877,0.9203557968139648,0.0019018941093236,-0.0807763189077377,0.0133505146950483
1630498001940,0.9362613558769226,0.0436196774244308,-0.0603235736489295,0.0390202067792415
1630498002002,0.9358105063438416,0.0584140308201313,-0.0443799085915088,0.0427897758781909
1630498002127,0.932960569858551,0.0609392598271369,-0.0262162182480096,0.0444204099476337
1630498002208,0.9337279200553894,0.0644242241978645,-0.0092136785387992,0.059488408267498
1630498002350,0.9328705668449402,0.0665663108229637,-0.0058006816543638,0.0802408382296562
1630498002509,0.933816134929657,0.0705837905406951,-0.0136874141171574,0.1020444259047508
1630498002552,0.9326637387275696,0.074513092637062,-0.0327271223068237,0.1175658479332923
1630498002675,0.9289752840995787,0.0751069858670234,-0.0589457638561725,0.123209960758686
1630498002751,0.9289539456367492,0.0711612775921821,-0.0831101462244987,0.1218344718217849
1630498002813,0.936646580696106,0.066031314432621,-0.0972536578774452,0.1251390874385833
1630498002995,0.9388365149497986,0.0498769804835319,-0.1069248542189598,0.1306389570236206
1630498003084,0.925449013710022,0.0160579178482294,-0.1252717822790146,0.1259663105010986
1630498003192,0.8869032263755798,-0.0372329875826835,-0.1569118350744247,0.0992104113101959
1630498003256,0.8213531970977783,-0.1074976399540901,-0.1916594803333282,0.0515453778207302
1630498003350,0.742530107498169,-0.1895324289798736,-0.2191942781209945,-0.0006200888892635
1630498003444,0.681404709815979,-0.2674004137516022,-0.2282470315694809,-0.0394290313124656
1630498003553,0.6457754373550415,-0.3274972140789032,-0.2330552041530609,-0.0672740638256073
1630498003680,0.6167793273925781,-0.3765001893043518,-0.2437487542629242,-0.0987447500228881
1630498003778,0.5752717852592468,-0.4301779270172119,-0.2627180516719818,-0.1443687379360199
1630498003835,0.526138186454773,-0.4684963524341583,-0.2768466770648956,-0.1902609020471573
1630498003960,0.4707323014736175,-0.488285481929779,-0.2799064815044403,-0.2268846035003662
1630498004116,0.4276568591594696,-0.4807089865207672,-0.2693965137004852,-0.2400221824645996
1630498004180,0.4076294302940368,-0.4509911835193634,-0.2546741664409637,-0.2352745532989502
1630498004272,0.4001538753509521,-0.4144526720046997,-0.2446884512901306,-0.2209987342357635
1630498004351,0.3700009882450104,-0.3905979692935943,-0.2427133023738861,-0.2239010483026504
1630498004510,0.331289678812027,-0.3801438808441162,-0.2512687742710113,-0.2496667206287384
1630498004619,0.278433620929718,-0.390045017004013,-0.2686343491077423,-0.2962939143180847
1630498004665,0.2418009042739868,-0.4100116193294525,-0.2926469445228576,-0.3434669375419616
1630498004808,0.2426535189151764,-0.4289236068725586,-0.3202040493488312,-0.375247597694397
1630498004934,0.2614860534667969,-0.4308208525180816,-0.3518510162830353,-0.3981618881225586
1630498005012,0.2817925810813904,-0.4130496978759765,-0.3907941579818725,-0.4231809675693512
1630498005077,0.2904907464981079,-0.378781259059906,-0.4399734139442444,-0.4445185363292694
1630498005233,0.3038884401321411,-0.3479613661766052,-0.4941713511943817,-0.4405438005924225
1630498005256,0.3239360451698303,-0.3213537335395813,-0.5377737879753113,-0.433490514755249
1630498005381,0.3464295268058777,-0.2708464562892914,-0.5396194458007812,-0.426038384437561
1630498005524,0.3654651045799255,-0.1514016836881637,-0.4847676753997803,-0.4304536581039428
1630498005634,0.3825327157974243,-0.0090608792379498,-0.3461380302906036,-0.4680140316486358
1630498005697,0.3952150046825409,0.1421776860952377,-0.1277327090501785,-0.529197633266449
1630498005787,0.3963384628295898,0.2927066683769226,0.0927490144968032,-0.6093062162399292
1630498005897,0.3995232880115509,0.4229846894741058,0.2650082409381866,-0.6952148079872131
1630498006005,0.4154738187789917,0.5201948285102844,0.3798174262046814,-0.7957172393798828
1630498006179,0.4392178952693939,0.576774537563324,0.4462798833847046,-0.9003697037696838
1630498006211,0.4498287439346313,0.6021454930305481,0.4783092439174652,-1.019519925117493
1630498006319,0.4498287439346313,0.6089581251144409,0.4926661252975464,-1.019519925117493
1630498006397,0.4498287439346313,0.6353960633277893,0.4966472387313843,-1.019519925117493
1630498006619,0.4498287439346313,0.6634573936462402,0.5207458138465881,-1.019519925117493
1630498006727,0.4498287439346313,0.6934382319450378,0.5986149311065674,-1.019519925117493
1630498006807,0.4498287439346313,0.7268931269645691,0.7245545387268066,-1.019519925117493
1630498006869,0.4498287439346313,0.7641318440437317,0.8566469550132751,-1.019519925117493
1630498006899,0.4498287439346313,0.8018427491188049,0.9567613005638124,-1.019519925117493
1630498007024,0.4498287439346313,0.8305056691169739,1.0149152278900146,-1.019519925117493
1630498007087,0.4498287439346313,0.8501206636428833,1.0382744073867798,-1.019519925117493
1630498007259,0.4498287439346313,0.8540516495704651,1.0377072095870972,-1.019519925117493
1630498007335,0.4498287439346313,0.8276860117912292,1.022390842437744,-1.019519925117493
1630498007398,0.4498287439346313,0.6680334210395813,0.9971175789833068,-1.019519925117493
1630498007539,0.4498287439346313,0.4282687306404114,0.9731590747833252,-1.019519925117493
1630498007616,0.4498287439346313,0.1628204733133316,0.9588419795036316,-1.019519925117493
1630498007726,0.4498287439346313,0.0941272750496864,0.9556440114974976,-1.019519925117493
1630498007854,0.4498287439346313,0.3733757436275482,0.962592840194702,-1.019519925117493
1630498007978,0.4498287439346313,0.6193920373916626,0.9796574711799622,-1.019519925117493
1630498008009,0.6508789658546448,0.7791284322738647,0.9944035410881042,-1.019519925117493
1630498008136,0.6737433075904846,0.8610572814941406,0.987559735774994,-1.019519925117493
1630498008242,0.673015296459198,0.8851916193962097,0.9409119486808776,-1.019519925117493
1630498008322,0.673015296459198,0.8851916193962097,0.8456298112869263,-1.019519925117493
1630498008480,0.673015296459198,0.8851916193962097,0.7197311520576477,-1.019519925117493
1630498008562,0.673015296459198,0.8851916193962097,0.6270150542259216,-1.019519925117493
1630498008669,0.673015296459198,0.8851916193962097,0.6329736709594727,-1.019519925117493
1630498008760,0.673015296459198,0.8851916193962097,0.7058664560317993,-1.019519925117493
1630498008824,0.673015296459198,0.8851916193962097,0.7806183099746704,-1.019519925117493
1630498008916,0.673015296459198,0.9496574401855468,0.8326215744018555,-1.019519925117493
1630498009103,0.673015296459198,0.9792039394378662,0.8565764427185059,-1.019519925117493
1630498009163,0.673015296459198,0.993086040019989,0.8627504110336304,-1.019519925117493
1630498009224,0.6998891234397888,0.9940425753593444,0.8627874851226807,-1.019519925117493
1630498009348,0.7260963916778564,0.9746153950691224,0.8558223247528076,-1.019519925117493
1630498009426,0.841914176940918,0.9231703281402588,0.8410264253616333,-1.019519925117493
1630498009504,0.9443298578262328,0.8382790684700012,0.817940890789032,-1.019519925117493
1630498009663,1.0478593111038208,0.7357951402664185,0.7915899753570557,-1.019519925117493
1630498009788,1.1264320611953735,0.6481454372406006,0.7714889049530029,-1.019519925117493
1630498009851,1.104897141456604,0.6163352131843567,0.7615285515785217,-1.019519925117493
1630498009979,1.0672715902328491,0.5826166272163391,0.7540846467018127,-1.019519925117493
1630498010039,1.0231975317001345,0.5489442944526672,0.7281339764595032,-1.019519925117493
1630498010133,0.9791114330291748,0.5168046355247498,0.6613740921020508,-1.019519925117493
1630498010261,0.9420265555381776,0.4860142171382904,0.5451152324676514,-1.019519925117493
1630498010402,0.9135480523109436,0.4573528170585632,0.3872540593147278,-1.019519925117493
1630498010481,0.8902280926704407,0.3240275681018829,0.2283270955085754,-1.019519925117493
1630498010544,0.8718666434288025,0.236418068408966,0.1303895711898803,-0.2338867634534835
1630498010639,0.8718666434288025,0.2044210880994796,0.0994831696152687,-0.0491329543292522
1630498010782,0.8718666434288025,0.2735324203968048,0.0853353515267372,0.1488889455795288
1630498010913,0.8718666434288025,0.4540488123893738,0.1021351516246795,0.3994789719581604
1630498011005,0.849896252155304,0.444827526807785,0.1889058053493499,0.6313180327415466
1630498011131,0.8096194863319397,0.4333566427230835,0.3693824410438537,0.7974605560302734
1630498011177,0.7390514612197876,0.4299717843532562,0.5708538293838501,0.9213114976882936
1630498011286,0.6510763168334961,0.43935227394104,0.7358813285827637,1.0341392755508425
1630498011364,0.5645024180412292,0.4615726172924042,0.7621812224388123,1.148922085762024
1630498011522,0.5071367025375366,0.4961300492286682,0.7915513515472412,1.248202562332153
1630498011650,0.4913544952869415,0.5410695672035217,0.8241581916809082,1.313927173614502
1630498011695,0.5151167511940002,0.5950250625610352,0.8603405356407166,1.3400425910949707
1630498011822,0.5151167511940002,0.6598004102706909,0.9001659750938416,1.369840145111084
1630498011898,0.5151167511940002,0.6685101389884949,0.9033952355384828,1.4015849828720093
1630498011961,0.5151167511940002,0.6710296869277954,0.9005163311958313,1.4353241920471191
1630498012167,0.5151167511940002,0.6710691452026367,0.8953681588172913,1.4384151697158811
1630498012212,0.5151167511940002,0.6497987508773804,0.8885473012924194,1.445765495300293
1630498012311,0.5151167511940002,0.5503131151199341,0.8832587003707886,1.4658933877944946
1630498012440,0.5151167511940002,0.0075177946127951,0.8750641942024231,1.4960957765579224
1630498012505,0.5151167511940002,0.0885696709156036,0.8459943532943726,1.52391517162323
1630498012569,0.5151167511940002,0.1335549354553222,0.7623924016952515,1.5367978811264038
1630498012743,0.5151167511940002,0.213472306728363,0.5696043968200684,1.5354158878326416
1630498012834,0.5151167511940002,0.3442144989967346,0.0750752538442611,1.5282317399978638
1630498012930,0.5151167511940002,0.5235992074012756,0.1287841796875,1.5224132537841797
1630498013010,0.5151167511940002,0.6913239359855652,0.2121679186820984,1.5299394130706787
1630498013100,0.5151167511940002,0.8034831881523132,0.2927489578723907,1.562775492668152
1630498013188,0.5151167511940002,0.8546501994132996,0.3493276834487915,1.5592865943908691
1630498013367,0.5151167511940002,0.8736006617546082,0.3977022171020508,1.5592865943908691
1630498013431,0.5151167511940002,0.906411588191986,0.4680293798446655,1.5592865943908691
1630498013525,0.5151167511940002,0.9382237792015076,0.5707194209098816,1.5592865943908691
1630498013589,0.5151167511940002,0.9687733054161072,0.6869760155677795,1.596914529800415
1630498013777,0.5151167511940002,1.0072563886642456,0.8438302278518677,1.6623576879501345
1630498013787,0.5151167511940002,0.9942216873168944,0.78449946641922,1.634070873260498
1630498013936,0.5151167511940002,1.0080437660217283,0.8684313893318176,1.6777209043502808
1630498014015,0.5151167511940002,1.004061937332153,0.8721182942390442,1.6333311796188354
1630498014110,0.5151167511940002,0.99990051984787,0.8675793409347534,1.647721767425537
1630498014220,0.5151167511940002,0.993807315826416,0.8650554418563843,1.682952046394348
1630498014315,0.5151167511940002,0.9835956692695618,0.8633439540863037,1.7245503664016724
1630498014473,0.5151167511940002,0.9618837237358092,0.8602563142776489,1.7245503664016724
1630498014535,0.5151167511940002,0.9254542589187622,0.855571985244751,1.7245503664016724
1630498014629,0.5151167511940002,0.882453978061676,0.8503617644309998,1.7245503664016724
1630498014804,0.5151167511940002,0.8540085554122925,0.8455663919448853,1.7245503664016724
1630498014884,0.5151167511940002,0.837830126285553,0.8338599801063538,1.7245503664016724
1630498014959,0.5151167511940002,0.8234608769416809,0.8080199360847473,1.7245503664016724
1630498015022,0.5151167511940002,0.8007880449295044,0.7531210780143738,1.7245503664016724
1630498015165,0.5151167511940002,0.7659671902656555,0.6532144546508789,1.7245503664016724
1630498015240,0.5151167511940002,0.725311279296875,0.5129773020744324,1.7245503664016724
1630498015349,0.5151167511940002,0.6940944790840149,0.3765651285648346,1.7245503664016724
1630498015411,0.5151167511940002,0.6797525882720947,0.3207664787769317,1.7245503664016724
1630498015553,0.5151167511940002,0.6762427091598511,0.3769186735153198,1.7245503664016724
1630498015616,0.5151167511940002,0.676461935043335,0.4820531606674194,1.7245503664016724
1630498015810,0.5151167511940002,0.6782875657081604,0.5715811252593994,1.7245503664016724
1630498015868,0.5151167511940002,0.6749690771102905,0.6267486214637756,1.7245503664016724
1630498015947,0.5151167511940002,0.6808079481124878,0.6454908847808838,1.7245503664016724
1630498016039,0.5151167511940002,0.7273443937301636,0.6388996839523315,1.7245503664016724
1630498016132,0.5151167511940002,0.8256086111068726,0.6191002130508423,1.7245503664016724
1630498016273,0.5151167511940002,0.9385175704956056,0.5951259732246399,1.7245503664016724
1630498016400,0.5151167511940002,1.0279840230941772,0.5746355652809143,1.7245503664016724
1630498016508,0.5151167511940002,1.0810102224349976,0.5633073449134827,1.7245503664016724
1630498016586,0.5151167511940002,1.105665683746338,0.5596321821212769,1.7245503664016724
1630498016680,0.5151167511940002,1.1297216415405271,0.5610213279724121,1.7245503664016724
1630498016759,0.5151167511940002,1.1489739418029783,0.5676268935203552,1.7245503664016724
1630498016886,0.5151167511940002,1.1766886711120603,0.5811184644699097,1.7245503664016724
1630498017045,0.5151167511940002,1.2185564041137695,0.5943219065666199,1.7245503664016724
1630498017122,0.5151167511940002,1.268979787826538,0.5885244011878967,1.7245503664016724
1630498017185,0.5151167511940002,1.3132432699203491,0.5550714135169983,1.7245503664016724
1630498017328,0.5151167511940002,1.3417301177978516,0.4976428747177124,1.7245503664016724
1630498017388,0.5151167511940002,1.3546062707901,0.4399353265762329,1.7245503664016724
1630498017436,0.5151167511940002,1.356169581413269,0.4106981456279754,1.7245503664016724
1630498017591,0.5151167511940002,1.343690037727356,0.4065587222576141,1.7245503664016724
1630498017701,0.5151167511940002,1.309296727180481,0.4051816761493683,1.7245503664016724
1630498017811,0.5151167511940002,1.2561897039413452,0.4048212468624115,1.7245503664016724
1630498017905,0.5151167511940002,1.1986756324768066,0.4106732308864593,0.9775375127792358
1630498017982,0.9524638056755066,1.1569617986679075,0.4205394983291626,0.9342437386512756
1630498018077,0.977512776851654,1.137650966644287,0.430075079202652,0.8964612483978271
1630498018184,0.9968940019607544,1.1192384958267212,0.4359482526779175,0.8744646310806274
1630498018278,1.0071619749069214,1.1047898530960083,0.431985080242157,0.8734181523323059
1630498018373,1.0149216651916504,1.0786222219467163,0.4135018289089203,0.8945369124412537
1630498018532,1.0210248231887815,1.0285667181015017,0.3770147860050201,0.938451647758484
1630498018609,1.017595291137695,0.9485265016555786,0.3289443552494049,0.9915890693664552
1630498018690,1.0037773847579956,0.8585612177848816,0.2897583544254303,1.0506232976913452
1630498018814,0.9854294657707214,0.7901655435562134,0.2828589975833893,1.0506232976913452
1630498018922,0.9715328216552734,0.7834845781326294,0.3322386741638183,1.0506232976913452
1630498018986,0.9634342789649964,0.8275291919708252,0.4142977297306061,1.0506232976913452
1630498019110,0.9583088755607604,0.8847243189811707,0.4956288337707519,1.0523338317871094
1630498019237,0.9592869877815248,0.932256817817688,0.5529835820198059,1.0536842346191406
1630498019282,0.9661279916763306,0.9572280645370485,0.5842514038085938,1.0628267526626587
1630498019392,0.9781973958015442,0.9593770503997804,0.5951461791992188,1.0830180644989014
1630498019517,0.9882941842079164,0.9491990208625792,0.6013176441192627,1.1180322170257568
1630498019625,0.9869574308395386,0.939225971698761,0.611772358417511,1.1641676425933838
1630498019781,0.974031925201416,0.9329794645309448,0.6218341588973999,1.2169976234436035
1630498019859,0.9509067535400392,0.9298977851867676,0.6309463977813721,1.273361086845398
1630498019919,0.9180278182029724,0.92804217338562,0.6373170614242554,1.2865060567855835
1630498020045,0.8828458189964294,0.9296083450317384,0.6385964155197144,1.244835376739502
1630498020137,0.8613207340240479,0.9366650581359864,0.6349130868911743,1.1349884271621704
1630498020216,0.8566011786460876,0.9423282146453856,0.62579745054245,0.8943504691123962
1630498020358,0.8599464297294617,0.942113995552063,0.6133339405059814,0.8533965945243835
1630498020418,0.8562610745429993,0.919362723827362,0.5840039849281311,0.8175256848335266
1630498020512,0.8417230248451233,0.8573138117790222,0.5269420146942139,0.7798658013343811
1630498020654,0.838904857635498,0.7544289231300354,0.447623997926712,0.7798658013343811
1630498020716,0.8282537460327148,0.6435670852661133,0.3856357336044311,0.7798658013343811
1630498020810,0.8045697212219238,0.5916711688041687,0.3809549212455749,0.7798658013343811
1630498020920,0.7646074891090393,0.6342757940292358,0.4380780160427093,0.7798658013343811
1630498021013,0.7077282667160034,0.6402274966239929,0.5161024332046509,0.7798658013343811
1630498021094,0.6461116075515747,0.6484625935554504,0.5794424414634705,0.7798658013343811
1630498021268,0.6022788882255554,0.657575249671936,0.6216217875480652,0.7798658013343811
1630498021364,0.5981862545013428,0.6750360727310181,0.6459131240844727,0.7798658013343811
1630498021473,0.6349244713783264,0.7244775891304016,0.6578622460365295,0.6848004460334778
1630498021549,0.6791271567344666,0.7975949048995972,0.6686540246009827,0.6004289984703064
1630498021610,0.693537175655365,0.8800519704818726,0.6857953071594238,0.5601973533630371
1630498021719,0.693537175655365,0.8914615511894226,0.7033765912055969,0.5601973533630371
1630498021862,0.693537175655365,0.9040881991386414,0.7170082926750183,0.5601973533630371
1630498021942,0.693537175655365,0.9270376563072203,0.7312256693840027,0.5601973533630371
1630498022100,0.693537175655365,0.9664334654808044,0.7606407999992371,0.5601973533630371
1630498022149,0.693537175655365,1.021727204322815,0.806789219379425,0.5601973533630371
1630498022259,0.693537175655365,1.081639528274536,0.8504942059516907,0.5601973533630371
1630498022355,0.693537175655365,1.1220698356628418,0.871768057346344,0.5601973533630371
1630498022513,0.693537175655365,1.064353108406067,0.8656046986579895,0.5601973533630371
1630498022571,0.693537175655365,0.9900693297386168,0.8355324864387512,0.5601973533630371
1630498022696,0.693537175655365,0.9226784706115724,0.7962132692337036,0.5601973533630371
1630498022778,0.693537175655365,0.8709105253219604,0.7640987634658813,0.5601973533630371
1630498022888,0.693537175655365,0.8384994268417358,0.7443941235542297,0.5601973533630371
1630498022980,0.693537175655365,0.8128710389137268,0.7337480783462524,0.5601973533630371
1630498023136,0.693537175655365,0.7600674629211426,0.7215999960899353,0.5601973533630371
1630498023199,0.693537175655365,0.6446990966796875,0.7002315521240234,0.5601973533630371
1630498023270,0.693537175655365,0.6955434679985046,0.6737111210823059,0.5601973533630371
1630498023356,0.693537175655365,0.7479804158210754,0.6473028659820557,0.5601973533630371
1630498023559,0.693537175655365,0.799518883228302,0.6195549368858337,0.5601973533630371
1630498023567,0.693537175655365,0.8398194909095764,0.5694947838783264,0.5601973533630371
1630498023699,0.693537175655365,0.8610337376594543,0.4731005132198334,0.5601973533630371
1630498023791,0.693537175655365,0.8598904013633728,0.3281764388084411,0.5601973533630371
1630498023901,0.693537175655365,0.8418615460395813,0.1635261476039886,0.5601973533630371
1630498023976,0.693537175655365,0.8185822367668152,0.0236289352178573,0.5601973533630371
1630498024041,0.693537175655365,0.8126025795936584,-0.0567329861223697,0.5601973533630371
1630498024163,0.693537175655365,0.8135499954223633,-0.0931746587157249,0.5601973533630371
1630498024289,0.693537175655365,0.8150565028190613,-0.1109913885593414,0.5601973533630371
1630498024460,1.107152223587036,0.8146656155586243,-0.102207526564598,0.5601973533630371
1630498024511,1.0675588846206665,0.8134046792984009,-0.0516932941973209,0.5601973533630371
1630498024681,1.0384244918823242,0.8089809417724609,0.0208912305533885,1.0826466083526611
1630498024709,1.0177929401397705,0.8034496307373047,0.0785479769110679,1.1214815378189087
1630498024771,1.0024398565292358,0.7832292318344116,0.109190784394741,1.1192713975906372
1630498024882,0.987408459186554,0.7414771318435669,0.1174490377306938,1.085935115814209
1630498025007,0.9663864970207214,0.6745574474334717,0.1193782240152359,1.041122317314148
1630498025100,0.945694625377655,0.6002194881439209,0.1341011524200439,1.0107394456863403
1630498025195,0.9329714179039,0.5470076203346252,0.1586632877588272,1.0107394456863403
1630498025288,0.953742265701294,0.5795089602470398,0.2171143889427185,1.0107394456863403
1630498025404,1.010205626487732,0.688644528388977,0.3125315606594085,1.0107394456863403
1630498025521,1.0723809003829956,0.8016804456710815,0.4121246635913849,1.0107394456863403
1630498025614,1.0723809003829956,0.8814747929573059,0.491285502910614,1.0107394456863403
1630498025773,1.076970100402832,0.9215198159217834,0.5453203916549683,1.0107394456863403
1630498025818,1.072877049446106,0.935706913471222,0.5811226963996887,1.0356749296188354
1630498025911,1.0684216022491455,0.9400804042816162,0.6215963959693909,1.045196771621704
1630498026040,1.0742948055267334,0.9397114515304564,0.6781936883926392,1.019558072090149
1630498026130,1.090157985687256,0.9321842789649964,0.7383080720901489,0.943185567855835
1630498026289,1.109243631362915,0.919634222984314,0.7859625816345215,0.8148339986801147
1630498026333,1.132604956626892,0.9092927575111388,0.8142130374908447,0.8148339986801147
1630498026443,1.1647294759750366,0.9041948914527892,0.8257781863212585,0.8148339986801147
1630498026523,1.215335726737976,0.9043266773223876,0.8276394605636597,0.8148339986801147
1630498026682,1.2852418422698977,0.9007964134216307,0.8243709802627563,0.8148339986801147
1630498026808,1.2852418422698977,0.8921111226081848,0.8194846510887146,0.8148339986801147
1630498026839,1.2852418422698977,0.8605287671089172,0.8067442774772644,0.8148339986801147
1630498026949,1.2852418422698977,0.7916768789291382,0.7796514630317688,0.8148339986801147
1630498027028,1.2852418422698977,0.6836766004562378,0.7404359579086304,0.8148339986801147
1630498027137,1.2852418422698977,0.5524663925170898,0.6980600953102112,0.8148339986801147
1630498027246,1.2852418422698977,0.444534957408905,0.6604904532432556,0.8148339986801147
1630498027394,1.2852418422698977,0.382345050573349,0.6276028752326965,0.8148339986801147
1630498027452,1.2852418422698977,0.3354362547397613,0.5765156745910645,0.8148339986801147
1630498027514,1.2852418422698977,0.2864435017108917,0.4800292551517486,0.8148339986801147
1630498027624,1.2852418422698977,0.2585060596466064,0.3276176452636719,0.8148339986801147
1630498027714,1.2852418422698977,0.2674076557159424,0.1362107098102569,0.8148339986801147
1630498027807,1.2852418422698977,0.2997725307941437,-0.0374115109443664,0.8148339986801147
1630498027979,1.2852418422698977,0.3284344673156738,-0.1302763223648071,0.8148339986801147
1630498028026,1.2852418422698977,0.3390471935272217,-0.1550784707069397,0.8148339986801147
1630498028138,1.2852418422698977,0.3378867506980896,-0.1573425680398941,0.8148339986801147
1630498028214,1.2852418422698977,0.3229762613773346,-0.1529215425252914,0.8148339986801147
1630498028373,1.2852418422698977,0.2929873764514923,-0.1459234207868576,0.8148339986801147
1630498028450,1.2852418422698977,0.2510876953601837,-0.1380296200513839,0.8148339986801147
1630498028544,1.2852418422698977,0.215758815407753,-0.1328606754541397,0.8148339986801147
1630498028639,0.6687062978744507,0.2005797624588012,-0.1302565634250641,0.8148339986801147
1630498028758,0.692956268787384,0.1978053748607635,-0.1296384632587433,0.8148339986801147
1630498028821,0.7319902181625366,0.1985903829336166,-0.1267390698194503,-0.2569079995155334
1630498028917,0.7765856981277466,0.1980178654193878,-0.1168588995933532,-0.1767190843820572
1630498029040,0.7765856981277466,0.188005268573761,-0.1067735105752945,-0.1248382106423378
1630498029157,0.7765856981277466,0.1565088331699371,-0.1090794876217842,-0.081707552075386
1630498029312,0.7765856981277466,0.0926852896809578,-0.1321301162242889,-0.0267348773777484
1630498029373,0.7765856981277466,-0.0003964805509895,-0.171072706580162,0.0649557262659072
1630498029498,0.7765856981277466,-0.0827266499400138,-0.2043018490076065,0.1825379729270935
1630498029608,0.7765856981277466,-0.1005366593599319,-0.2252300381660461,0.2809172570705414
1630498029639,0.7765856981277466,0.0264226365834474,-0.2249929159879684,0.3518797159194946
1630498029873,0.7765856981277466,0.2508579790592193,-0.2021564692258834,0.4038902223110199
1630498029890,0.7881338000297546,0.2677963376045227,-0.1644306629896164,0.4496742188930511
1630498029937,0.814022958278656,0.2925552129745483,-0.122023694217205,0.4983590543270111
1630498030093,0.8484935760498047,0.3203509449958801,-0.0770311877131462,0.5244438648223877
1630498030172,0.8484935760498047,0.3482168316841125,-0.0378128960728645,0.5532183647155762
1630498030233,0.8484935760498047,0.3778292536735534,-0.0025328299961984,0.5827348828315735
1630498030375,0.8484935760498047,0.4096105992794037,0.0348295196890831,0.6122192740440369
1630498030507,0.8484935760498047,0.4485500752925873,0.0917319506406784,0.6427291631698608
1630498030585,0.8484935760498047,0.4962973594665527,0.1710361987352371,0.6767366528511047
1630498030679,0.8484935760498047,0.5528685450553894,0.2484167665243148,0.7144951224327087
1630498030763,0.8484935760498047,0.6201649308204651,0.3051859438419342,0.7540522217750549
1630498030867,0.8484935760498047,0.703579306602478,0.3384973704814911,0.7877355813980103
1630498031002,0.8484935760498047,0.703579306602478,0.3539715111255646,0.8065999150276184
1630498031122,0.8484935760498047,0.703579306602478,0.3602004051208496,0.8170841336250305
1630498031201,0.8484935760498047,0.703579306602478,0.3604558408260345,0.8170841336250305
1630498031289,0.8484935760498047,0.703579306602478,0.3548861742019653,0.8170841336250305
1630498031352,0.8484935760498047,0.703579306602478,0.348697304725647,0.8170841336250305
1630498031461,0.8484935760498047,0.703579306602478,0.350543200969696,0.8170841336250305
1630498031602,0.8484935760498047,0.703579306602478,0.3590582013130188,0.8170841336250305
1630498031713,1.451135516166687,0.5120072364807129,0.368167519569397,0.8170841336250305
1630498031806,1.4658817052841189,0.5408810377120972,0.3686595857143402,0.8170841336250305
1630498031917,1.4450491666793823,0.5275101661682129,0.3556145429611206,0.8170841336250305
1630498032055,1.4034948348999023,0.493191123008728,0.3238472640514374,0.8170841336250305
1630498032149,1.3545459508895874,0.4544375538825989,0.2673222124576568,0.8170841336250305
1630498032243,1.3545459508895874,0.4264207780361175,0.1963128894567489,0.8170841336250305
1630498032307,1.3545459508895874,0.4262503087520599,0.1460991203784942,0.8170841336250305
1630498032433,1.3545459508895874,0.4607727527618408,0.1571276187896728,0.8170841336250305
1630498032494,1.3545459508895874,0.5304716229438782,0.2229130566120147,0.8170841336250305
1630498032589,1.3545459508895874,0.6090530157089233,0.3021510541439056,0.8170841336250305
1630498032682,1.3545459508895874,0.6691230535507202,0.359538197517395,0.8170841336250305
1630498032823,1.3545459508895874,0.6984953284263611,0.3879325985908508,0.8170841336250305
1630498032963,1.366686224937439,0.7234809994697571,0.3974182605743408,0.8170841336250305
1630498033057,1.3643295764923096,0.7233908772468567,0.3966597318649292,0.8170841336250305
1630498033118,1.3234436511993408,0.7046585083007812,0.3884132504463196,0.8170841336250305
1630498033211,1.2301406860351562,0.676999032497406,0.3776792287826538,0.8170841336250305
1630498033287,1.2301406860351562,0.650497317314148,0.3700550496578216,0.8170841336250305
1630498033428,1.2301406860351562,0.6322522163391113,0.3673235774040222,0.8170841336250305
1630498033539,1.2301406860351562,0.6220374703407288,0.3648445904254913,0.8170841336250305
1630498033648,1.2301406860351562,0.6156531572341919,0.3586484789848327,0.8170841336250305
1630498033741,0.1564055979251861,0.6076692342758179,0.350208967924118,-0.214247778058052
1630498033900,0.218399167060852,0.5914124846458435,0.3344050049781799,-0.2502519190311432
1630498034011,0.2805832326412201,0.560417890548706,0.3052480816841125,-0.2414180189371109
1630498034105,0.3580231070518493,0.5004499554634094,0.2641143500804901,-0.2012097686529159
1630498034168,0.432129830121994,0.3995635211467743,0.2194588184356689,-0.1646696925163269
1630498034285,0.4848866760730743,0.2574382722377777,0.186855748295784,-0.1505988091230392
1630498034328,0.5123534798622131,0.1029232144355773,0.1740187406539917,-0.1554252505302429
1630498034486,0.5359987616539001,-0.0238827150315046,0.1671986281871795,-0.1634038537740707
1630498034533,0.5873397588729858,-0.0872128382325172,0.153902068734169,-0.1651729643344879
1630498034689,0.6708620190620422,-0.1033080741763114,0.1411979049444198,-0.1595727503299713
1630498034767,0.7581837177276611,-0.1097605973482132,0.1413125693798065,-0.151124507188797
1630498034877,0.8175127506256104,-0.1101790368556976,0.1571123749017715,-0.1444433480501175
1630498034958,0.8694366812705994,-0.1070834398269653,0.1799854040145874,-0.1461293697357177
1630498035051,0.8909597396850586,-0.1032025888562202,0.2011439502239227,-0.1256756037473678
1630498035187,0.8957816362380981,-0.0976650118827819,0.2187501788139343,-0.0838145241141319
1630498035296,0.8930390477180481,-0.0932236537337303,0.2276257425546646,-0.0381030775606632
1630498035361,0.8891721367835999,-0.0999883562326431,0.2261032313108444,-0.0057398304343223
1630498035439,0.8832851052284241,-0.1314401924610138,0.2091432362794876,0.0044359657913446
1630498035613,0.8772464394569397,-0.2020347863435745,0.1699205636978149,-0.0071492949500679
1630498035692,0.8760871291160583,-0.3103033900260925,0.1105499044060707,-0.0234750136733055
1630498035772,0.8826580047607422,-0.4343937337398529,0.0465970523655414,-0.0264772921800613
1630498035976,0.8926027417182922,-0.550317108631134,-0.001220133039169,-0.0119182933121919
1630498036038,0.8936891555786133,-0.6217774152755737,-0.0250428300350904,0.004161013290286
1630498036069,0.8741269111633301,-0.6432107090950012,-0.030206985771656,0.0136847263202071
1630498036228,0.8255458474159241,-0.6245284676551819,-0.024395914748311,0.0156853552907705
1630498036353,0.7496570944786072,-0.574649453163147,-0.0221230909228324,0.0125076537951827
1630498036478,0.6654361486434937,-0.5258183479309082,-0.0341555587947368,0.0164131764322519
1630498036556,0.5943211317062378,-0.4804277718067169,-0.0635328218340873,0.0209254790097475
1630498036619,0.553706169128418,-0.4296963214874267,-0.1075342148542404,0.0196125172078609
1630498036674,0.5388585925102234,-0.3773136138916015,-0.1534104496240615,0.0049920701421797
1630498036752,0.5383523106575012,-0.3312472403049469,-0.1895111203193664,-0.0207219030708074
1630498036893,0.5406419634819031,-0.2838813662528991,-0.2030275464057922,-0.0453061982989311
1630498036971,0.5420524477958679,-0.225969597697258,-0.1922110468149185,-0.0624870210886001
1630498037130,0.5296103358268738,-0.1637971103191375,-0.171426773071289,-0.0692167729139328
1630498037193,0.4914966523647308,-0.1165427044034004,-0.1516953557729721,-0.0757899656891822
1630498037317,0.4255110621452331,-0.0917861610651016,-0.1425098180770874,-0.0906085893511772
1630498037380,0.3476825654506683,-0.0815786570310592,-0.1376437842845916,-0.1208162680268287
1630498037471,0.2850455939769745,-0.0814929977059364,-0.1253369152545929,-0.1518105864524841
1630498037580,0.2462189495563507,-0.088302157819271,-0.1081486716866493,-0.1738186925649643
1630498037705,0.2185824662446975,-0.0963037610054016,-0.0954089388251304,-0.1838884651660919
1630498037799,0.1952017992734909,-0.0967285186052322,-0.0896901562809944,-0.1821683943271637
1630498037971,0.1898856312036514,-0.0884758085012435,-0.0869693979620933,-0.1885524690151214
1630498038033,0.2044339478015899,-0.0754742994904518,-0.0779106840491294,-0.2045940905809402
1630498038223,0.2341766208410263,-0.0646191164851188,-0.0565925873816013,-0.2273608893156051
1630498038301,0.2559127509593963,-0.0573765635490417,-0.031346283853054,-0.2450639903545379
1630498038395,0.2581084966659546,-0.0547534748911857,-0.0133308824151754,-0.2403928637504577
1630498038567,0.2446095496416092,-0.0615710914134979,-0.0091342832893133,-0.2164580821990966
1630498038692,0.2279312461614608,-0.0843316987156868,-0.0204606167972087,-0.1802971810102462
1630498038801,0.2213175147771835,-0.1260746568441391,-0.0398076958954334,-0.143248438835144
1630498038864,0.2414149940013885,-0.1694705784320831,-0.0563260950148105,-0.1089794784784317
1630498038911,0.2982057332992553,-0.1859730035066604,-0.0543937571346759,-0.0808477476239204
1630498038989,0.3772212862968445,-0.1712391525506973,-0.0408599637448787,-0.0567425414919853
1630498039067,0.4653538465499878,-0.1400164067745208,-0.0325354039669036,-0.0298045668751001
1630498039098,0.5327010154724121,-0.1121857911348342,-0.0412830300629138,0.0029449851717799
1630498039190,0.5791297554969788,-0.098714679479599,-0.065974660217762,0.0430042408406734
1630498039332,0.6035253405570984,-0.1021546423435211,-0.0972476303577423,0.0794252455234527
1630498039396,0.6125512719154358,-0.1193294748663902,-0.1230086684226989,0.1074616089463234
1630498039584,0.6127561330795288,-0.1429794132709503,-0.1413377076387405,0.1242505311965942
1630498039662,0.6100060939788818,-0.1665808260440826,-0.1597927659749984,0.1397233307361602
1630498039724,0.6091521978378296,-0.1876230239868164,-0.1770718991756439,0.1579927504062652
1630498039802,0.6150487065315247,-0.2037242949008941,-0.1848640590906143,0.1737991273403167
1630498039943,0.626531720161438,-0.216357484459877,-0.1824646294116974,0.1804863661527633
1630498040006,0.6385861039161682,-0.2247699052095413,-0.1792828291654586,0.1730235964059829
1630498040212,0.6470184922218323,-0.221159353852272,-0.177719846367836,0.1561214923858642
1630498040259,0.6462299823760986,-0.2052754610776901,-0.1835548430681228,0.1367709189653396
1630498040400,0.6300732493400574,-0.1913434714078903,-0.2063244432210922,0.1202219203114509
1630498040462,0.5984081625938416,-0.1826619356870651,-0.2425139397382736,0.1102513596415519
1630498040509,0.5512397885322571,-0.1722876280546188,-0.2850392460823059,0.104686364531517
1630498040603,0.5058974027633667,-0.1515125781297683,-0.3199693262577057,0.0950446873903274
1630498040775,0.4667414128780365,-0.1304188966751098,-0.3440168499946594,0.0805589854717254
1630498040884,0.4333188533782959,-0.1187159791588783,-0.365529716014862,0.0757219120860099
1630498041040,0.404913455247879,-0.1079020202159881,-0.3858033418655395,0.0856839716434478
1630498041087,0.3887155652046203,-0.09715037047863,-0.4023679196834564,0.1162079721689224
1630498041165,0.388638287782669,-0.0903323516249656,-0.4155358672142029,0.1447019279003143
1630498041262,0.3933099210262298,-0.0874071642756462,-0.4420638680458069,0.1542618423700332
1630498041372,0.3893763124942779,-0.0856308788061142,-0.4784044623374939,0.1438905298709869
1630498041465,0.3700914978981018,-0.0825924351811409,-0.5131521821022034,0.1270954608917236
1630498041537,0.3456379175186157,-0.0810847580432891,-0.5274748802185059,0.1204346790909767
1630498041693,0.3203930854797363,-0.0861801728606224,-0.5247660875320435,0.1207442581653595
1630498041787,0.2970734238624573,-0.0970808863639831,-0.511021077632904,0.1201182082295417
1630498041850,0.2721925675868988,-0.1100704446434974,-0.4900923073291778,0.1151123642921447
1630498041959,0.2486532479524612,-0.1299595981836319,-0.4637855291366577,0.1053622364997863
1630498042052,0.2246601581573486,-0.1587555408477783,-0.431181788444519,0.085867628455162
1630498042162,0.1962736397981643,-0.1980637460947036,-0.4063305258750915,0.0611312463879585
1630498042258,0.1994080394506454,-0.2188016176223755,-0.381654679775238,0.0519881099462509
1630498042352,0.1923587918281555,-0.2003544121980667,-0.3519847393035888,0.0235056784003973
1630498042430,0.1858714520931244,-0.1390540152788162,-0.3035202622413635,-0.0283471401780843
1630498042601,0.1658502221107483,-0.0532740280032157,-0.2373943924903869,-0.1200872734189033
1630498042680,0.1262010782957077,0.0330556705594062,-0.1623287796974182,-0.2500924468040466
1630498042773,0.0823287814855575,0.0953396633267402,-0.0924872606992721,-0.3988531529903412
1630498042898,0.051820408552885,0.1272037774324417,-0.0404372401535511,-0.5239144563674927
1630498042961,0.0580968521535396,0.1358026713132858,-0.0094754686579108,-0.612804114818573
1630498043101,0.0838712304830551,0.1335832327604293,0.0071991989389061,-0.7170377969741821
1630498043179,0.1258106380701065,0.1304602473974228,0.0208745133131742,-0.8277139067649841
1630498043336,0.1753461062908172,0.1279686987400055,0.032217301428318,-0.9133263230323792
1630498043383,0.2369857430458068,0.1265809386968612,0.0433365553617477,-0.9133263230323792
1630498043492,0.2369857430458068,0.127977505326271,0.0510022081434726,-0.9133263230323792
1630498043664,0.2369857430458068,0.1332156509160995,0.054484836757183,-0.9133263230323792
1630498043695,0.2369857430458068,0.1409125030040741,0.0580005273222923,-0.9133263230323792
1630498043836,0.2369857430458068,0.1418814808130264,0.0582342743873596,-0.9133263230323792
1630498043945,0.7757107019424438,0.1297428160905838,0.0555573217570781,0.2239541411399841
1630498044026,0.7453976273536682,0.094149462878704,0.0444709546864032,0.2140431404113769
1630498044090,0.7007348537445068,0.02716775983572,0.0202926285564899,0.2178190052509308
1630498044246,0.656343936920166,-0.0711665078997612,-0.0186882223933935,0.2259983271360397
1630498044278,0.6146633625030518,-0.1840305030345916,-0.065005823969841,0.2313038855791092
1630498044403,0.5719772577285767,-0.2768917381763458,-0.1058106794953346,0.2371949255466461
1630498044481,0.5329200029373169,-0.3185778856277466,-0.1274963021278381,0.2418004870414734
1630498044590,0.4987392127513885,-0.3182122409343719,-0.1338983476161956,0.2371626645326614
1630498044684,0.4725757837295532,-0.3014573752880096,-0.1437267512083053,0.2173143476247787
1630498044809,0.4514401257038116,-0.2723709046840668,-0.1542842239141464,0.1900978088378906
1630498044871,0.4336853325366974,-0.2339312434196472,-0.1674510985612869,0.1626701653003692
1630498045012,0.4170041680335998,-0.1946952939033508,-0.180616870522499,0.1375856697559356
1630498045168,0.3808016180992126,-0.1672861874103546,-0.1952938288450241,0.0977911129593849
1630498045215,0.3166743516921997,-0.1575814336538314,-0.2133091390132904,0.0708081126213073
1630498045327,0.2367007583379745,-0.1622266173362732,-0.2323548346757888,0.0645766481757164
1630498045421,0.1683700382709503,-0.1745246946811676,-0.256147563457489,0.0705888792872428
1630498045514,0.1279462426900863,-0.1868681162595749,-0.2885407507419586,0.0728000551462173
1630498045655,0.1144164428114891,-0.1980940252542495,-0.3226088285446167,0.061608251184225
1630498045717,0.112499251961708,-0.2085703015327453,-0.3532457947731018,0.0369345620274543
1630498045811,0.1146987602114677,-0.212764635682106,-0.3807516098022461,0.0072697573341429
1630498045889,0.1275244504213333,-0.206333577632904,-0.4045462012290954,-0.0224008653312921
1630498045984,0.1507815420627594,-0.1909184157848358,-0.4223273396492004,-0.0454351343214511
1630498046138,0.1750960499048233,-0.1703086644411087,-0.4241786599159241,-0.048131376504898
1630498046237,0.1921474188566208,-0.151815190911293,-0.3984515964984894,-0.0113877980038523
1630498046342,0.2043429315090179,-0.1492741703987121,-0.3682944774627685,0.0537089891731739
1630498046420,0.2240687608718872,-0.1690117418766021,-0.3400244414806366,0.1287491917610168
1630498046513,0.2499567121267318,-0.2043564766645431,-0.309826523065567,0.1974983066320419
1630498046640,0.2751623690128326,-0.2458030581474304,-0.2722441554069519,0.2543718218803406
1630498046702,0.286831647157669,-0.2791205644607544,-0.2361527979373932,0.2884719371795654
1630498046826,0.2811285555362701,-0.2862341403961181,-0.2101022601127624,0.305491030216217
1630498046936,0.2615229785442352,-0.2561353743076324,-0.1925781071186065,0.3156253695487976
1630498047030,0.2342952936887741,-0.2115125060081482,-0.1822846233844757,0.3263607621192932
1630498047126,0.2120634764432907,-0.1741470545530319,-0.1775058507919311,0.3404742777347564
1630498047204,0.1939565241336822,-0.1523867845535278,-0.1732607334852218,0.3579355478286743
1630498047380,0.1806193441152572,-0.1483249366283416,-0.1696071326732635,0.3764083981513977
1630498047506,0.1736900210380554,-0.1575363576412201,-0.1644156575202942,0.3924948275089264
1630498047662,0.1647632122039795,-0.1830260902643203,-0.1599909216165542,0.4084575772285461
1630498047767,0.1570924371480941,-0.2538543343544006,-0.1717730909585952,0.4315531253814697
1630498047768,0.1651651263236999,-0.2209016978740692,-0.1601655781269073,0.4226208031177521
1630498047833,0.1485247164964676,-0.2692243456840515,-0.1848166435956955,0.4314282834529876
1630498047972,0.1233885139226913,-0.274775356054306,-0.1907231360673904,0.4196416139602661
1630498048035,0.0798185542225837,-0.2759898602962494,-0.1648527681827545,0.3996807634830475
1630498048178,0.0028526447713375,-0.2751790583133697,-0.0878449454903602,0.3725829124450683
1630498048261,-0.0690554603934288,-0.2711367309093475,0.0166954528540372,0.35781329870224
1630498048336,-0.1050571352243423,-0.2754625678062439,0.1108573228120803,0.3570810556411743
1630498048440,-0.0882115811109542,-0.316331684589386,0.1773319542407989,0.3596991002559662
1630498048534,-0.0467869937419891,-0.4088601171970367,0.2139608860015869,0.3566958010196686
1630498048671,-0.0011055576615035,-0.5434877872467041,0.2314518243074417,0.3566958010196686
1630498048765,0.0478230603039264,-0.6970160007476807,0.2442656755447387,0.3566958010196686
1630498048843,0.0478230603039264,-0.7830552458763123,0.2567949593067169,0.3566958010196686
1630498048951,0.0478230603039264,-0.7830552458763123,0.270352303981781,0.3566958010196686
1630498049046,0.0478230603039264,-0.7830552458763123,0.284762442111969,0.3566958010196686
1630498049140,0.0478230603039264,-0.7830552458763123,0.2993907034397125,0.3566958010196686
1630498049284,0.0478230603039264,-0.7830552458763123,0.3153496086597442,0.3566958010196686
1630498049378,0.0478230603039264,-0.7830552458763123,0.3306353390216827,0.3566958010196686
1630498049471,0.0478230603039264,-0.0139121506363153,0.3412337899208069,0.3566958010196686
1630498049627,0.0478230603039264,0.1810039728879928,0.3181820213794708,0.3566958010196686
1630498049643,0.0478230603039264,0.0593948103487491,0.3403872847557068,0.3566958010196686
1630498049752,0.0478230603039264,0.3218561708927154,0.274059921503067,0.3566958010196686
1630498049924,0.0478230603039264,0.4400306344032287,0.2173222303390503,0.3566958010196686
1630498050020,0.0478230603039264,0.5137643814086914,0.1618827879428863,0.3566958010196686
1630498050081,0.0478230603039264,0.5414861440658569,0.121462732553482,0.3566958010196686
1630498050193,0.0478230603039264,0.5360288023948669,0.0961911156773567,0.3566958010196686
1630498050287,0.0478230603039264,0.5127976536750793,0.0737834051251411,0.3566958010196686
1630498050369,0.0478230603039264,0.4847933948040008,0.0543211996555328,0.3566958010196686
1630498050515,0.0478230603039264,0.4590893089771271,0.038635890930891,0.3566958010196686
1630498050592,0.0478230603039264,0.4341814815998077,0.0225645545870065,0.3566958010196686
1630498050670,0.0478230603039264,0.4284170269966125,0.0052706827409565,0.3566958010196686
1630498050779,0.0478230603039264,0.4247318208217621,-0.0146106295287609,0.3566958010196686
1630498050888,0.0478230603039264,0.4203743934631347,-0.0390356704592704,0.3566958010196686
1630498050966,0.7396230101585388,0.4114598631858825,-0.0684215500950813,-0.0774627178907394
1630498051107,0.681172788143158,0.392901748418808,-0.1093691289424896,-0.1471963226795196
1630498051248,0.6165276169776917,0.3535756766796112,-0.1597317308187484,-0.169790118932724
1630498051326,0.5601111650466919,0.277940422296524,-0.2079324126243591,-0.1525552570819854
1630498051393,0.5164666771888733,0.1525076031684875,-0.2299990206956863,-0.1038775295019149
1630498051502,0.4824289977550506,-0.0197091661393642,-0.2178310453891754,-0.0503557473421096
1630498051596,0.4574604630470276,-0.1995750367641449,-0.1851991415023803,-0.0216605830937623
1630498051690,0.4367160499095917,-0.32445228099823,-0.1366761326789856,-0.0147312395274639
1630498051883,0.4234426319599151,-0.3690986335277557,-0.0725278630852699,-0.0111818127334117
1630498051930,0.4302045702934265,-0.3665156066417694,-0.0004932466545142,0.0001159267267212
1630498051992,0.461779773235321,-0.3514266610145569,0.0663957446813583,0.0191266164183616
1630498052101,0.51191645860672,-0.3155842125415802,0.123185396194458,0.0461109913885593
1630498052230,0.5340526103973389,-0.2721442580223083,0.1589676588773727,0.0630500540137291
1630498052355,0.5521617531776428,-0.2183833718299865,0.1779744327068328,0.1012895852327346
1630498052418,0.5620408654212952,-0.1568796336650848,0.1943032443523407,0.1533208042383194
1630498052538,0.5857157707214355,-0.09314776211977,0.2133213877677917,0.20787014067173
1630498052685,0.6123171448707581,-0.0383422449231147,0.2335358709096908,0.2561031877994537
1630498052701,0.641247034072876,-0.003583294339478,0.2502225041389465,0.2875004112720489
1630498052792,0.6633843183517456,0.014630583114922,0.2560687065124511,0.2977524697780609
1630498052917,0.6815513372421265,0.0214323122054338,0.2496321499347686,0.288031667470932
1630498053105,0.6978756189346313,0.0197511669248342,0.2363211810588836,0.2679758667945862
1630498053152,0.7102182507514954,0.0125384954735636,0.2211190611124038,0.2491468787193298
1630498053240,0.7166553139686584,0.0024995969142764,0.2013504654169082,0.2373250126838684
1630498053339,0.7186238765716553,-0.0045636380091309,0.1723256707191467,0.2281662970781326
1630498053429,0.7114325761795044,-0.0094277197495102,0.1306320428848266,0.2179699540138244
1630498053539,0.6885443329811096,-0.0193213894963264,0.0777053460478782,0.2085842192173004
1630498053618,0.6472905874252319,-0.0391823463141918,0.0173041895031929,0.1988750249147415
1630498053765,0.598401665687561,-0.0725365802645683,-0.0356438569724559,0.1845078021287918
1630498053827,0.5453618764877319,-0.1258932650089264,-0.0779892355203628,0.154243916273117
1630498053923,0.4987691342830658,-0.199395552277565,-0.1248701810836792,0.1027541309595108
1630498054002,0.4569433629512787,-0.2910454571247101,-0.185868814587593,0.032279048115015
1630498054208,0.4308440387248993,-0.3803862333297729,-0.2582694590091705,-0.0482004359364509
1630498054317,0.4203190505504608,-0.4178682565689087,-0.3292189240455627,-0.1255452632904052
1630498054348,0.4261155724525451,-0.403423935174942,-0.3709039092063904,-0.1741400808095932
1630498054441,0.4280728101730346,-0.3710250556468963,-0.3811379969120025,-0.1790570616722107
1630498054566,0.4160316884517669,-0.3434575200080871,-0.3838354051113128,-0.1555607616901397
1630498054630,0.4066848754882812,-0.3139343857765198,-0.3844715058803558,-0.1112126633524894
1630498054772,0.4140072762966156,-0.2728938460350036,-0.3808358013629913,-0.057809229940176
1630498054874,0.4407238662242889,-0.2313244938850402,-0.3781051933765411,-0.014337851665914
1630498054921,0.4772749841213226,-0.1937865763902664,-0.3734701871871948,0.0165658183395862
1630498055014,0.4917869567871094,-0.1630090326070785,-0.3625338971614837,0.0341213643550872
1630498055158,0.5079202651977539,-0.1369663029909134,-0.3399444818496704,0.0426158085465431
1630498055289,0.5261876583099365,-0.111723706126213,-0.3027341365814209,0.0546252466738224
1630498055367,0.5421467423439026,-0.0900243073701858,-0.2603231370449066,0.0784749910235405
1630498055471,0.5365849733352661,-0.0767600014805793,-0.221031054854393,0.1056975945830345
1630498055549,0.5174498558044434,-0.070348247885704,-0.1857455670833587,0.1258623898029327
1630498055638,0.4899764657020569,-0.0738038271665573,-0.1555625051259994,0.1354966163635254
1630498055763,0.4473868608474731,-0.0922430157661438,-0.1334698349237442,0.1430656611919403
1630498055872,0.3918911516666412,-0.1199560463428497,-0.1189981997013092,0.1558631509542465
1630498055997,0.3373424410820007,-0.146794855594635,-0.1118074506521225,0.1741078048944473
1630498056122,0.3022964894771576,-0.1669948101043701,-0.105523481965065,0.1977501511573791
1630498056185,0.2645421624183655,-0.1908046752214431,-0.1001630425453186,0.215782880783081
1630498056308,0.2160394191741943,-0.2272013127803802,-0.0937050133943557,0.2257531732320785
1630498056385,0.1438488513231277,-0.2738604247570038,-0.0764799788594245,0.2360682487487793
1630498056449,0.0400156751275062,-0.3313542306423187,-0.0473491810262203,0.2478022277355194
1630498056596,0.0821491256356239,-0.3899880945682525,-0.0207837503403425,0.2585257589817047
1630498056699,0.1101720184087753,-0.4459777772426605,-0.0118037369102239,0.2619807124137878
1630498056780,0.1373714953660965,-0.5035385489463806,-0.0244716629385948,0.252650648355484
1630498056855,0.1363266110420227,-0.5548551082611084,-0.051881231367588,0.2313949763774871
1630498056965,0.1640869826078415,-0.590938150882721,-0.0826326534152031,0.2081927210092544
1630498057025,0.1912593990564346,-0.617430567741394,-0.1126455888152122,0.1913330852985382
1630498057181,0.2071397453546524,-0.6231553554534912,-0.1332874596118927,0.182582676410675
1630498057277,0.2172484844923019,-0.6004245281219482,-0.1380949467420578,0.1801612675189972
1630498057370,0.2289008200168609,-0.5691150426864624,-0.130833014845848,0.1764092594385147
1630498057479,0.2500781416893005,-0.5371710062026978,-0.1159412637352943,0.1716635227203369
1630498057574,0.2712216675281524,-0.5167179703712463,-0.0885696187615394,0.1697110384702682
1630498057668,0.292704164981842,-0.5068349838256836,-0.0394522920250892,0.1825598031282425
1630498057814,0.3032868504524231,-0.4940639138221741,0.0153347896412014,0.1988933086395263
1630498057937,0.3014964163303375,-0.4633366465568542,0.0481701418757438,0.2030750066041946
1630498058015,0.3032734096050262,-0.4133565127849579,0.0486172027885913,0.1873263865709304
1630498058095,0.2948850691318512,-0.3196555972099304,0.0202820114791393,0.1695533394813537
1630498058220,0.2886781394481659,-0.1109169423580169,0.0332931615412235,0.1563780009746551
1630498058282,0.2774709165096283,0.1924177557229995,0.1675458699464798,0.1573262512683868
1630498058439,0.2573595941066742,0.5127829313278198,0.3960095047950744,0.1773484796285629
1630498058517,0.2346730381250381,0.5416147112846375,0.613850474357605,0.209285482764244
1630498058672,0.2222241312265396,0.5724349021911621,0.7808778285980225,0.2481180876493454
1630498058720,0.2236457914113998,0.6045671701431274,0.8872654438018799,0.2907018959522247
1630498058799,0.2413827329874038,0.6382512450218201,0.9525997638702391,0.3326329588890075
1630498058891,0.2628432214260101,0.6747478246688843,1.0039879083633425,0.375817596912384
1630498059110,0.2660355269908905,0.7154957056045532,1.0529654026031494,0.4142667949199676
1630498059236,0.2553237080574035,0.8173183798789978,1.1133193969726562,0.4342086613178253
1630498059238,0.2553237080574035,0.7624794840812683,1.09059739112854,0.4342086613178253
1630498059314,0.2553237080574035,0.8808034658432007,1.123313307762146,0.4342086613178253
1630498059436,0.2553237080574035,0.9542182087898254,1.126242756843567,0.4342086613178253
1630498059515,0.2553237080574035,1.0421537160873413,1.1277005672454834,0.4342086613178253
1630498059657,0.2553237080574035,1.0421537160873413,1.1297318935394287,0.4342086613178253
1630498059750,0.2553237080574035,1.0421537160873413,1.131633162498474,0.4342086613178253
1630498059817,0.2553237080574035,1.0421537160873413,1.1340473890304563,0.4342086613178253
1630498060015,0.2553237080574035,1.0421537160873413,1.1332976818084717,0.4342086613178253
1630498060077,0.2553237080574035,1.0421537160873413,1.1249829530715942,0.4342086613178253
1630498060125,0.2553237080574035,1.0421537160873413,1.1043586730957031,0.4342086613178253
1630498060279,0.2553237080574035,1.0421537160873413,1.0801244974136353,0.4342086613178253
1630498060343,0.2553237080574035,1.0421537160873413,1.057865858078003,0.4342086613178253
1630498060422,0.2553237080574035,1.0421537160873413,1.031435489654541,0.4342086613178253
1630498060582,0.2553237080574035,1.0421537160873413,0.9978172779083252,0.4342086613178253
1630498060639,0.2553237080574035,1.0421537160873413,0.9706051349639891,0.4342086613178253
1630498060732,0.2553237080574035,1.0421537160873413,0.9559189081192015,0.4342086613178253
1630498060890,0.2553237080574035,1.0421537160873413,0.9512582421302797,0.4342086613178253
1630498060951,0.2553237080574035,1.0421537160873413,0.955386996269226,0.4342086613178253
1630498061115,0.2553237080574035,1.0421537160873413,0.966958463191986,0.4342086613178253
1630498061139,0.2553237080574035,1.2161567211151123,0.9837900400161744,1.6950886249542236
1630498061264,0.2553237080574035,1.1361392736434937,0.998229205608368,1.7364617586135864
1630498061329,0.2553237080574035,1.068095326423645,0.9934987425804138,1.7692629098892212
1630498061487,0.2553237080574035,1.009000301361084,0.9601221680641174,1.8014477491378784
1630498061581,0.2553237080574035,0.9595561623573304,0.9026221036911012,1.835376024246216
1630498061643,0.2553237080574035,0.919799268245697,0.839758574962616,1.835376024246216
1630498061737,0.2553237080574035,0.8873404860496521,0.7872382998466492,1.835376024246216
1630498061833,0.2553237080574035,0.8640572428703308,0.7538349032402039,1.835376024246216
1630498061961,0.2553237080574035,0.8506627082824707,0.7435557246208191,1.835376024246216
1630498062086,0.2553237080574035,0.8563052415847778,0.775657594203949,1.835376024246216
1630498062133,0.2553237080574035,0.8563052415847778,0.8542717099189758,1.835376024246216
1630498062293,0.2553237080574035,0.8563052415847778,0.951662540435791,1.835376024246216
1630498062370,0.2553237080574035,0.7238107919692993,0.963703989982605,1.8537458181381223
1630498062465,0.2553237080574035,0.5855556130409241,0.9796097278594972,1.883762240409851
1630498062543,0.2553237080574035,0.5011844635009766,0.9935102462768556,1.9149374961853027
1630498062700,0.2553237080574035,0.4863556623458862,1.004220724105835,1.9412413835525515
1630498062781,0.2553237080574035,0.4943371117115021,1.0139886140823364,1.9412413835525515
1630498062872,0.2553237080574035,0.5202680230140686,1.0319362878799438,1.9412413835525515
1630498062966,0.2553237080574035,0.5625514984130859,1.0296202898025513,1.9412413835525515
1630498063057,0.2553237080574035,0.6347378492355347,1.025225043296814,1.9412413835525515
1630498063184,0.2553237080574035,0.6789284348487854,1.019239068031311,1.9412413835525515
1630498063307,0.2553237080574035,0.7262850999832153,1.0143766403198242,1.9412413835525515
1630498063370,1.0532959699630735,0.7521799206733704,1.0063645839691162,1.9412413835525515
1630498063498,1.0532959699630735,0.7404004335403442,0.9847997426986694,1.9412413835525515
1630498063592,1.0532959699630735,0.6504342555999756,0.9169586300849916,1.9412413835525515
1630498063687,1.0532959699630735,0.6085370182991028,0.7430628538131714,1.9412413835525515
1630498063811,1.0532959699630735,0.5911086797714233,0.2660559713840484,1.9412413835525515
1630498063904,1.0532959699630735,0.5995974540710449,0.2514262795448303,1.9412413835525515
1630498064013,1.0532959699630735,0.6111094355583191,0.2428754270076751,1.9412413835525515
1630498064088,1.0532959699630735,0.6130446195602417,0.2381423115730285,1.9412413835525515
1630498064195,1.0532959699630735,0.6221714615821838,0.2380207777023315,1.9412413835525515
1630498064274,1.0532959699630735,0.660882830619812,0.2646864652633667,1.9412413835525515
1630498064367,1.0532959699630735,0.7208952903747559,0.3195242583751678,1.9412413835525515
1630498064508,1.0532959699630735,0.7208952903747559,0.3790027201175689,1.9412413835525515
1630498064620,1.0532959699630735,0.7201062440872192,0.4841111600399017,1.9412413835525515
1630498064702,1.0532959699630735,0.7238135933876038,0.6118870973587036,1.9412413835525515
1630498064774,1.0532959699630735,0.7213252782821655,0.7323098182678223,1.9412413835525515
1630498064884,1.0532959699630735,0.7214590311050415,0.8225929737091064,1.9412413835525515
1630498064976,1.0532959699630735,0.7352211475372314,0.8753044605255127,1.9412413835525515
1630498065119,1.0532959699630735,0.7671265006065369,0.898693859577179,1.9412413835525515
1630498065229,1.0532959699630735,0.7820373773574829,0.9062427282333374,1.9412413835525515
1630498065292,1.0532959699630735,0.7957929968833923,0.9089338779449464,1.9412413835525515
1630498065418,1.0532959699630735,0.834978461265564,0.913004755973816,1.9412413835525515
1630498065531,1.0532959699630735,0.9012861847877502,0.9191306233406068,1.9412413835525515
1630498065562,1.0532959699630735,0.9696893692016602,0.9260355234146118,1.9412413835525515
1630498065765,1.0532959699630735,1.0110982656478882,0.931220769882202,1.9412413835525515
1630498065826,1.0532959699630735,1.00350022315979,0.9281248450279236,1.9412413835525515
1630498065923,1.0532959699630735,0.946736454963684,0.9134016036987304,1.9412413835525515
1630498066046,0.9394583106040956,0.9106224775314332,0.8840832114219666,1.9412413835525515
1630498066095,0.8865041136741638,0.871968150138855,0.8346956372261047,1.9412413835525515
1630498066189,0.8865041136741638,0.8358221054077148,0.7519863247871399,1.9412413835525515
1630498066408,0.8865041136741638,0.8140203952789307,0.6300569176673889,1.9412413835525515
1630498066454,0.8865041136741638,0.8182008862495422,0.5024089813232422,1.9412413835525515
1630498066534,0.8865041136741638,0.8515837788581848,0.468648761510849,1.9412413835525515
1630498066659,0.8865041136741638,0.8994390964508057,0.5536103248596191,1.9412413835525515
1630498066751,0.8865041136741638,0.9578225016593932,0.6617555618286133,1.9412413835525515
1630498066815,0.8865041136741638,0.9910200238227844,0.734886884689331,1.9412413835525515
1630498066971,0.8865041136741638,0.987553894519806,0.7629523277282715,1.9412413835525515
1630498067040,0.8865041136741638,0.9514310359954834,0.7628948092460632,1.9412413835525515
1630498067190,0.8865041136741638,0.9058114290237428,0.7530657052993774,1.9412413835525515
1630498067271,0.7595407366752625,0.8866766095161438,0.7478038668632507,1.9412413835525515
1630498067348,0.7595407366752625,0.9159328937530518,0.7563338279724121,1.9412413835525515
1630498067447,0.7595407366752625,0.9814056754112244,0.7838811278343201,1.9412413835525515
1630498067525,0.7595407366752625,1.052573323249817,0.8233328461647034,1.9412413835525515
1630498067646,0.7595407366752625,1.1078017950057983,0.8707827925682068,1.9412413835525515
1630498067779,0.7595407366752625,1.141430139541626,0.9245699048042296,1.9412413835525515
1630498067865,0.7595407366752625,1.15622878074646,0.972971498966217,1.9412413835525515
1630498067911,0.7595407366752625,1.1532810926437378,1.0013258457183838,1.9412413835525515
1630498068067,0.7595407366752625,1.1299740076065063,0.996450424194336,1.9412413835525515
1630498068161,0.7595407366752625,1.0909281969070437,0.959533989429474,1.9412413835525515
1630498068287,0.7595407366752625,1.044929265975952,0.9089038968086244,1.9412413835525515
1630498068377,0.7595407366752625,1.0065958499908447,0.8728467226028442,1.9412413835525515
1630498068504,0.7595407366752625,0.9851834177970886,0.8728268146514893,1.9412413835525515
1630498068549,0.7595407366752625,0.9808322787284852,0.8994492292404175,1.9412413835525515
1630498068626,0.7595407366752625,0.9797884821891784,0.9269906282424928,1.9412413835525515
1630498068797,0.7595407366752625,0.962363302707672,0.940381646156311,1.9412413835525515
1630498068874,0.7595407366752625,0.9154890775680542,0.9368493556976318,1.9412413835525515
1630498068937,0.7595407366752625,0.8280077576637268,0.9174536466598512,1.9412413835525515
1630498069081,0.7595407366752625,0.6963908076286316,0.8857882618904114,1.9412413835525515
1630498069194,0.7595407366752625,0.5388593673706055,0.8397367000579834,1.9412413835525515
1630498069254,0.7595407366752625,0.3875791132450104,0.7727522850036621,1.9412413835525515
1630498069397,0.7595407366752625,0.2599842846393585,0.6879435181617737,1.9412413835525515
1630498069477,0.7595407366752625,0.1646330058574676,0.5999667048454285,1.9412413835525515
1630498069567,0.6286454200744629,0.1150276586413383,0.5363737344741821,1.9412413835525515
1630498069660,0.6042130589485168,0.0753539353609085,0.5062984824180603,0.3802916705608368
1630498069738,0.6204833984375,0.0463623404502868,0.490345686674118,0.3802916705608368
1630498069862,0.6656211018562317,0.0549163371324539,0.462030827999115,0.3802916705608368
1630498070007,0.7440169453620911,0.1035061627626419,0.4076398611068725,0.3802916705608368
1630498070097,0.8610289692878723,0.1763722449541092,0.3294571042060852,0.3802916705608368
1630498070175,0.975722312927246,0.2494468539953231,0.255920261144638,0.3802916705608368
1630498070287,0.975722312927246,0.3048249185085296,0.2123754471540451,0.3802916705608368
1630498070364,0.975722312927246,0.3349744081497192,0.2106834650039672,0.3802916705608368
1630498070533,0.975722312927246,0.3418842852115631,0.2396942675113678,0.3802916705608368
1630498070626,0.975722312927246,0.3373106122016907,0.3071991801261902,0.3802916705608368
1630498070689,0.975722312927246,0.3331495225429535,0.4192302525043487,0.3802916705608368
1630498070753,0.9910255074501038,0.334285706281662,0.5375268459320068,0.3802916705608368
1630498070925,1.0185965299606323,0.3532098233699798,0.6316995024681091,0.3802916705608368
1630498070985,1.0598028898239136,0.4120380580425262,0.694119930267334,0.3802916705608368
1630498071081,1.1114484071731567,0.5205993056297302,0.7314672470092773,0.3802916705608368
1630498071268,1.1729753017425537,0.5469054579734802,0.7530217170715332,0.3802916705608368
1630498071376,1.24006986618042,0.5736737251281738,0.7657275199890137,0.3802916705608368
1630498071408,1.24006986618042,0.5954751372337341,0.7703446745872498,0.3802916705608368
1630498071503,1.24006986618042,0.6064180731773376,0.7655274868011475,0.3802916705608368
1630498071674,1.24006986618042,0.6194086670875549,0.7521105408668518,0.3802916705608368
1630498071736,1.24006986618042,0.5850511789321899,0.7336361408233643,0.3802916705608368
1630498071814,1.24006986618042,0.5338282585144043,0.7171602249145508,0.3802916705608368
1630498071922,0.7344101667404175,0.4922839105129242,0.7033259272575378,0.6483803391456604
1630498072015,0.7344101667404175,0.4709133803844452,0.6881108283996582,0.6483803391456604
1630498072140,0.7344101667404175,0.4669359624385834,0.6609271764755249,0.6483803391456604
1630498072204,0.7344101667404175,0.4925026297569275,0.6034634709358215,0.6483803391456604
1630498072281,0.7344101667404175,0.5640823841094971,0.5139298439025879,0.6483803391456604
1630498072436,0.7344101667404175,0.6551101207733154,0.4080173671245575,0.6483803391456604
1630498072530,0.7344101667404175,0.7197989821434021,0.3135548233985901,0.6483803391456604
1630498072640,0.7344101667404175,0.7181551456451416,0.2434275150299072,0.6483803391456604
1630498072751,0.7344101667404175,0.7279245257377625,0.1872172504663467,0.6483803391456604
1630498072767,0.7344101667404175,0.7122745513916016,0.1314262598752975,0.6483803391456604
1630498072908,0.7344101667404175,0.6878987550735474,0.0813086926937103,0.6483803391456604
1630498073067,0.7344101667404175,0.6641125082969666,0.0437825359404087,0.6483803391456604
1630498073144,0.7344101667404175,0.6309551000595093,0.0214954577386379,0.6483803391456604
1630498073287,0.7344101667404175,0.6241666078567505,0.0236069429665803,0.6483803391456604
1630498073336,0.7344101667404175,0.6421552896499634,0.0565805472433567,0.6483803391456604
1630498073428,0.7344101667404175,0.6853163242340088,0.1100747063755989,0.6483803391456604
1630498073507,0.7344101667404175,0.7513500452041626,0.1680916845798492,0.9278146624565125
1630498073652,0.7344101667404175,0.8176593780517578,0.2135280668735504,0.9678213596343994
1630498073776,0.7344101667404175,0.8597556352615356,0.2498199790716171,0.9644600749015808
1630498073852,0.7344101667404175,0.8682829737663269,0.2817451357841491,0.9389594197273254
1630498073929,0.7344101667404175,0.8504218459129333,0.3092533349990845,0.9389594197273254
1630498074057,0.7344101667404175,0.8196167945861816,0.3223907947540283,0.9389594197273254
1630498074117,0.7344101667404175,0.7936301231384277,0.3222227394580841,0.9389594197273254
1630498074243,0.7344101667404175,0.7908607125282288,0.3181640803813934,0.9389594197273254
1630498074335,0.7344101667404175,0.8134108781814575,0.3164803683757782,0.9389594197273254
1630498074430,0.7344101667404175,0.8509761691093445,0.3180062770843506,0.9389594197273254
1630498074557,0.7344101667404175,0.8954296112060547,0.3195079565048218,0.9389594197273254
1630498074636,0.7344101667404175,0.9483429193496704,0.3178228437900543,0.9389594197273254
1630498074713,0.7344101667404175,1.0076344013214111,0.3100376427173614,0.9889885187149048
1630498074855,0.7344101667404175,1.0622243881225586,0.2957225441932678,1.0193296670913696
1630498074967,0.7344101667404175,1.0991472005844116,0.2824149429798126,1.0095361471176147
1630498075060,0.7344101667404175,1.0991472005844116,0.2732438445091247,1.0095361471176147
1630498075169,0.7344101667404175,1.0991472005844116,0.2672558128833771,1.0095361471176147
1630498075232,0.7344101667404175,1.0991472005844116,0.2527330815792084,1.0095361471176147
1630498075328,0.7344101667404175,1.0991472005844116,0.2153904438018798,1.0095361471176147
1630498075517,0.7344101667404175,1.0991472005844116,0.161095842719078,1.0095361471176147
1630498075550,0.7344101667404175,1.0991472005844116,0.1472195833921432,1.0095361471176147
1630498075675,0.7344101667404175,1.0991472005844116,0.2111678421497345,1.0095361471176147
1630498075769,0.7344101667404175,1.0991472005844116,0.336493968963623,1.0095361471176147
1630498075864,0.9300379157066344,1.0601855516433716,0.4613886475563049,1.0095361471176147
1630498075941,0.9300379157066344,1.0941978693008425,0.5506248474121094,1.0095361471176147
1630498076099,0.9300379157066344,1.0950695276260376,0.6063928604125977,1.0095361471176147
1630498076192,0.9300379157066344,1.0819748640060425,0.6373881101608276,1.0095361471176147
1630498076300,0.9300379157066344,1.0725747346878052,0.6604381203651428,1.0095361471176147
1630498076348,0.9300379157066344,1.07439923286438,0.6888552308082581,1.0095361471176147
1630498076490,0.9300379157066344,1.0791819095611572,0.7199909090995789,1.0095361471176147
1630498076570,0.9300379157066344,1.072990655899048,0.748765766620636,1.0095361471176147
1630498076707,0.9300379157066344,1.059578537940979,0.7782549858093262,1.0095361471176147
1630498076861,0.9300379157066344,1.031336784362793,0.8354111909866333,1.0095361471176147
1630498076866,0.9300379157066344,1.0459362268447876,0.8089004158973694,1.0095361471176147
1630498076972,0.9300379157066344,1.0139074325561523,0.8492115139961243,1.0095361471176147
1630498077065,0.9300379157066344,1.0073741674423218,0.847178041934967,1.0095361471176147
1630498077177,0.9300379157066344,0.9871718287467957,0.8293900489807129,1.0095361471176147
1630498077335,0.9300379157066344,0.9471545219421388,0.7940927743911743,1.0095361471176147
1630498077399,0.9300379157066344,0.8973365426063538,0.7508386969566345,1.0095361471176147
1630498077541,1.4400813579559326,0.8615949153900146,0.717586874961853,1.0095361471176147
1630498077555,1.5716227293014526,0.8383689522743225,0.7119110822677612,1.0095361471176147
1630498077696,1.697395086288452,0.8237451314926147,0.7352508902549744,1.0095361471176147
1630498077788,1.7926539182662964,0.8051915764808655,0.7662009000778198,1.0095361471176147
1630498077911,1.84168803691864,0.7672150135040283,0.7789711952209473,1.0095361471176147
1630498078006,1.84168803691864,0.7476363778114319,0.7663798928260803,1.0095361471176147
1630498078098,1.84168803691864,0.7068827152252197,0.7351047992706299,1.0095361471176147
1630498078208,1.84168803691864,0.6578578948974609,0.6918337941169739,1.0095361471176147
1630498078384,1.84168803691864,0.6144773960113525,0.6430180072784424,1.0095361471176147
1630498078414,1.84168803691864,0.6133028864860535,0.598876416683197,1.0095361471176147
1630498078530,1.84168803691864,0.6597484350204468,0.5756711363792419,1.0095361471176147
1630498078634,1.84168803691864,0.7209290266036987,0.5736187100410461,1.0095361471176147
1630498078712,1.8878432512283323,0.7679516077041626,0.5817662477493286,1.0095361471176147
1630498078806,1.9397331476211548,0.7915884852409363,0.5888633728027344,1.0095361471176147
1630498078901,1.994018793106079,0.7846083641052246,0.5842248201370239,1.0095361471176147
1630498078994,2.046720027923584,0.7447633743286133,0.5638067126274109,1.0095361471176147
1630498079150,2.046720027923584,0.7121337652206421,0.5189749002456665,1.0095361471176147
1630498079262,2.046720027923584,0.6819595098495483,0.4442003071308136,1.0095361471176147
1630498079338,2.046720027923584,0.6550071835517883,0.3461215198040008,1.0095361471176147
1630498079400,2.046720027923584,0.6318064332008362,0.2512350380420685,1.0095361471176147
1630498079510,0.7393087148666382,0.5639280080795288,0.1967815458774566,1.0095361471176147
1630498079620,0.7236146330833435,0.5335065722465515,0.1854596734046936,1.0095361471176147
1630498079759,0.7001714110374451,0.5271399021148682,0.1890225708484649,0.4049926102161407
1630498079853,0.6898581385612488,0.5162349939346313,0.1902376860380172,0.3538417518138885
1630498079914,0.6949030756950378,0.4705077707767486,0.1874037086963653,0.3374415040016174
1630498080056,0.7054831981658936,0.3769329190254211,0.1711033284664154,0.3374415040016174
1630498080136,0.7054831981658936,0.2426006644964218,0.1329462677240371,0.3374415040016174
1630498080214,0.7054831981658936,0.1003159880638122,0.0776817426085472,0.3374415040016174
1630498080359,0.7054831981658936,0.0253245737403631,0.0211153719574213,0.3374415040016174
1630498080455,0.7054831981658936,0.0702450796961784,-0.0155751146376132,0.3374415040016174
1630498080548,0.7054831981658936,0.1664837747812271,-0.0249887127429246,0.3374415040016174
1630498080626,0.7054831981658936,0.2684420347213745,-0.0196584276854991,0.3374415040016174
1630498080751,0.703769862651825,0.3641015887260437,-0.0106238862499594,0.3374415040016174
1630498080827,0.7035523653030396,0.4497580230236053,-0.0085020996630191,0.3374415040016174
1630498080956,0.6890152096748352,0.5188575983047485,-0.0122901834547519,0.2543927729129791
1630498081078,0.6763879060745239,0.5707653164863586,-0.0096367374062538,0.1794521212577819
1630498081173,0.6816996932029724,0.6078776717185974,0.0218726024031639,0.1794521212577819
1630498081235,0.6816996932029724,0.6367750763893127,0.0814568549394607,0.1794521212577819
1630498081362,0.6816996932029724,0.6833661198616028,0.1603481024503708,0.1794521212577819
1630498081440,0.6816996932029724,0.7507450580596924,0.239045038819313,0.1794521212577819
1630498081567,0.6816996932029724,0.8140188455581665,0.2949872612953186,0.1794521212577819
1630498081739,0.6816996932029724,0.8557359576225281,0.3255647122859955,0.1794521212577819
1630498081800,0.6816996932029724,0.8748682737350464,0.3384734094142914,0.1794521212577819
1630498081863,0.6816996932029724,0.8765579462051392,0.3401169776916504,0.1794521212577819
1630498081957,0.6816996932029724,0.8671760559082031,0.3348617255687713,0.1794521212577819
1630498082035,0.6816996932029724,0.849757730960846,0.3270786702632904,0.1794521212577819
1630498082178,0.6816996932029724,0.8248510360717773,0.3171180188655853,0.1794521212577819
1630498082271,0.6816996932029724,0.793241024017334,0.3036620616912842,0.1794521212577819
1630498082334,0.6816996932029724,0.7542585730552673,0.2855006158351898,0.1794521212577819
1630498082479,0.6816996932029724,0.7113253474235535,0.2668875753879547,0.1794521212577819
1630498082552,-0.4223494529724121,0.6711046695709229,0.2453639209270477,0.5967091917991638
1630498082663,-0.4238298535346985,0.6402090787887573,0.2096416652202606,0.5237492918968201
1630498082785,-0.4011642336845398,0.6160291433334351,0.1525336056947708,0.469562828540802
1630498082884,-0.3802685737609863,0.5651622414588928,0.0629967749118805,0.4298206865787506
1630498082981,-0.3781799972057342,0.4583234488964081,-0.0587891191244125,0.4041966497898102
1630498083111,-0.3781799972057342,0.297943115234375,-0.1695256531238556,0.450113981962204
1630498083167,-0.3781799972057342,0.1207433193922042,-0.2170250415802002,0.450113981962204
1630498083291,-0.3781799972057342,0.0144916977733373,-0.1880035251379013,0.450113981962204
1630498083413,-0.3781799972057342,0.018926590681076,-0.1149569451808929,0.450113981962204
1630498083511,-0.3781799972057342,0.0631406307220459,-0.0314463973045349,0.450113981962204
1630498083648,-0.3781799972057342,0.1096994206309318,0.0368787944316864,0.450113981962204
1630498083679,-0.3781799972057342,0.1426820904016494,0.0831380784511566,0.450113981962204
1630498083790,-0.4207412600517273,0.1629178375005722,0.1060288846492767,0.367191731929779
1630498083885,-0.4101743996143341,0.1785691529512405,0.1172877997159957,0.2960791885852813
1630498084010,-0.3582712113857269,0.1903461962938308,0.123459555208683,0.2658863961696625
1630498084088,-0.3380909264087677,0.1922956705093383,0.1250364780426025,0.2818523645401001
1630498084230,-0.3380909264087677,0.1819869875907898,0.1272897273302078,0.336059033870697
1630498084337,-0.3380909264087677,0.1731349825859069,0.1411831676959991,0.336059033870697
1630498084415,-0.3380909264087677,0.189398780465126,0.1799311190843582,0.336059033870697
1630498084508,-0.3380909264087677,0.2365556508302688,0.2450241148471832,0.336059033870697
1630498084585,-0.3380909264087677,0.2925688624382019,0.317621499300003,0.336059033870697
1630498084711,-0.3380909264087677,0.3353496789932251,0.3759597241878509,0.336059033870697
1630498084835,-0.3380909264087677,0.3478918075561523,0.4052436947822571,0.336059033870697
1630498084881,-0.3380909264087677,0.3301096856594085,0.4108515977859497,0.336059033870697
1630498084990,-0.3380909264087677,0.2951394617557525,0.4021241068840027,0.336059033870697
1630498085099,-0.3380909264087677,0.2578229904174804,0.3894562423229217,0.336059033870697
1630498085225,-0.3380909264087677,0.2301201820373535,0.3773950934410095,0.336059033870697
1630498085335,-0.3380909264087677,0.2158478200435638,0.3738953769207001,0.336059033870697
1630498085446,-0.3380909264087677,0.2126803547143936,0.3783022165298462,0.336059033870697
1630498085537,-0.3380909264087677,0.2177926301956176,0.3933062553405761,0.336059033870697
1630498085616,-0.3380909264087677,0.2423560172319412,0.4149747490882873,0.336059033870697
1630498085679,0.4278906285762787,0.2901327013969421,0.4437787234783172,0.5933343172073364
1630498085868,0.4915037453174591,0.3802865743637085,0.4822532534599304,0.5933343172073364
1630498085934,0.4915037453174591,0.5270803570747375,0.5186681151390076,0.5933343172073364
1630498086106,0.4915037453174591,0.512961745262146,0.6123291254043579,0.5933343172073364
1630498086110,0.4915037453174591,0.5238703489303589,0.5589957237243652,0.5933343172073364
1630498086279,0.4915037453174591,0.5048723816871643,0.6830195784568787,0.5933343172073364
1630498086338,0.4915037453174591,0.512333333492279,0.7646923661231995,0.5933343172073364
1630498086432,0.4915037453174591,0.5371731519699097,0.8401614427566528,0.5933343172073364
1630498086544,0.4915037453174591,0.5742338299751282,0.8924347162246704,0.5933343172073364
1630498086603,0.4915037453174591,0.618979275226593,0.9183033108711244,0.5933343172073364
1630498086711,0.4915037453174591,0.6706099510192871,0.9375579357147216,0.5933343172073364
1630498086821,0.4915037453174591,0.7288686633110046,0.9650886058807372,0.5933343172073364
1630498086901,0.4522073566913605,0.7951182126998901,0.9948524832725524,0.5933343172073364
1630498087137,0.4522073566913605,0.8753747344017029,1.0265235900878906,0.5933343172073364
1630498087170,0.4522073566913605,0.8753747344017029,1.0655229091644287,0.5933343172073364
1630498087231,0.4522073566913605,0.8753747344017029,1.1071784496307373,0.5933343172073364
1630498087341,0.4522073566913605,0.8753747344017029,1.1404366493225098,0.5933343172073364
1630498087435,0.4522073566913605,0.8753747344017029,1.15501070022583,0.5933343172073364
1630498087594,0.4522073566913605,0.8753747344017029,1.1500505208969116,0.5933343172073364
1630498087657,0.4522073566913605,0.8753747344017029,1.128773808479309,0.5933343172073364
1630498087781,0.4522073566913605,0.8753747344017029,1.0961297750473022,0.5933343172073364
1630498087829,0.4522073566913605,0.7458072304725647,1.0535508394241333,0.5933343172073364
1630498087972,0.4522073566913605,0.7319576144218445,1.0072139501571655,0.5933343172073364
1630498088034,0.4522073566913605,0.7072604298591614,0.9694960713386536,0.5933343172073364
1630498088098,0.4522073566913605,0.6732850074768066,0.9490430951118468,0.5933343172073364
1630498088304,0.4522073566913605,0.6394245624542236,0.9321101307868958,0.5933343172073364
1630498088379,0.4522073566913605,0.6089909076690674,0.9019536972045898,0.5933343172073364
1630498088457,0.4522073566913605,0.5778183937072754,0.8628677129745483,0.5933343172073364
1630498088549,0.4522073566913605,0.5458652377128601,0.8111248016357422,0.5933343172073364
1630498088642,0.4522073566913605,0.5135366320610046,0.7308279871940613,0.5933343172073364
1630498088736,0.4522073566913605,0.4832635819911957,0.6092924475669861,0.5933343172073364
1630498088977,0.4522073566913605,0.4559850692749023,0.4460810124874115,0.5933343172073364
1630498089040,0.6190952062606812,0.4328285455703735,0.29321950674057,0.5933343172073364
1630498089071,0.6190952062606812,0.3576986491680145,0.199542224407196,0.5933343172073364
1630498089199,0.6190952062606812,0.30377858877182,0.1638689190149307,0.5933343172073364
1630498089292,0.6190952062606812,0.2424902468919754,0.1384038478136062,0.5933343172073364
1630498089386,0.6190952062606812,0.2039792537689209,0.1258864253759384,0.5933343172073364
1630498089526,0.6190952062606812,0.1810256093740463,0.1130822375416755,0.5933343172073364
1630498089589,0.6190952062606812,0.1726787835359573,0.0885431468486785,0.5933343172073364
1630498089673,0.6190952062606812,0.1633872240781784,0.0527010336518287,0.5933343172073364
1630498089751,0.6190952062606812,0.1424488425254821,0.0219854228198528,0.5933343172073364
1630498089876,0.6190952062606812,0.1146885976195335,0.0101143913343548,0.5933343172073364
1630498089969,0.6190952062606812,0.095546580851078,0.0066147483885288,0.5933343172073364
1630498090094,0.6190952062606812,0.0890144258737564,0.0005646354984492,0.5933343172073364
1630498090206,0.6190952062606812,0.09404968470335,-0.0111916046589612,0.5933343172073364
1630498090362,0.6190952062606812,0.1051134765148162,-0.0286071356385946,0.5933343172073364
1630498090393,0.6190952062606812,0.1169253662228584,-0.049852579832077,0.5933343172073364
1630498090518,0.6190952062606812,0.1219248324632644,-0.071992315351963,0.5933343172073364
1630498090597,0.608369767665863,0.1153341606259346,-0.0990849137306213,0.4689960777759552
1630498090711,0.546916127204895,0.1006699427962303,-0.1276636123657226,0.4301164150238037
1630498090805,0.491877406835556,0.0725886896252632,-0.1550320982933044,0.3846674859523773
1630498090943,0.4526791274547577,0.0140166208148002,-0.1934733390808105,0.3430691361427307
1630498091005,0.4455138146877289,-0.0785134732723236,-0.2444185763597488,0.3430691361427307
1630498091114,0.4455138146877289,-0.1749734878540039,-0.292849063873291,0.3430691361427307
1630498091161,0.4455138146877289,-0.2226862907409668,-0.3099532723426819,0.3430691361427307
1630498091302,0.4455138146877289,-0.2093658596277237,-0.2993115186691284,0.3430691361427307
1630498091427,0.4455138146877289,-0.1671306490898132,-0.2742327451705932,0.3430691361427307
1630498091552,0.4455138146877289,-0.1294512897729873,-0.246742308139801,0.3430691361427307
1630498091662,0.4455138146877289,-0.1086647510528564,-0.2213022112846374,0.3430691361427307
1630498091755,0.4455138146877289,-0.106219083070755,-0.2044383138418197,0.3430691361427307
1630498091786,0.379862904548645,-0.1162200793623924,-0.1872336268424987,0.3146308362483978
1630498091927,0.2973782122135162,-0.126500979065895,-0.1639982461929321,0.2593550682067871
1630498092067,0.2226542532444,-0.1273648291826248,-0.1324893087148666,0.1786742061376571
1630498092114,0.1819290816783905,-0.1157282590866088,-0.096927136182785,0.1786742061376571
1630498092224,0.1819290816783905,-0.0959440544247627,-0.0612980127334594,0.1786742061376571
1630498092364,0.1819290816783905,-0.0798060372471809,-0.0329476818442344,0.1786742061376571
1630498092442,0.1819290816783905,-0.074785865843296,-0.0179727524518966,0.1786742061376571
1630498092536,0.1819290816783905,-0.0823143422603607,-0.0210355781018733,0.6279950737953186
1630498092677,-0.1146853491663932,-0.1008997559547424,-0.0337435938417911,0.5631375312805176
1630498092739,0.0220719035714864,-0.128412976861,-0.0475510396063327,0.4927380084991455
1630498092833,0.1228238716721534,-0.1654358506202697,-0.0579186640679836,0.4302957355976105
1630498092942,0.1828946471214294,-0.2155113965272903,-0.0660383328795433,0.3780747354030609
1630498093067,0.2000599503517151,-0.2676564753055572,-0.0697424560785293,0.3347878456115722
1630498093163,0.1877862513065338,-0.3083011507987976,-0.0693616196513176,0.2986933588981628
1630498093288,0.1877862513065338,-0.3324536681175232,-0.0621823407709598,0.2986933588981628
1630498093351,0.1877862513065338,-0.331081211566925,-0.051046784967184,0.2986933588981628
1630498093476,0.1877862513065338,-0.3031740188598633,-0.0418131873011589,0.2986933588981628
1630498093523,0.1877862513065338,-0.2346520274877548,-0.0338389351963996,0.2986933588981628
1630498093632,0.1877862513065338,-0.1295791268348693,-0.0146000944077968,0.2986933588981628
1630498093819,0.1877862513065338,-0.0284494161605834,0.0172864291816949,0.2410102635622024
1630498093867,0.2263128906488418,0.0427232161164283,0.0488464646041393,0.1135993748903274
1630498093991,0.2717887461185455,0.0798892080783844,0.0884144455194473,-0.0831202045083046
1630498094069,0.3093484938144684,0.1293607801198959,0.1358372718095779,-0.3145430982112884
1630498094197,0.3343253135681152,0.2552537620067596,0.2118178606033325,-0.4929126501083374
1630498094244,0.332832008600235,0.4407682418823242,0.3218378126621246,-0.5108699798583984
1630498094369,0.332832008600235,0.6168830394744873,0.4360827505588531,-0.5108699798583984
1630498094494,0.332832008600235,0.7472346425056458,0.5201066732406616,-0.5108699798583984
1630498094556,0.332832008600235,0.8254272937774658,0.5678767561912537,-0.5108699798583984
1630498094666,0.332832008600235,0.8625114560127258,0.5875904560089111,-0.5108699798583984
1630498094791,1.0202934741973877,0.877032995223999,0.5922787189483643,-0.5108699798583984
1630498094916,0.9958680868148804,0.8821398615837097,0.5895367860794067,-0.5108699798583984
1630498094994,0.9753034710884094,0.8793043494224548,0.5829668045043945,-0.5108699798583984
1630498095072,0.9510027170181274,0.8719176650047302,0.5741629004478455,-0.5108699798583984
1630498095197,0.9510027170181274,0.8605664968490601,0.5611314177513123,-0.5108699798583984
1630498095338,0.9510027170181274,0.8535464406013489,0.5496872067451477,-0.5108699798583984
1630498095384,0.9510027170181274,0.8652158379554749,0.561850368976593,-0.5108699798583984
1630498095509,0.9510027170181274,0.9083367586135864,0.6183004975318909,-0.5108699798583984
1630498095619,0.9510027170181274,0.9669528603553772,0.7114158272743225,-0.5108699798583984
1630498095697,0.9510027170181274,1.0092012882232666,0.7975045442581177,-0.5108699798583984
1630498095791,0.9510027170181274,1.014141082763672,0.8459573984146118,-0.5108699798583984
1630498095884,0.9510027170181274,0.9793260097503662,0.8545839190483093,-0.5108699798583984
1630498095994,0.8920651078224182,0.9207173585891724,0.8403019309043884,-0.5108699798583984
1630498096056,0.8520322442054749,0.8674867749214172,0.8227078914642334,-0.5108699798583984
1630498096275,0.8388732671737671,0.834260106086731,0.812295138835907,-0.5108699798583984
1630498096290,0.8388732671737671,0.8200852274894714,0.8080703616142273,-0.5108699798583984
1630498096463,0.8388732671737671,0.814143180847168,0.8067840337753296,-0.5108699798583984
1630498096510,0.8388732671737671,0.8143240809440613,0.8070995211601257,-0.5108699798583984
1630498096619,0.8388732671737671,0.8147018551826477,0.8073970675468445,-0.5108699798583984
1630498096713,-0.0988670289516449,0.813922643661499,0.8077318668365479,0.2474141716957092
1630498096822,0.0045475242659449,0.8059044480323792,0.8051474094390869,0.2205503284931183
1630498096932,0.1210948377847671,0.7786563038825989,0.7904506921768188,0.1969352513551712
1630498097041,0.2111920416355133,0.7104653120040894,0.7455577254295349,0.1756408065557479
1630498097119,0.2639600038528442,0.5828286409378052,0.6509086489677429,0.1474539488554
1630498097200,0.2814310491085052,0.3881847560405731,0.4959962069988251,0.1156770139932632
1630498097340,0.2901946604251861,0.1426412910223007,0.2865083217620849,0.0901937484741211
1630498097434,0.2962711453437805,-0.0804293602705001,0.0559293180704116,0.0757927671074867
1630498097528,0.3052452802658081,-0.2106618732213974,-0.1281583458185196,0.0695910975337028
1630498097606,0.3106788098812103,-0.3040134608745575,-0.2276110500097274,0.0674797520041465
1630498097715,0.3112247288227081,-0.3447382748126983,-0.2596333026885986,0.066487044095993
1630498097809,0.3088370263576507,-0.3670259118080139,-0.2519029974937439,0.062902994453907
1630498097887,0.313423752784729,-0.383076548576355,-0.2243948429822921,0.0322910957038402
1630498098028,0.334781140089035,-0.360815167427063,-0.1810235679149627,0.0280244406312704
1630498098125,0.3598935306072235,-0.1840670704841613,-0.0924176201224327,0.0657893419265747
1630498098221,0.3803874552249908,0.1047869324684143,0.0757349282503128,0.2921790480613708
1630498098314,0.3890801966190338,0.1308336853981018,0.3063013851642608,0.6478853225708008
1630498098408,0.3814363181591034,0.1580843478441238,0.5179486870765686,0.6703985929489136
1630498098518,0.3599076867103576,0.1858997642993927,0.5389924645423889,0.6955922245979309
1630498098643,0.3351154327392578,0.2144862562417984,0.5605657696723938,0.7253077030181885
1630498098768,0.324915736913681,0.2456044256687164,0.5858348608016968,0.7595905065536499
1630498098830,0.3184151649475097,0.2795658111572265,0.6175892949104309,0.7971106767654419
1630498098924,0.3112049996852875,0.3148373663425445,0.7355130314826965,0.8373647928237915
1630498099021,0.2879819571971893,0.3542406260967254,0.8293073177337646,0.8815275430679321
1630498099099,0.2879819571971893,0.4035028517246246,0.8898566961288452,0.9316049218177797
1630498099224,0.2879819571971893,0.4678480327129364,0.9201254844665528,0.9902610182762146
1630498099349,0.2879819571971893,0.5598174929618835,0.9312193393707277,1.061812162399292
1630498099443,0.2879819571971893,0.6173080801963806,0.9355671405792236,1.1533653736114502
1630498099536,0.2879819571971893,0.6382930278778076,0.9340896010398864,1.1533653736114502
1630498099646,0.2879819571971893,0.5897188186645508,0.926167368888855,1.1533653736114502
1630498099739,0.2879819571971893,0.3434566855430603,0.900566577911377,1.1533653736114502
1630498099864,0.2879819571971893,0.3054434061050415,0.8347635269165039,1.1533653736114502
1630498099958,0.2879819571971893,0.280344694852829,0.7086244225502014,1.1533653736114502
1630498100036,0.2879819571971893,0.2579103112220764,0.6792086958885193,1.1533653736114502
1630498100147,0.2879819571971893,0.2435716837644577,0.6622565984725952,1.1533653736114502
1630498100242,0.2879819571971893,0.2485329061746597,0.6674021482467651,1.1533653736114502
1630498100335,0.2879819571971893,0.2718845903873443,0.6929425597190857,1.1533653736114502
1630498100515,0.2879819571971893,0.3037298917770386,0.6695177555084229,1.6939431428909302
1630498100578,0.2879819571971893,0.3283974230289459,0.6350969672203064,1.772189974784851
1630498100669,0.2879819571971893,0.339251309633255,0.5961148142814636,1.772189974784851
1630498100764,0.2879819571971893,0.3333280384540558,0.5664884448051453,1.772189974784851
1630498100873,0.2879819571971893,0.2942875325679779,0.5532199740409851,1.772189974784851
1630498100972,0.2879819571971893,0.2722514569759369,0.5488764047622681,1.772189974784851
1630498101113,0.2879819571971893,0.3011456429958343,0.5494508743286133,1.772189974784851
1630498101176,0.2879819571971893,0.3969563245773315,0.5517051815986633,1.7101914882659912
1630498101242,1.4103448390960691,0.53399258852005,0.5604838728904724,1.7266969680786133
1630498101367,1.5422494411468506,0.664875328540802,0.5767062902450562,1.7430906295776367
1630498101445,1.5426933765411377,0.7613324522972107,0.5929328203201294,1.6904503107070925
1630498101539,1.5306658744812012,0.8173525929450989,0.6032822132110596,1.6411142349243164
1630498101680,1.5019879341125488,0.8416279554367065,0.5974926948547363,1.5943361520767212
1630498101820,1.4679409265518188,0.8450406789779663,0.5633058547973633,1.5502336025238037
1630498101867,1.4362128973007202,0.8409712314605713,0.4917558133602142,1.4315670728683472
1630498101992,1.4028193950653076,0.8329923152923584,0.381870687007904,1.2115453481674194
1630498102055,1.370531439781189,0.8260716199874878,0.2587005496025085,0.855635404586792
1630498102180,1.3572572469711304,0.8234773278236389,0.1691101342439651,0.855635404586792
1630498102323,1.386967658996582,0.8360947370529175,0.1414123475551605,0.855635404586792
1630498102385,1.470878005027771,0.8676590919494629,0.1506732404232025,0.855635404586792
1630498102526,1.470878005027771,0.9064117670059204,0.165811538696289,0.855635404586792
1630498102588,1.4724012613296509,0.9332390427589417,0.1840554624795913,0.855635404586792
1630498102745,1.4669930934906006,0.9287202954292296,0.1962976306676864,0.8179367780685425
1630498102776,1.455260992050171,0.8854011297225952,0.1960386335849762,0.7378888130187988
1630498102916,1.438685417175293,0.8103143572807312,0.1863293349742889,0.609664797782898
1630498103026,1.4251689910888672,0.724205732345581,0.1797678470611572,0.4249622523784637
1630498103119,1.4199289083480835,0.6582427024841309,0.1804504096508026,0.2036870121955871
1630498103213,1.3902404308319092,0.645506739616394,0.1873064488172531,0.2036870121955871
1630498103307,1.36715829372406,0.6392931938171387,0.1947577148675918,0.2036870121955871
1630498103448,1.3443580865859983,0.6332015991210938,0.2003104239702224,0.2036870121955871
1630498103541,1.330571174621582,0.6253869533538818,0.2056827694177627,0.2036870121955871
1630498103619,1.322782278060913,0.6144160628318787,0.2059731632471084,0.2036870121955871
1630498103713,1.2899373769760132,0.6021755933761597,0.1969899088144302,0.2036870121955871
1630498103822,1.1610397100448608,0.5753691792488098,0.1760202646255493,0.2036870121955871
1630498103885,0.5208646655082703,0.5142013430595398,0.1432686895132064,0.2036870121955871
1630498103994,0.7718462347984314,0.4150251746177673,0.1050448715686798,0.2036870121955871
1630498104166,1.0841844081878662,0.2944759130477905,0.0713806673884391,0.2036870121955871
1630498104244,1.334097385406494,0.2029238045215606,0.050110924988985,0.2036870121955871
1630498104385,1.334097385406494,0.1663774400949478,0.0330859348177909,0.2036870121955871
1630498104416,1.334097385406494,0.1535519212484359,0.0146259693428874,0.2036870121955871
1630498104557,1.334097385406494,0.1275681406259536,-0.0112417042255401,0.2036870121955871
1630498104588,1.334097385406494,0.081624686717987,-0.0402970016002655,0.2036870121955871
1630498104760,1.3665165901184082,0.0244925022125244,-0.0607415437698364,0.2036870121955871
1630498104853,1.3711966276168823,-0.0201333593577146,-0.0719233080744743,0.2036870121955871
1630498104932,1.3746819496154783,-0.0478086210787296,-0.0813483372330665,0.2036870121955871
1630498105057,1.375388503074646,-0.0649121925234794,-0.0927109271287918,0.2036870121955871
1630498105119,1.374361276626587,-0.0687863305211067,-0.1026549041271209,0.2036870121955871
1630498105197,1.4150646924972534,-0.0654782652854919,-0.1060284227132797,0.2036870121955871
1630498105387,1.4593616724014282,-0.0637519732117652,-0.1031096056103706,0.2036870121955871
1630498105434,1.5025032758712769,-0.0592132024466991,-0.0871519371867179,0.2036870121955871
1630498105543,1.5140175819396973,-0.0500339083373546,-0.0573447085916996,0.2036870121955871
1630498105621,1.4075332880020142,-0.034139696508646,-0.020279474556446,0.2036870121955871
1630498105730,0.4689822494983673,-0.0168295428156852,0.01617993414402,0.2036870121955871
1630498105840,0.4689822494983673,-0.0034366922918707,0.0467712432146072,0.2036870121955871
1630498105965,0.4689822494983673,0.0013734493404626,0.0610588267445564,0.2036870121955871
1630498106074,0.4689822494983673,0.0017580812564119,0.0529440082609653,0.2036870121955871
1630498106152,0.4689822494983673,0.0045913886278867,0.033210277557373,0.2036870121955871
1630498106262,0.4689822494983673,0.0133821610361337,0.0171913634985685,0.2036870121955871
1630498106340,0.4689822494983673,0.0267008952796459,0.0115049351006746,0.2036870121955871
1630498106449,0.4689822494983673,0.0426709279417991,0.0128264343366026,0.2036870121955871
1630498106599,0.4689822494983673,0.0567354783415794,0.0252236388623714,0.2036870121955871
1630498106662,0.4689822494983673,0.0613981746137142,0.0436549820005893,0.2036870121955871
1630498106787,-0.4079415798187256,0.0514416210353374,0.0628714114427566,0.0229168627411127
1630498106865,-0.2939141094684601,0.0323473550379276,0.0790212526917457,0.0414503589272499
1630498106943,-0.1106530204415321,0.0105881290510296,0.0882164761424064,0.0623315908014774
1630498107053,0.0419185347855091,-0.0203634481877088,0.0808006301522255,0.067703291773796
1630498107180,0.1750198602676391,-0.0698892697691917,0.0571852810680866,0.0669102519750595
1630498107320,0.2877036929130554,-0.1314131319522857,0.020983163267374,0.0669102519750595
1630498107352,0.2877036929130554,-0.1841292679309845,-0.0255922973155975,0.0669102519750595
1630498107461,0.2877036929130554,-0.1951086521148681,-0.0724972784519195,0.0669102519750595
1630498107555,0.2877036929130554,-0.1438404619693756,-0.0982948988676071,0.0669102519750595
1630498107649,0.2877036929130554,-0.0607722848653793,-0.0996695756912231,0.0669102519750595
1630498107805,0.2877036929130554,0.0167810823768377,-0.0925001502037048,0.0669102519750595
1630498107898,0.2877036929130554,0.0675383061170578,-0.0835859030485153,0.0669102519750595
1630498108008,0.3300208449363708,0.0915511175990104,-0.0775178298354148,0.0834840536117553
1630498108086,0.3791372179985046,0.0934532806277275,-0.0887996479868888,0.0921290665864944
1630498108180,0.4373200237751007,0.0927200391888618,-0.1088263168931007,0.1043423563241958
1630498108273,0.5022218227386475,0.1016649156808853,-0.1276089549064636,0.1068542376160621
1630498108414,0.5715562701225281,0.1152572259306907,-0.1433238536119461,0.1068542376160621
1630498108476,0.5809535384178162,0.1286031454801559,-0.1566061377525329,0.1068542376160621
1630498108586,0.6178915500640869,0.14124096930027,-0.1636334955692291,0.1068542376160621
1630498108680,0.6753365993499756,0.1540104001760482,-0.1729172617197036,0.1068542376160621
1630498108804,0.7336127161979675,0.1667245477437973,-0.1887567192316055,0.1068542376160621
1630498108851,0.7736247777938843,0.1763598769903183,-0.2016317248344421,0.2356410473585128
1630498109039,0.7775667309761047,0.1723002195358276,-0.2115578353404998,0.2822152078151703
1630498109102,0.7580589056015015,0.1490969955921173,-0.2222654670476913,0.3002882003784179
1630498109198,0.7580589056015015,0.1243660449981689,-0.223283052444458,0.3002882003784179
1630498109276,0.7580589056015015,0.1173708885908126,-0.1876558363437652,0.3002882003784179
1630498109416,0.7580589056015015,0.0846060290932655,-0.1307870596647262,0.3002882003784179
1630498109557,0.7580589056015015,0.0700879693031311,-0.06143644079566,0.3002882003784179
1630498109635,0.7580589056015015,0.0824468657374382,0.0112832626327872,0.3002882003784179
1630498109698,0.7580589056015015,0.1051947325468063,0.0818301811814308,0.3002882003784179
1630498109791,0.7580589056015015,0.124228835105896,0.138758897781372,0.3002882003784179
1630498109932,0.7580589056015015,0.1422300785779953,0.181240051984787,0.3002882003784179
1630498109994,0.7977951765060425,0.1599815487861633,0.2137162536382675,0.3002882003784179
1630498110119,0.8228722214698792,0.1806948482990265,0.2384291738271713,0.3438388705253601
1630498110307,0.8235730528831482,0.201708123087883,0.258035808801651,0.3828119039535522
1630498110338,0.8235730528831482,0.2160538882017135,0.2691383063793182,0.3828119039535522
1630498110416,0.8235730528831482,0.2317665964365005,0.2751621901988983,0.3828119039535522
1630498110510,0.8235730528831482,0.2317665964365005,0.2785090506076813,0.3828119039535522
1630498110650,0.8235730528831482,0.2317665964365005,0.2788383066654205,0.3828119039535522
1630498110729,0.8235730528831482,0.2317665964365005,0.2729150056838989,0.3828119039535522
1630498110838,0.8235730528831482,0.2317665964365005,0.251328706741333,0.3828119039535522
1630498110932,0.8235730528831482,-0.0356458090245723,0.2174921035766601,0.3828119039535522
1630498111072,0.8235730528831482,-0.0469382815062999,0.1731176078319549,0.0168280471116304
1630498111166,0.0649896115064621,-0.0483185909688472,0.1201954782009124,0.031133908778429
1630498111228,0.0936857685446739,-0.0378455966711044,0.0530128926038742,0.0262533072382211
1630498111322,0.087556853890419,-0.0306927021592855,-0.0249925553798675,0.0018890294013544
1630498111447,0.1999994069337844,-0.0221127867698669,-0.1038197055459022,0.0018890294013544
1630498111541,0.4256942868232727,-0.0094991689547896,-0.1791762411594391,0.0018890294013544
1630498111635,0.7698248028755188,0.0166989210993051,-0.2218908220529556,0.0018890294013544
1630498111744,1.1097737550735474,0.0576742403209209,-0.2045917958021164,0.0018890294013544
1630498111806,1.3642185926437378,0.1083405613899231,-0.1347100585699081,0.0018890294013544
1630498111963,1.3642185926437378,0.1521917283535003,-0.0690759792923927,0.0018890294013544
1630498112088,1.3642185926437378,0.1781146824359893,-0.028961731120944,0.0018890294013544
1630498112197,1.3642185926437378,0.1863858699798584,-0.0136551205068826,0.0018890294013544
1630498112228,1.3642185926437378,0.191824272274971,-0.0104668382555246,0.0024302247911691
1630498112369,1.40336275100708,0.1965164244174957,-0.0040697185322642,0.0056725214235484
1630498112447,1.4474860429763794,0.2084466367959976,0.0097841396927833,8.45921749714762e-05
1630498112525,1.4969797134399414,0.2327982783317566,0.0335505418479442,8.45921749714762e-05
1630498112681,1.5525108575820925,0.267578661441803,0.0797306969761848,8.45921749714762e-05
1630498112775,1.6167404651641846,0.3286326229572296,0.1542516052722931,8.45921749714762e-05
1630498112837,1.6939290761947632,0.4359917044639587,0.2457515746355056,8.45921749714762e-05
