timestamp,TP9,AF7,AF8,TP10
1630937420105,1.172232151031494,0.5801559090614319,0.778122067451477,0.8898934721946716
1630937420222,1.172232151031494,0.5646538138389587,0.7969663739204407,0.8898934721946716
1630937420289,1.18625807762146,0.5489075183868408,0.8133765459060669,0.8898934721946716
1630937420383,1.1837674379348757,0.5215024948120117,0.8231278657913208,0.8898934721946716
1630937420488,1.157070279121399,0.4747105538845062,0.8231278657913208,0.8898934721946716
1630937420622,1.157070279121399,0.4146847724914551,0.8231278657913208,0.8898934721946716
1630937420706,1.157070279121399,0.3556708693504333,0.8231278657913208,0.8898934721946716
1630937420804,1.157070279121399,0.3120787441730499,0.8231278657913208,0.8898934721946716
1630937420922,1.157070279121399,0.286728024482727,0.8231278657913208,0.8898934721946716
1630937420979,1.157070279121399,0.2671224176883697,0.8231278657913208,0.8898934721946716
1630937421114,1.157070279121399,0.2400244772434234,0.8231278657913208,0.8898934721946716
1630937421224,1.157070279121399,0.2016677111387252,0.8231278657913208,0.8898934721946716
1630937421335,1.157070279121399,0.1605452895164489,0.8231278657913208,0.8898934721946716
1630937421409,1.157070279121399,0.1276561766862869,0.8231278657913208,0.8898934721946716
1630937421517,1.157070279121399,0.103828378021717,0.8231278657913208,0.8898934721946716
1630937421597,1.157070279121399,0.0832355022430419,0.8231278657913208,0.8898934721946716
1630937421714,1.157070279121399,0.0688601285219192,0.8231278657913208,0.8898934721946716
1630937421826,1.157070279121399,0.0543811582028865,0.8231278657913208,0.8898934721946716
1630937421930,1.157070279121399,0.0472525507211685,0.8231278657913208,0.8898934721946716
1630937422058,1.157070279121399,0.0461752414703369,0.8231278657913208,0.8898934721946716
1630937422119,1.157070279121399,0.0436389744281768,0.8231278657913208,0.8898934721946716
1630937422212,1.157070279121399,0.0323447734117507,0.8231278657913208,0.8898934721946716
1630937422327,1.157070279121399,0.0112946685403585,0.8231278657913208,0.8898934721946716
1630937422447,1.157070279121399,-0.0136159025132656,0.8231278657913208,0.8898934721946716
1630937422535,1.157070279121399,-0.0288758110255002,0.8231278657913208,0.8898934721946716
1630937422630,1.157070279121399,0.0852208286523819,0.8231278657913208,0.8898934721946716
1630937422752,1.157070279121399,0.1610553711652755,0.8231278657913208,0.8898934721946716
1630937422828,1.157070279121399,0.2219455391168594,0.8231278657913208,0.8898934721946716
1630937422940,1.157070279121399,0.2712371945381164,0.8231278657913208,0.8898934721946716
1630937423075,1.157070279121399,0.3055330216884613,0.8231278657913208,0.8898934721946716
1630937423170,1.157070279121399,0.3213302195072174,0.8231278657913208,0.8898934721946716
1630937423269,1.157070279121399,0.314089834690094,0.8231278657913208,0.8898934721946716
1630937423355,1.157070279121399,0.2780817747116089,0.2219187021255493,0.8898934721946716
1630937423439,1.157070279121399,0.2444904744625091,0.2568282783031463,0.8898934721946716
1630937423533,1.157070279121399,0.2168042510747909,0.276654839515686,0.3031647503376007
1630937423655,1.157070279121399,0.2168042510747909,0.276654839515686,0.3031647503376007
1630937423844,1.157070279121399,0.2168042510747909,0.276654839515686,0.3031647503376007
1630937423886,1.157070279121399,0.2168042510747909,0.276654839515686,0.3031647503376007
1630937423925,1.157070279121399,0.2168042510747909,0.276654839515686,0.3031647503376007
1630937424016,1.157070279121399,0.2168042510747909,0.276654839515686,0.3031647503376007
1630937424141,1.157070279121399,0.1810513883829116,0.276654839515686,0.3031647503376007
1630937424315,1.157070279121399,0.1532869935035705,0.276654839515686,0.3031647503376007
1630937424374,1.157070279121399,0.1169602274894714,0.276654839515686,0.3031647503376007
1630937424472,1.157070279121399,0.0590466000139713,0.276654839515686,0.3031647503376007
1630937424560,1.157070279121399,-0.0202412940561771,0.3008278310298919,0.3031647503376007
1630937424673,1.157070279121399,-0.1039033606648445,0.3296674489974975,0.3031647503376007
1630937424758,1.157070279121399,-0.1039033606648445,0.3296674489974975,0.3031647503376007
1630937424871,1.157070279121399,-0.1039033606648445,0.3296674489974975,0.3031647503376007
1630937424977,1.157070279121399,-0.1039033606648445,0.3296674489974975,0.3031647503376007
1630937425072,1.157070279121399,-0.1039033606648445,0.3296674489974975,0.3031647503376007
1630937425197,1.157070279121399,-0.1039033606648445,0.3296674489974975,0.3031647503376007
1630937425252,1.157070279121399,-0.1039033606648445,0.3296674489974975,0.3031647503376007
1630937425389,1.157070279121399,-0.1039033606648445,0.3296674489974975,0.3031647503376007
1630937425510,1.157070279121399,-0.1039033606648445,0.3296674489974975,0.3031647503376007
1630937425589,1.157070279121399,-0.1039033606648445,0.3296674489974975,0.3031647503376007
1630937425679,1.157070279121399,-0.1039033606648445,0.3296674489974975,0.3031647503376007
1630937425786,1.157070279121399,-0.1039033606648445,0.3296674489974975,0.3031647503376007
1630937425848,1.157070279121399,-0.1039033606648445,0.3296674489974975,0.3031647503376007
1630937425941,1.157070279121399,-0.1039033606648445,0.3296674489974975,0.3031647503376007
1630937426099,1.157070279121399,-0.1039033606648445,0.3296674489974975,0.3031647503376007
1630937426192,1.157070279121399,-0.1039033606648445,0.3296674489974975,0.3031647503376007
1630937426298,1.157070279121399,-0.1039033606648445,0.3296674489974975,0.3031647503376007
1630937426398,1.157070279121399,-0.1039033606648445,0.3296674489974975,0.3031647503376007
1630937426482,1.157070279121399,-0.1039033606648445,0.3296674489974975,0.3031647503376007
1630937426592,1.157070279121399,0.0319891981780529,0.3296674489974975,0.3031647503376007
1630937426730,0.6466079950332642,0.0590883940458297,0.042338415980339,0.3031647503376007
1630937426820,0.638792097568512,0.081142783164978,0.0177781078964471,0.3031647503376007
1630937426899,0.6426993012428284,0.0984522998332977,-0.006867857184261,0.3031647503376007
1630937426974,0.6558866500854492,0.1112891659140586,-0.0308078061789274,0.3031647503376007
1630937427082,0.6735042929649353,0.1238054260611534,-0.055184505879879,0.3031647503376007
1630937427189,0.691638708114624,0.1407747864723205,-0.0786657184362411,0.3031647503376007
1630937427316,0.7059119343757629,0.1621243357658386,-0.0987160056829452,0.3031647503376007
1630937427439,0.7059119343757629,0.1812775433063507,-0.111283004283905,0.3031647503376007
1630937427548,0.7059119343757629,0.1918060630559921,-0.1180995255708694,0.3031647503376007
1630937427598,0.7059119343757629,0.1924861371517181,-0.1180995255708694,0.3031647503376007
1630937427716,0.7059119343757629,0.1855070739984512,-0.1180995255708694,0.3031647503376007
1630937427794,0.7059119343757629,0.1987132877111435,-0.1180995255708694,0.3031647503376007
1630937427937,0.7066407799720764,0.2111424207687378,-0.1375439614057541,0.3031647503376007
1630937428046,0.7126983404159546,0.2216552048921585,-0.1663019806146621,0.3031647503376007
1630937428162,0.7240142822265625,0.2301559299230575,-0.1993530392646789,0.3031647503376007
1630937428196,0.7413788437843323,0.2371517866849899,-0.2279295623302459,0.3031647503376007
1630937428336,0.7640336155891418,0.2433288395404815,-0.2502716779708862,0.3031647503376007
1630937428403,0.7862436771392822,0.2495656311511993,-0.2680099904537201,0.3031647503376007
1630937428538,0.7862436771392822,0.2572158575057983,-0.2803021073341369,0.3031647503376007
1630937428629,0.7862436771392822,0.2642043530941009,-0.2803672254085541,0.3031647503376007
1630937428740,0.7862436771392822,0.2631459534168243,-0.2803672254085541,0.3031647503376007
1630937428829,0.7862436771392822,0.2439887970685959,-0.2803672254085541,0.3031647503376007
1630937428892,0.7862436771392822,0.2439887970685959,-0.2803672254085541,0.3031647503376007
1630937429006,0.7862436771392822,0.2439887970685959,-0.2803672254085541,0.3031647503376007
1630937429138,0.7862436771392822,0.2439887970685959,-0.2803672254085541,0.3031647503376007
1630937429227,0.7862436771392822,0.2439887970685959,-0.2803672254085541,0.3031647503376007
1630937429358,0.7862436771392822,0.2439887970685959,-0.2803672254085541,0.3031647503376007
1630937429429,0.7862436771392822,0.2439887970685959,-0.2803672254085541,0.3031647503376007
1630937429518,0.7862436771392822,0.2439887970685959,-0.2803672254085541,0.3031647503376007
1630937429622,0.7862436771392822,0.2439887970685959,-0.2803672254085541,0.3031647503376007
1630937429771,0.7862436771392822,0.2439887970685959,-0.2803672254085541,0.3031647503376007
1630937429880,0.7862436771392822,0.2439887970685959,-0.2803672254085541,0.3031647503376007
1630937429969,0.7862436771392822,0.2439887970685959,-0.2803672254085541,0.3031647503376007
1630937430064,0.7862436771392822,0.2439887970685959,-0.2803672254085541,0.3031647503376007
1630937430138,0.7862436771392822,0.2439887970685959,-0.2803672254085541,0.3031647503376007
1630937430228,0.7862436771392822,0.2439887970685959,-0.2803672254085541,0.3031647503376007
1630937430377,0.7862436771392822,0.2439887970685959,-0.2803672254085541,0.3031647503376007
1630937430487,0.7862436771392822,-0.0659357905387878,-0.2803672254085541,0.3031647503376007
1630937430572,0.7862436771392822,-0.0777842849493026,0.0713813081383705,0.3031647503376007
1630937430662,0.7862436771392822,-0.0985179841518402,0.0722324475646019,0.3031647503376007
1630937430751,0.7862436771392822,-0.1092505827546119,0.0851996764540672,0.7183674573898315
1630937430841,0.7862436771392822,-0.1033797934651374,0.0946571007370948,0.7183674573898315
1630937430981,0.7862436771392822,-0.1033797934651374,0.0946571007370948,0.7183674573898315
1630937431131,0.7862436771392822,-0.1033797934651374,0.0946571007370948,0.7183674573898315
1630937431182,0.7862436771392822,-0.1033797934651374,0.0946571007370948,0.7183674573898315
1630937431266,0.7862436771392822,-0.1033797934651374,0.0946571007370948,0.7183674573898315
1630937431376,0.7862436771392822,-0.1033797934651374,0.0946571007370948,0.7183674573898315
1630937431461,0.7862436771392822,-0.1033797934651374,0.0946571007370948,0.7183674573898315
1630937431576,0.7862436771392822,-0.1033797934651374,0.0946571007370948,0.7183674573898315
1630937431679,0.7862436771392822,-0.103502556681633,0.0946571007370948,0.7183674573898315
1630937431776,0.7862436771392822,-0.1084443032741546,0.080573171377182,0.7183674573898315
1630937431856,0.7862436771392822,-0.1234750673174858,0.0803586915135383,0.7183674573898315
1630937431955,0.7862436771392822,-0.1443593651056289,0.0968605577945709,0.7183674573898315
1630937432051,0.7862436771392822,-0.1443593651056289,0.0968605577945709,0.7183674573898315
1630937432223,0.7862436771392822,-0.1443593651056289,0.0968605577945709,0.7183674573898315
1630937432277,0.7862436771392822,-0.1443593651056289,0.0968605577945709,0.7183674573898315
1630937432399,0.7862436771392822,-0.1443593651056289,0.0968605577945709,0.7183674573898315
1630937432477,0.7862436771392822,-0.1443593651056289,0.0968605577945709,0.7183674573898315
1630937432563,0.7862436771392822,-0.1443593651056289,0.0968605577945709,0.7183674573898315
1630937432690,0.7862436771392822,-0.1443593651056289,0.0968605577945709,0.7183674573898315
1630937432839,0.7862436771392822,-0.1443593651056289,0.0968605577945709,0.7183674573898315
1630937432904,0.7862436771392822,-0.1443593651056289,0.0968605577945709,0.7183674573898315
1630937433020,0.7862436771392822,-0.1443593651056289,0.0968605577945709,0.7183674573898315
1630937433073,0.7862436771392822,-0.1443593651056289,0.0968605577945709,0.7183674573898315
1630937433175,0.7862436771392822,-0.1443593651056289,0.0968605577945709,0.7183674573898315
1630937433288,0.7862436771392822,-0.1443593651056289,0.0968605577945709,0.7183674573898315
1630937433405,0.7862436771392822,-0.1443593651056289,0.0968605577945709,0.7183674573898315
1630937433497,0.7862436771392822,-0.1443593651056289,0.0968605577945709,0.7183674573898315
1630937433604,0.7862436771392822,-0.1443593651056289,0.0968605577945709,0.7183674573898315
1630937433703,0.7862436771392822,-0.1443593651056289,0.0968605577945709,0.7183674573898315
1630937433783,0.7862436771392822,-0.1443593651056289,0.0968605577945709,0.7183674573898315
1630937433869,0.7862436771392822,-0.1443593651056289,0.0968605577945709,0.7183674573898315
1630937434054,0.7862436771392822,-0.1443593651056289,0.0968605577945709,0.7183674573898315
1630937434119,0.7862436771392822,-0.1443593651056289,0.0968605577945709,0.7183674573898315
1630937434207,0.7862436771392822,-0.1443593651056289,0.0968605577945709,0.7183674573898315
1630937434292,0.7862436771392822,-0.1443593651056289,0.0968605577945709,0.7183674573898315
1630937434411,0.7862436771392822,-0.1443593651056289,0.0968605577945709,0.7183674573898315
1630937434477,0.7862436771392822,0.3776232600212097,0.2751258611679077,0.7183674573898315
1630937434633,0.7862436771392822,0.3423708081245422,0.2785785496234894,0.7183674573898315
1630937434757,0.7862436771392822,0.3036212027072906,0.2711093127727508,0.7183674573898315
1630937434851,0.6631671190261841,0.2332957684993744,0.253458559513092,0.7183674573898315
1630937434922,0.6171941161155701,0.1271009445190429,0.2423048913478851,0.7183674573898315
1630937435030,0.5799955725669861,0.1006495282053947,0.2378922551870346,0.7183674573898315
1630937435152,0.5598504543304443,0.0839592814445495,0.2368016391992569,0.7183674573898315
1630937435266,0.5600651502609253,0.0770326629281044,0.2358307242393493,0.7183674573898315
1630937435323,0.5724371671676636,0.0727843791246414,0.2337927371263504,0.7183674573898315
1630937435435,0.5816726684570312,0.0653005763888359,0.231577455997467,0.7183674573898315
1630937435537,0.5816726684570312,0.0549093820154666,0.2315505146980285,0.7183674573898315
1630937435618,0.5816726684570312,0.0434441789984703,0.2343814820051193,0.7183674573898315
1630937435703,0.5816726684570312,0.0330737791955471,0.2369197905063629,0.7183674573898315
1630937435891,0.5816726684570312,0.0274593867361545,0.2352988868951797,0.4643633663654327
1630937435945,0.5678330063819885,0.030506232753396,0.2246864885091781,0.4656849801540375
1630937436035,0.5332091450691223,0.0293881688266992,0.2180116772651672,0.4901114106178283
1630937436136,0.5287447571754456,0.040053553879261,0.2227498292922973,0.4901114106178283
1630937436251,0.5434415936470032,0.0519226901233196,0.2431357651948928,0.4901114106178283
1630937436311,0.5642000436782837,0.0628021508455276,0.2743768393993377,0.4901114106178283
1630937436467,0.5829886198043823,0.0754229798913002,0.3076673448085785,0.5180279016494751
1630937436575,0.5975850820541382,0.0877090319991111,0.3351725935935974,0.5585330724716187
1630937436671,0.6014252305030823,0.0928335338830947,0.3522972762584686,0.562275767326355
1630937436773,0.6052172183990479,0.0868520438671112,0.3591692745685577,0.562275767326355
1630937436888,0.5986215472221375,0.0730094909667968,0.3600650727748871,0.562275767326355
1630937436940,0.5907415151596069,0.0583219304680824,0.3602145910263061,0.562275767326355
1630937437062,0.5907415151596069,0.048945378512144,0.3610235452651977,0.562275767326355
1630937437156,0.5907415151596069,0.0519397370517253,0.3611804246902466,0.5584955811500549
1630937437255,0.5765203833580017,0.0717508569359779,0.3627015054225921,0.5696499347686768
1630937437342,0.5587497353553772,0.099785029888153,0.3687388300895691,0.5588324666023254
1630937437464,0.5500648021697998,0.120197594165802,0.3790118992328644,0.5436646938323975
1630937437546,0.5239601731300354,0.122400939464569,0.3884768187999725,0.5054291486740112
1630937437721,0.4859905242919922,0.1084823906421661,0.3899905383586883,0.4814330637454986
1630937437804,0.4473296403884887,0.0886470153927803,0.3793397843837738,0.4635573625564575
1630937437908,0.4210027754306793,0.069851703941822,0.3563200533390045,0.457197904586792
1630937437965,0.412244588136673,0.0521421693265438,0.3248312771320343,0.4333961009979248
1630937438053,0.413575142621994,0.03684514015913,0.2924731969833374,0.4212851822376251
1630937438162,0.4160999953746795,0.0294973626732826,0.266482800245285,0.4274211823940277
1630937438284,0.4124867916107178,0.0356457084417343,0.2491970509290695,0.4544437229633331
1630937438387,0.4000087976455688,0.052376165986061,0.2365829795598983,0.4725831151008606
1630937438480,0.3861808776855469,0.0699148476123809,0.2223290652036667,0.4814482033252716
1630937438606,0.3762850761413574,0.078994907438755,0.2039420306682586,0.4827564358711242
1630937438684,0.3735283613204956,0.0746098756790161,0.1837765574455261,0.4787657856941223
1630937438769,0.3752048313617706,0.0560334436595439,0.1634321361780166,0.4730165600776672
1630937438904,0.3952191472053528,0.0302546806633472,0.1454994976520538,0.4800165593624115
1630937438995,0.4302250146865845,0.009426224976778,0.1315070539712906,0.493360310792923
1630937439129,0.4672804772853851,0.0023431505542248,0.121288813650608,0.5131214261054993
1630937439190,0.4947930574417114,0.0071316142566502,0.1130650267004966,0.5322903990745544
1630937439261,0.5057417750358582,0.0144652193412184,0.10474743694067,0.5423467755317688
1630937439352,0.4998683929443359,0.0177706852555274,0.0967449247837066,0.5396345257759094
1630937439501,0.4823639392852783,0.0167295411229133,0.0936537683010101,0.5268388986587524
1630937439602,0.4605216979980469,0.0113915614783763,0.0986533164978027,0.5074657797813416
1630937439711,0.4425414204597473,0.0011051609180867,0.1114223226904869,0.4830035865306854
1630937439776,0.4345077574253082,-0.0153971510007977,0.1284233033657074,0.4568156003952026
1630937439893,0.4420922696590423,-0.0346028134226799,0.1476660072803497,0.435391217470169
1630937439977,0.4628287851810455,-0.047965507954359,0.1715595424175262,0.4245662987232208
1630937440111,0.4872841238975525,-0.0489972233772277,0.2037906050682068,0.4256719052791595
1630937440213,0.5060654282569885,-0.0424468405544757,0.2406607866287231,0.4351046085357666
1630937440339,0.5146963000297546,-0.0396563038229942,0.2739056646823883,0.4476487040519714
1630937440420,0.5112816095352173,-0.0487989708781242,0.2957550883293152,0.4564733803272247
1630937440503,0.4965627491474151,-0.0703741312026977,0.303659051656723,0.4551163911819458
1630937440593,0.4734986424446106,-0.1002333834767341,0.2994906604290008,0.4429480731487274
1630937440743,0.4488890469074249,-0.1329336464405059,0.2892166376113891,0.4279576241970062
1630937440822,0.4318559765815735,-0.162993386387825,0.2798577845096588,0.4248183965682983
1630937440917,0.4256551563739776,-0.1852967590093612,0.2761422395706177,0.4417535364627838
1630937441052,0.4273611307144165,-0.1972000300884246,0.2759332656860351,0.4732652306556701
1630937441106,0.4316036999225616,-0.1994738578796386,0.2733612656593323,0.5066342353820801
1630937441219,0.4346834421157837,-0.1942398846149444,0.2658524811267853,0.5316083431243896
1630937441336,0.4338641762733459,-0.1833370327949524,0.2552986741065979,0.5438706874847412
1630937441416,0.4231636822223663,-0.1700666099786758,0.2440434247255325,0.5440539717674255
1630937441533,0.4003098607063293,-0.1572456061840057,0.2299073934555053,0.5355432629585266
1630937441640,0.3702478110790252,-0.1447571814060211,0.2070945650339126,0.5213814973831177
1630937441706,0.3422538340091705,-0.1307098269462585,0.1742942631244659,0.5046094655990601
1630937441803,0.3245580792427063,-0.115961953997612,0.1363803595304489,0.488165020942688
1630937441955,0.3201465010643005,-0.1031329408288002,0.1009272038936615,0.4745047986507416
1630937442025,0.3241539299488067,-0.0939227640628814,0.0720369815826416,0.465040385723114
1630937442114,0.3306860625743866,-0.087524875998497,0.0520225092768669,0.4587092995643616
1630937442240,0.3353118300437927,-0.0820751637220382,0.0411555059254169,0.4527292549610138
1630937442336,0.3376235067844391,-0.0750627294182777,0.0379521586000919,0.4414572715759277
1630937442404,0.3409763872623443,-0.0637023374438285,0.0361343249678611,0.4204042851924896
1630937442563,0.3459550738334656,-0.0470854192972183,0.0313303433358669,0.3895566761493683
1630937442695,0.3517757952213287,-0.0274623818695545,0.0232762265950441,0.3555738925933838
1630937442757,0.3597020506858825,-0.0092528825625777,0.0130603061988949,0.332186758518219
1630937442844,0.3736960291862488,0.0042800013907253,0.0015093217371031,0.3306508064270019
1630937442938,0.3947606384754181,0.0104051306843757,-0.0121726747602224,0.347885251045227
1630937443029,0.4157901704311371,0.00748340645805,-0.0276395976543426,0.3685185611248016
1630937443165,0.4279605448246002,-0.0047867051325738,-0.0428045019507408,0.3803357779979706
1630937443251,0.4272990226745605,-0.0229646507650613,-0.0558226257562637,0.3811755776405334
1630937443396,0.415074735879898,-0.0395258553326129,-0.0658628419041633,0.373097151517868
1630937443454,0.3960879743099212,-0.0461078137159347,-0.0719413161277771,0.3589139580726623
1630937443521,0.3788558840751648,-0.0396411791443824,-0.0720808357000351,0.3424600660800934
1630937443633,0.3738161623477936,-0.023306043818593,-0.0667461156845092,0.3306063711643219
1630937443793,0.3893872797489166,-0.0030262668151408,-0.0600288584828376,0.3273423314094543
1630937443879,0.422155886888504,0.0137874847277998,-0.0583658814430236,0.3306390941143036
1630937443967,0.4585907757282257,0.0201112460345029,-0.0638202801346778,0.3354864418506622
1630937444058,0.4864425361156463,0.0120744379237294,-0.0738634914159774,0.3384208381175995
1630937444148,0.5013276934623718,-0.0080027803778648,-0.0831811353564262,0.3396441340446472
1630937444240,0.504289984703064,-0.0324715748429298,-0.0874569118022918,0.338261216878891
1630937444395,0.4985810816287994,-0.0538465976715087,-0.0862412527203559,0.3321322798728943
1630937444483,0.4868462979793548,-0.0677276626229286,-0.0813005715608596,0.3198295533657074
1630937444611,0.4735826551914215,-0.0721325278282165,-0.0739826709032058,0.3058548867702484
1630937444663,0.4643506109714508,-0.0665730759501457,-0.0605846457183361,0.2974417507648468
1630937444748,0.4617078900337219,-0.0539662279188632,-0.0354152508080005,0.314116358757019
1630937444843,0.4625537693500519,-0.0409236326813697,0.0018489379435777,0.3488614559173584
1630937445013,0.4633278250694275,-0.0351510904729366,0.0461357161402702,0.3858798146247864
1630937445090,0.4607630670070648,-0.0413137301802635,0.0509134903550148,0.4116623699665069
1630937445179,0.4517126381397247,-0.0593111105263233,0.0556168258190155,0.4216861724853515
1630937445287,0.431225061416626,-0.0857593491673469,0.0617294982075691,0.421273797750473
1630937445355,0.3952172398567199,-0.1140399277210235,0.0716212019324302,0.4180119335651397
1630937445448,0.3458519577980041,-0.1347482502460479,0.0862736478447914,0.414775550365448
1630937445601,0.2975081503391266,-0.1415877491235733,0.1039922311902046,0.4116979539394378
1630937445692,0.2684738636016845,-0.1370764672756195,0.122697114944458,0.4081786870956421
1630937445797,0.2638650834560394,-0.1300213634967804,0.1430393308401107,0.4042165577411651
1630937445866,0.2710216641426086,-0.1279889643192291,0.1685170233249664,0.3984950482845306
1630937445987,0.2754233479499817,-0.1330824792385101,0.204047679901123,0.3907694816589355
1630937446087,0.2727122008800506,-0.1437083035707473,0.252502977848053,0.382626861333847
1630937446237,0.2694886922836303,-0.1570866852998733,0.252502977848053,0.3723052442073822
1630937446297,0.2740068733692169,-0.1699834018945694,0.252502977848053,0.3664745390415191
1630937446384,0.2934883832931518,-0.1771446466445922,0.252502977848053,0.3481872975826263
1630937446475,0.2985583245754242,-0.1700975596904754,0.252502977848053,0.3212723433971405
1630937446583,0.3534384965896606,-0.1453059464693069,0.252502977848053,0.2972651720046997
1630937446692,0.4168673157691955,-0.1098507419228553,0.252502977848053,0.3252133727073669
1630937446826,0.4766618013381958,-0.1025581434369087,0.252502977848053,0.3599401414394378
1630937446944,0.522396445274353,-0.091077372431755,0.252502977848053,0.3833399415016174
1630937447012,0.5501272082328796,-0.0779284536838531,0.252502977848053,0.3942630887031555
1630937447097,0.561229407787323,-0.0645967796444892,0.252502977848053,0.3984549641609192
1630937447193,0.560417890548706,-0.0510997511446476,0.252502977848053,0.3995741307735443
1630937447305,0.5548326969146729,-0.0005693687708117,0.252502977848053,0.4008621871471405
1630937447465,0.5515115857124329,0.0531229339540004,0.252502977848053,0.410378098487854
1630937447524,0.559180498123169,0.1139828562736511,0.252502977848053,0.437505841255188
1630937447621,0.5828134417533875,0.1749542504549026,0.252502977848053,0.4795024693012237
1630937447708,0.6178226470947266,0.2250250577926635,0.252502977848053,0.5214133262634277
1630937447818,0.6527568101882935,0.2616456151008606,0.6385526657104492,0.5308578610420227
1630937447891,0.6763706207275391,0.286511480808258,0.6198528409004211,0.5269961953163147
1630937448038,0.6783487200737,0.3023653030395508,0.5975650548934937,0.5154880285263062
1630937448133,0.6694483757019043,0.3117394149303436,0.572493851184845,0.5038410425186157
1630937448220,0.6517379283905029,0.3199764490127563,0.553303599357605,0.4907140731811523
1630937448307,0.6344616413116455,0.3217803239822387,0.5457715392112732,0.4856714308261871
1630937448414,0.6268410682678223,0.3247933089733124,0.5450189709663391,0.4929439723491668
1630937448487,0.6333473324775696,0.3247819542884826,0.5415840744972229,0.5086421966552734
1630937448667,0.6501045823097229,0.3186960518360138,0.5305402874946594,0.5269806981086731
1630937448751,0.6686328649520874,0.3076517581939697,0.5135067701339722,0.5438908934593201
1630937448846,0.6820505857467651,0.3002889752388,0.4952474236488342,0.5554187893867493
1630937448941,0.6865712404251099,0.2924780249595642,0.4791647493839264,0.555405855178833
1630937449075,0.6802710890769958,0.2811717092990875,0.4426519870758056,0.5540919303894043
1630937449149,0.681459367275238,0.2635287344455719,0.4073266088962555,0.5432341694831848
1630937449253,0.6721416711807251,0.240857258439064,0.3721812069416046,0.5281432867050171
1630937449359,0.6554939150810242,0.2165056467056274,0.3336505591869354,0.5183858275413513
1630937449451,0.6394018530845642,0.1943280845880508,0.2936006486415863,0.522246778011322
1630937449540,0.6125422716140747,0.1753475964069366,0.2583422064781189,0.5392400622367859
1630937449638,0.6008672118186951,0.1603667140007019,0.23214952647686,0.5619273781776428
1630937449717,0.5987592339515686,0.1483982801437378,0.2099048942327499,0.5808944702148438
1630937449870,0.5970630049705505,0.1376800537109375,0.1847924292087555,0.5899693965911865
1630937449960,0.5880292654037476,0.1261164098978042,0.1579823940992355,0.5705677270889282
1630937450075,0.5694113373756409,0.1141443625092506,0.1360206604003906,0.5481358170509338
1630937450143,0.5457179546356201,0.103610873222351,0.1222952157258987,0.521803617477417
1630937450233,0.5259225368499756,0.0947160199284553,0.1132508665323257,0.4890419840812683
1630937450369,0.5173795223236084,0.0843919888138771,0.1027569770812988,0.4549594521522522
1630937450501,0.5230447053909302,0.0701475590467453,0.087273858487606,0.4354720115661621
1630937450564,0.5411161780357361,0.0565393753349781,0.0692097470164299,0.4187760949134826
1630937450656,0.5411161780357361,0.0495830662548542,0.0546019449830055,0.4090922772884369
1630937450751,0.562099814414978,0.0505766831338405,0.0487771779298782,0.4042483270168304
1630937450870,0.5690337419509888,0.0536428615450859,0.0527493134140968,0.4039458036422729
1630937450947,0.5649809837341309,0.0523173250257968,0.0626467019319534,0.4097756147384643
1630937451080,0.5698429942131042,0.0443586409091949,0.0737586617469787,0.4231471717357635
1630937451204,0.5660191774368286,0.028933884575963,0.0801157131791114,0.4410877227783203
1630937451276,0.5543285012245178,0.0058238124474883,0.0769112408161163,0.4567815363407135
1630937451368,0.5426874756813049,-0.0242618452757596,0.061851006001234,0.4637241959571838
1630937451534,0.5452131032943726,-0.0562095381319522,0.0379965454339981,0.4590799510478973
1630937451571,0.5673254132270813,-0.0802572295069694,0.0147407548502087,0.4435480237007141
1630937451707,0.5978515148162842,-0.0874819383025169,0.0012619218323379,0.4255677163600921
1630937451865,0.6191674470901489,-0.0792302191257476,0.0002050650800811,0.4150007367134094
1630937451909,0.6230102777481079,-0.0658041760325431,0.0060097207315266,0.4156483709812164
1630937451986,0.6058380603790283,-0.0572151876986026,0.0146306110545992,0.4235671460628509
1630937452066,0.5855962038040161,-0.0584441162645816,0.0258761402219533,0.4304674863815307
1630937452160,0.5667337775230408,-0.0677741169929504,0.0395920276641845,0.4317631125450134
1630937452334,0.5363125801086426,-0.0807174369692802,0.0522191412746906,0.4288144111633301
1630937452400,0.5136740207672119,-0.0920255556702613,0.0583708733320236,0.4243666529655456
1630937452491,0.5035286545753479,-0.0957285240292549,0.0551589466631412,0.417573869228363
1630937452581,0.5031198263168335,-0.0875382348895073,0.0447698719799518,0.4043101966381073
1630937452665,0.506676971912384,-0.0697609707713127,0.0321510471403598,0.382630318403244
1630937452781,0.5076687932014465,-0.0511972494423389,0.0203847810626029,0.358024924993515
1630937452918,0.5009188652038574,-0.0393519029021263,0.0095778917893767,0.3410204350948334
1630937453006,0.4811329841613769,-0.0353607758879661,-0.0015830630436539,0.3369749784469604
1630937453121,0.4467795491218567,-0.034280851483345,-0.0124995419755578,0.3412452042102813
1630937453181,0.4041282832622528,-0.0309092737734317,-0.0179565120488405,0.3460286855697632
1630937453272,0.369648277759552,-0.0206142775714397,-0.0095743359997868,0.3507790863513946
1630937453366,0.3585940897464752,-0.0003873506793752,0.0162699911743402,0.3604689836502075
1630937453514,0.3699504137039184,0.0295223668217659,0.0504641681909561,0.3782455921173095
1630937453609,0.3903319239616394,0.0639462098479271,0.0796001031994819,0.4000221490859985
1630937453706,0.4087259769439697,0.0955844223499298,0.097801573574543,0.4179328083992004
1630937453825,0.4208558797836303,0.1190496683120727,0.1093658804893493,0.4265459179878235
1630937453908,0.4239128828048706,0.1324290931224823,0.1203963905572891,0.4267558753490448
1630937453998,0.4172486364841461,0.1349704563617706,0.1323014497756958,0.422934740781784
1630937454121,0.4038403034210205,0.1268773823976516,0.1429078876972198,0.4198551177978515
1630937454213,0.3895449638366699,0.1104915514588356,0.1525627672672271,0.4199970960617065
1630937454324,0.3811541199684143,0.0910213366150856,0.1641216576099395,0.4228312075138092
1630937454440,0.3807577490806579,0.0757737159729003,0.178419291973114,0.4262905716896057
1630937454495,0.383928120136261,0.0680921599268913,0.1927380561828613,0.4302099943161011
1630937454636,0.385589450597763,0.0632222294807434,0.2030440419912338,0.4358788430690765
1630937454738,0.3837259709835052,0.0522496104240417,0.2049303948879242,0.4429906904697418
1630937454833,0.3773465156555176,0.0275148954242467,0.1933618932962417,0.4457798898220062
1630937454928,0.365098774433136,-0.0143252173438668,0.1660239994525909,0.4370453953742981
1630937455020,0.3500472605228424,-0.071175180375576,0.1269162744283676,0.4142623543739319
1630937455102,0.341767281293869,-0.1363560855388641,0.085734486579895,0.3853780329227447
1630937455225,0.3505873084068298,-0.200477734208107,0.0502621605992317,0.3643436431884765
1630937455354,0.375285267829895,-0.2546631395816803,0.0202429629862308,0.3587211072444916
1630937455446,0.4031876027584076,-0.2948569357395172,-0.0076155308634042,0.3631619215011596
1630937455541,0.4226787388324737,-0.3204762935638428,-0.032484047114849,0.3688949346542358
1630937455684,0.4309789538383484,-0.3338455855846405,-0.0510135479271411,0.3717548847198486
1630937455737,0.4303439259529114,-0.3373213410377502,-0.0650141686201095,0.3719726502895355
1630937455855,0.4243302941322326,-0.3327301144599914,-0.0813830867409706,0.3699617981910705
1630937455961,0.4161167442798614,-0.3245490193367004,-0.1059250757098198,0.3660388886928558
1630937456044,0.4106844961643219,-0.316438227891922,-0.1370639503002166,0.3607223331928253
1630937456146,0.4126246571540832,-0.3035695254802704,-0.1591687351465225,0.3579729497432709
1630937456225,0.4228962659835815,-0.2709454894065857,-0.1461544185876846,0.363289326429367
1630937456369,0.4404288530349731,-0.2143326997756958,-0.0916094928979873,0.3791980147361755
1630937456449,0.4612574279308319,-0.1515678763389587,-0.021683694794774,0.4024879932403564
1630937456573,0.4795177578926086,-0.1051146015524864,0.0342168435454368,0.42749884724617
1630937456650,0.4888574779033661,-0.082487367093563,0.0654459595680236,0.449449211359024
1630937456746,0.4865932464599609,-0.0741222202777862,0.0781035050749778,0.4642103910446167
1630937456845,0.4765428602695465,-0.0641593411564827,0.0840276628732681,0.4695786535739898
1630937456941,0.4680629074573517,-0.0455007404088974,0.0897765904664993,0.4660453796386719
1630937457035,0.4678970277309418,-0.0224844366312026,0.0962428972125053,0.4584368765354156
1630937457188,0.4756602942943573,-0.0017859019571915,0.1014514863491058,0.4519175589084625
1630937457295,0.4867369830608368,0.0132256280630826,0.1049070879817009,0.4483519494533539
1630937457376,0.4981456100940704,0.0228100940585136,0.1090073063969612,0.4460277557373047
1630937457453,0.5063291192054749,0.0283379945904016,0.1169014349579811,0.4435245096683502
1630937457548,0.5085772275924683,0.0316044352948665,0.1281509846448898,0.4409692883491516
1630937457655,0.5022510290145874,0.0307738501578569,0.1352399736642837,0.4373364746570587
1630937457791,0.4875243306159973,0.0193850751966238,0.127702847123146,0.4292261898517608
1630937457897,0.4660517275333404,-0.0078036268241703,0.1015168726444244,0.4146337509155273
1630937457988,0.4392604827880859,-0.046372253447771,0.0637639015913009,0.3965352773666382
1630937458062,0.4116352498531341,-0.0819745287299156,0.0294709336012601,0.381269633769989
1630937458157,0.389855682849884,-0.1020278558135032,0.0095439674332737,0.3727094233036041
1630937458239,0.3788430392742157,-0.1079039201140403,0.0033999071456491,0.3719002306461334
1630937458421,0.3776715695858001,-0.1092677563428878,0.0034732287749648,0.3790177404880523
1630937458507,0.3796898424625397,-0.1115332469344139,0.0057897306978702,0.3925534784793854
1630937458594,0.3769051730632782,-0.1147328615188598,0.0100900968536734,0.4061509668827057
1630937458692,0.3686782121658325,-0.1176452040672302,0.0196363255381584,0.4127591848373413
1630937458771,0.3584698438644409,-0.1195708438754081,0.0358322523534297,0.4096333086490631
1630937458865,0.3478551506996155,-0.119626984000206,0.0535745657980442,0.4007228314876556
1630937459046,0.3366540670394897,-0.1173957139253616,0.0639123991131782,0.3923059999942779
1630937459083,0.32640540599823,-0.1148652508854866,0.0625351145863533,0.3884670436382293
1630937459196,0.3252955675125122,-0.1146809980273246,0.0531788095831871,0.3882133960723877
1630937459305,0.3419525325298309,-0.1181680858135223,0.0437049977481365,0.3877271115779876
1630937459378,0.3724472224712372,-0.122345894575119,0.0385892279446125,0.3831561505794525
1630937459472,0.4050849080085754,-0.1200213432312011,0.0392419174313545,0.3728445768356323
1630937459614,0.428705096244812,-0.1018107235431671,0.0499495901167392,0.358213722705841
1630937459690,0.4397112429141998,-0.0642409771680831,0.0739606618881225,0.342081755399704
1630937459777,0.4393101334571838,-0.0176808610558509,0.1044046133756637,0.3257076442241668
1630937459892,0.4290424585342407,0.021074516698718,0.1286017745733261,0.3087400197982788
1630937460005,0.4127107262611389,0.0419823937118053,0.1399834603071212,0.2923530340194702
1630937460097,0.3998990356922149,0.0462251231074333,0.1405190825462341,0.2826892733573913
1630937460242,0.3997041583061218,0.0417895130813121,0.1342818140983581,0.2857503890991211
1630937460332,0.4121499955654144,0.0363419912755489,0.1221189275383949,0.3014672994613647
1630937460407,0.4305451810359955,0.0320428758859634,0.1061119064688682,0.3210738003253937
1630937460494,0.4467655718326568,0.0263295006006956,0.0933428630232811,0.3352202773094177
1630937460589,0.4559754133224487,0.0161541067063808,0.0905210748314857,0.3385311067104339
1630937460693,0.4565966129302978,0.0024432502686977,0.0965564474463462,0.3303580582141876
1630937460859,0.446822315454483,-0.0089903222396969,0.1045882776379585,0.3142009079456329
1630937460918,0.4279347658157348,-0.0136932581663131,0.1093954294919967,0.2957633137702942
1630937461013,0.4050912857055664,-0.0154861090704798,0.1089156121015548,0.2799813151359558
1630937461102,0.3868957161903381,-0.0257655959576368,0.1008970588445663,0.2679244577884674
1630937461196,0.3766073584556579,-0.0551009327173233,0.0841532871127128,0.2583948969841003
1630937461283,0.3703845739364624,-0.1037554815411567,0.0617311410605907,0.2522463798522949
1630937461443,0.3650866150856018,-0.1595821380615234,0.0422910638153553,0.2518709599971771
1630937461555,0.3612448275089264,-0.205068439245224,0.0348578616976738,0.2567420899868011
1630937461636,0.3573063313961029,-0.2307535111904144,0.0416925363242626,0.2605718672275543
1630937461725,0.3463367819786072,-0.240809291601181,0.0558405630290508,0.2580452561378479
1630937461845,0.3223280310630798,-0.2439932525157928,0.0687650367617607,0.2501681447029114
1630937461926,0.2880999147891998,-0.2450210601091385,0.0750936269760131,0.246578648686409
1630937462063,0.257418155670166,-0.2442569285631179,0.0737489983439445,0.2571735084056854
1630937462143,0.2433093786239624,-0.2392907440662384,0.0675469860434532,0.2853360474109649
1630937462246,0.242826446890831,-0.2281175106763839,0.0614699609577655,0.3257941305637359
1630937462356,0.2447579205036163,-0.2107620537281036,0.0587872974574565,0.3673216998577118
1630937462418,0.2439004182815551,-0.1881101727485656,0.0580592900514602,0.4022013545036316
1630937462556,0.2424995750188827,-0.1615609526634216,0.0560442395508289,0.426222562789917
1630937462665,0.2408523112535476,-0.1359688192605972,0.0520646087825298,0.4389891028404236
1630937462763,0.236253410577774,-0.1171237602829933,0.0490132607519626,0.443385511636734
1630937462891,0.2312124669551849,-0.107558973133564,0.0501089394092559,0.4441146850585937
1630937462935,0.2347853481769561,-0.1045004501938819,0.0542776361107826,0.4466561079025268
1630937463058,0.25184366106987,-0.1034125983715057,0.0564713552594184,0.4534391760826111
1630937463133,0.2778003215789795,-0.0993382409214973,0.0541863739490509,0.4639123082160949
1630937463270,0.3041799664497375,-0.0877242982387542,0.0511747896671295,0.4749263823032379
1630937463386,0.330620527267456,-0.0654501169919967,0.0529569014906883,0.4827874898910522
1630937463471,0.3568263649940491,-0.0342180244624614,0.0604752898216247,0.4846126139163971
1630937463555,0.3791098892688751,-0.001099559245631,0.071077324450016,0.4792271554470062
1630937463660,0.3937317132949829,0.0270399339497089,0.0836466699838638,0.4677347838878631
1630937463759,0.4032519459724426,0.0462613813579082,0.0986664742231369,0.4535598456859588
1630937463877,0.4150488376617431,0.0551694594323635,0.1140244454145431,0.4435684978961944
1630937463988,0.4351222217082977,0.0533042624592781,0.1272212415933609,0.4422356486320495
1630937464106,0.4628787636756897,0.0421003773808479,0.1383902877569198,0.4496891796588897
1630937464167,0.4909777343273163,0.0253168921917676,0.1466137021780014,0.4602369368076324
1630937464259,0.512474000453949,0.0080545553937554,0.1484378576278686,0.4677098095417022
1630937464346,0.5227605700492859,-0.0062502520158886,0.1413484215736389,0.4683917164802551
1630937464477,0.5205233097076416,-0.0168285518884658,0.1284428685903549,0.4599137008190155
1630937464564,0.5080277323722839,-0.0237623173743486,0.1162006631493568,0.4576843976974487
1630937464688,0.4899130463600158,-0.0291815642267465,0.1076793894171714,0.450847864151001
1630937464782,0.4710244536399841,-0.0376555062830448,0.0998974964022636,0.4432215690612793
1630937464858,0.4534612894058227,-0.0535236969590187,0.0889544636011123,0.4294759035110473
1630937464949,0.4371825456619262,-0.0777066498994827,0.0740532353520393,0.4358905851840973
1630937465110,0.422538161277771,-0.1056996583938598,0.0558551251888275,0.4577890336513519
1630937465195,0.4111650288105011,-0.1291184276342392,0.0326849147677421,0.4799542725086212
1630937465285,0.4031177461147308,-0.1379783451557159,0.0022524225059896,0.4905920922756195
1630937465393,0.3940563201904297,-0.1296681016683578,-0.0331036858260631,0.4868787229061126
1630937465482,0.3786751329898834,-0.1129178330302238,-0.0663192942738533,0.4736878275871277
1630937465575,0.3540802597999573,-0.1003074273467063,-0.0924674198031425,0.4583627879619598
1630937465708,0.3250237107276916,-0.0949817448854446,-0.1100341975688934,0.4474490284919739
1630937465797,0.3050162196159363,-0.0897988304495811,-0.1176672428846359,0.4435814023017883
1630937465906,0.3068830966949463,-0.0770081877708435,-0.11409892141819,0.4464130401611328
1630937465982,0.3338515162467956,-0.0586772970855236,-0.1034763902425766,0.4544956982135772
1630937466065,0.3732204437255859,-0.0408022031188011,-0.093548372387886,0.4471734464168548
1630937466220,0.4100628793239593,-0.026918401941657,-0.0916675254702568,0.4383280277252197
1630937466315,0.4368661642074585,-0.0163624677807092,-0.0981383621692657,0.4267070591449737
1630937466442,0.4515658318996429,-0.0090764015913009,-0.1061774268746376,0.4201883971691131
1630937466522,0.4561649560928345,-0.0063104536384344,-0.1075627654790878,0.4008335173130035
1630937466602,0.4536983370780945,-0.0087287537753582,-0.0980751365423202,0.3697778582572937
1630937466696,0.4478983581066131,-0.0165201164782047,-0.07839235663414,0.3342637717723846
1630937466783,0.4433309733867645,-0.0321529693901538,-0.0548236854374408,0.3058779537677765
1630937466915,0.4462462961673736,-0.0574344061315059,-0.0359965451061725,0.2942625284194946
1630937467024,0.458405077457428,-0.087900586426258,-0.0275602415204048,0.2991887927055359
1630937467127,0.4753743708133697,-0.1125258132815361,-0.0299485754221677,0.3140113353729248
1630937467208,0.489930659532547,-0.1236043348908424,-0.0391314178705215,0.3333674073219299
1630937467356,0.497740775346756,-0.1249027922749519,-0.0515979975461959,0.3561432361602783
1630937467422,0.4989688396453857,-0.1261022835969925,-0.0646812245249748,0.3816514611244201
1630937467554,0.491976797580719,-0.1316844820976257,-0.0748326927423477,0.406175285577774
1630937467661,0.4769790470600128,-0.1420592963695526,-0.0802837312221527,0.4254369139671325
1630937467727,0.4605754315853119,-0.1563885360956192,-0.0805231109261512,0.4393344819545746
1630937467829,0.4589231014251709,-0.1747243553400039,-0.0757120549678802,0.4512074589729309
1630937467914,0.4830370545387268,-0.1945344656705856,-0.0651987716555595,0.4614955186843872
1630937468002,0.5255564451217651,-0.2092444449663162,-0.0511761531233787,0.4677895009517669
1630937468178,0.567855179309845,-0.2104037404060363,-0.0406429022550582,0.4681950807571411
1630937468247,0.5969153642654419,-0.1967594176530838,-0.0413720682263374,0.4649949073791504
1630937468356,0.6093388199806213,-0.1749854385852813,-0.0541151612997055,0.4604667723178863
1630937468425,0.6074759364128113,-0.1519926786422729,-0.0697466284036636,0.4533064365386963
1630937468527,0.5969558358192444,-0.1269535720348358,-0.0735103785991668,0.441648781299591
1630937468614,0.5838292837142944,-0.09510537981987,-0.0566629581153392,0.427898645401001
1630937468799,0.5745091438293457,-0.0586180463433265,-0.0247512552887201,0.4176603853702545
1630937468870,0.5783976912498474,-0.0272563677281141,0.009798714891076,0.4143462181091308
1630937468953,0.5844752788543701,-0.0083404649049043,0.0367501862347126,0.4163263440132141
1630937469048,0.5912277102470398,-0.0003979044849984,0.052790954709053,0.4217755198478699
1630937469133,0.6009337306022644,0.0045633176341652,0.0613860078155994,0.4304975867271423
1630937469239,0.6141286492347717,0.012720363214612,0.0690758004784584,0.4399750232696533
1630937469379,0.6203890442848206,0.0234599132090806,0.0797418057918548,0.4456943571567535
1630937469475,0.6048151850700378,0.0325979925692081,0.0918135195970535,0.4464841187000274
1630937469570,0.5580822825431824,0.0362523309886455,0.100303791463375,0.4449037313461303
1630937469673,0.4878873229026794,0.0322267562150955,0.1033225581049919,0.4449932277202606
1630937469755,0.41922327876091,0.0215238276869058,0.1040621399879455,0.4478504359722137
1630937469873,0.3921743035316467,0.0087380837649106,0.1067136973142623,0.4527631103992462
1630937469976,0.4183838069438934,-0.0017232790123671,0.1107165217399597,0.4580651223659515
1630937470067,0.4538071751594543,-0.0112137552350759,0.1103615313768386,0.4630430340766907
1630937470173,0.4789575338363647,-0.0274186301976442,0.1011806577444076,0.465335488319397
1630937470274,0.4876620769500732,-0.0558429211378097,0.0840089842677116,0.4610092937946319
1630937470362,0.4764228463172912,-0.0931779891252517,0.0646517053246498,0.4458988308906555
1630937470449,0.4626536965370178,-0.1300676017999649,0.0507260151207447,0.4178273379802704
1630937470584,0.4515857398509979,-0.1596916615962982,0.0462254099547863,0.3780169486999511
1630937470707,0.4453334808349609,-0.1832455545663833,0.0495003312826156,0.3312267959117889
1630937470757,0.4435667991638183,-0.2036522030830383,0.0548673495650291,0.2868082523345947
1630937470847,0.4442906975746155,-0.2206716984510421,0.0578422918915748,0.2558965384960174
1630937470965,0.4459002614021301,-0.233956977725029,0.0575193613767623,0.2432070821523666
1630937471053,0.4454091787338257,-0.245271623134613,0.0571640320122242,0.2432508468627929
1630937471188,0.4424202144145965,-0.2561404407024383,0.0585860386490821,0.2462616860866546
1630937471296,0.4379142224788666,-0.2662591636180877,0.0591518059372901,0.245489552617073
1630937471394,0.4331609308719635,-0.273662269115448,0.054965641349554,0.2379994988441467
1630937471503,0.4240574836730957,-0.2740516066551208,0.0462616719305515,0.2248802632093429
1630937471589,0.4133186340332031,-0.2652519941329956,0.037790510803461,0.2080836296081543
1630937471661,0.4031015932559967,-0.2506695091724396,0.033207468688488,0.1904807388782501
1630937471813,0.3983227014541626,-0.2364292293787002,0.0309596695005893,0.176010861992836
1630937471930,0.4057016372680664,-0.226479172706604,0.0264244806021451,0.169043481349945
1630937472022,0.4269502460956573,-0.220606043934822,0.0176684353500604,0.174776941537857
1630937472112,0.4534712433815002,-0.2150422781705856,0.0064635034650564,0.1935185492038726
1630937472174,0.4718493521213531,-0.2075733989477157,-0.003719578962773,0.2183763533830642
1630937472267,0.475844144821167,-0.1998504400253296,-0.0110787106677889,0.2393030971288681
1630937472419,0.4676862359046936,-0.1928580552339553,-0.0162782296538352,0.2486777752637863
1630937472509,0.4530929625034332,-0.1840806156396865,-0.0218813959509134,0.2461226880550384
1630937472592,0.4380056858062744,-0.1683959066867828,-0.0295126624405384,0.2378862202167511
1630937472711,0.426384299993515,-0.1454522162675857,-0.0375058017671108,0.2323961704969406
1630937472773,0.4221577942371368,-0.1224366277456283,-0.042755976319313,0.235676109790802
1630937472928,0.4288341104984283,-0.1085709333419799,-0.0429885610938072,0.2473864108324051
1630937473019,0.4441938400268554,-0.1089221164584159,-0.0385111682116985,0.2622574269771576
1630937473139,0.4579665660858154,-0.1216013804078102,-0.0307629741728305,0.2735781073570251
1630937473226,0.4626559913158417,-0.1383172571659088,-0.0208045355975627,0.2769348621368408
1630937473311,0.4548966884613037,-0.149996131658554,-0.0088539272546768,0.271736741065979
1630937473431,0.4325438439846039,-0.1536158323287964,0.0038061069790273,0.2597213685512543
1630937473495,0.3968186378479004,-0.1519828885793686,0.0141953779384493,0.2420363277196884
1630937473621,0.3538042306900024,-0.1505350172519683,0.0195234324783086,0.2192370742559433
1630937473732,0.3179757595062256,-0.1529011130332946,0.0182398706674575,0.1939124017953872
1630937473827,0.2996564209461212,-0.1598453670740127,0.0110303629189729,0.1719460189342498
1630937473922,0.2984413504600525,-0.1692524850368499,-0.0005390295409597,0.1586802154779434
1630937474010,0.3049338757991791,-0.1770177483558654,-0.0127342194318771,0.1545687168836593
1630937474097,0.3133131563663482,-0.1812770813703537,-0.0202961601316928,0.1558010876178741
1630937474230,0.323613703250885,-0.1824197173118591,-0.018948707729578,0.1580640375614166
1630937474346,0.3341318964958191,-0.1783415973186493,-0.0073398035019636,0.1600184887647628
1630937474430,0.3363605439662933,-0.1660366952419281,0.0118486704304814,0.1620160490274429
1630937474548,0.3224026560783386,-0.1460427343845367,0.0339810028672218,0.1628888696432113
1630937474608,0.3018115758895874,-0.1219497397541999,0.0517593324184417,0.1615353524684906
1630937474719,0.2931154668331146,-0.0978060215711593,0.0584510266780853,0.1597223579883575
1630937474853,0.3086466491222381,-0.0770943090319633,0.0526409111917018,0.1633750796318054
1630937474945,0.3436217010021209,-0.0620604716241359,0.0394836775958538,0.1773388683795929
1630937475029,0.3839816153049469,-0.0529253222048282,0.0264498479664325,0.2023736536502838
1630937475173,0.4160229861736297,-0.0462995432317256,0.0185758508741855,0.2330515384674072
1630937475240,0.4343175292015075,-0.0373237393796443,0.015230543911457,0.2640655934810638
1630937475344,0.4397406876087188,-0.0250593703240156,0.0122161582112312,0.2910455167293548
1630937475478,0.4369470477104187,-0.0139928115531802,0.0058675101026892,0.3131471276283264
1630937475544,0.4314801096916199,-0.0098044751212,-0.0056524598039686,0.3318808972835541
1630937475654,0.4263935983181,-0.0144619466736912,-0.0222178399562835,0.3502982556819916
1630937475735,0.4213651716709137,-0.0252489112317562,-0.0427045449614524,0.3692918717861175
1630937475844,0.41807422041893,-0.0375077985227108,-0.0659621506929397,0.3867474198341369
1630937475927,0.4256018102169037,-0.046851173043251,-0.0899740979075431,0.4016026556491852
1630937476061,0.452867716550827,-0.0520804189145565,-0.1117135658860206,0.4151297509670257
1630937476170,0.4900369346141815,-0.0560234263539314,-0.1259330660104751,0.4293646514415741
1630937476291,0.5196048617362976,-0.0605394579470157,-0.1267216354608535,0.4434724152088165
1630937476357,0.5309748649597168,-0.0640693679451942,-0.1139052435755729,0.4530926048755646
1630937476465,0.523212194442749,-0.0644290521740913,-0.0948751121759414,0.4538913667201996
1630937476554,0.5021941661834717,-0.0629013702273368,-0.078979268670082,0.4440206587314605
1630937476683,0.4781759679317474,-0.0632846653461456,-0.072048045694828,0.425821840763092
1630937476784,0.462094098329544,-0.0675344318151474,-0.0740836188197135,0.4038664698600769
1630937476874,0.4604578018188476,-0.0741137489676475,-0.0799790322780609,0.3840791285037994
1630937476953,0.4732099175453186,-0.0801357552409172,-0.0851339623332023,0.3705070912837982
1630937477048,0.4936464130878448,-0.0845064371824264,-0.0879061818122863,0.3642054498195648
1630937477176,0.5125166177749634,-0.0886827856302261,-0.0876841694116592,0.361402302980423
1630937477314,0.5226508975028992,-0.095163382589817,-0.0833370983600616,0.3575694859027862
1630937477395,0.5192574262619019,-0.1065425649285316,-0.0712242722511291,0.3494840264320373
1630937477474,0.5012223124504089,-0.1230002716183662,-0.0505237840116024,0.3366536796092987
1630937477561,0.4679826200008392,-0.1421976089477539,-0.027335949242115,0.3215839564800262
1630937477708,0.4251684248447418,-0.1584467738866806,-0.0119573920965194,0.3075131475925445
1630937477775,0.3832840621471405,-0.168693795800209,-0.0106433052569627,0.2968929409980774
1630937477923,0.3530652821063995,-0.1734126210212707,-0.0209783110767602,0.2919378280639648
1630937477990,0.3391673266887665,-0.1755045056343078,-0.0351807810366153,0.2947942316532135
1630937478123,0.3380346596240997,-0.1778399050235748,-0.0452449433505535,0.3054728507995605
1630937478210,0.3409785032272339,-0.1838082075119018,-0.0452742129564285,0.3205624222755432
1630937478291,0.3421891331672668,-0.1935925632715225,-0.0272178966552019,0.3354733884334564
1630937478363,0.3415374159812927,-0.2011819630861282,0.0097639160230755,0.3464170098304748
1630937478506,0.3388068377971649,-0.1993339210748672,0.0547863692045211,0.3501690924167633
1630937478607,0.3354132175445556,-0.1864972114562988,0.0933093130588531,0.3458197712898254
1630937478680,0.3351829051971435,-0.1675165891647339,0.1186146363615989,0.3374304473400116
1630937478802,0.3460163474082947,-0.1463003754615783,0.1342706233263015,0.3315854072570801
1630937478925,0.3758270740509033,-0.1212778612971305,0.1443562507629394,0.3322109878063202
1630937478990,0.4190722107887268,-0.0911208316683769,0.1480999290943145,0.3376996517181396
1630937479130,0.4628464579582214,-0.0583906583487987,0.1441984325647354,0.3446549773216247
1630937479220,0.4963917434215545,-0.0289635267108678,0.1369241774082183,0.35282963514328
1630937479378,0.5167081356048584,-0.0076130111701786,0.1329013556241989,0.3630781173706054
1630937479417,0.5251308083534241,0.003744029905647,0.1344923973083496,0.3731247186660766
1630937479506,0.5253369212150574,0.0074833282269537,0.1385358273983001,0.378814548254013
1630937479597,0.5207883715629578,0.0080061880871653,0.1413798481225967,0.3787286281585693
1630937479756,0.5169786810874939,0.0090873660519719,0.142070785164833,0.3769899904727936
1630937479858,0.5167693495750427,0.0107378475368022,0.138645514845848,0.3811789155006408
1630937479944,0.5194689035415649,0.0108159827068448,0.1311027109622955,0.3960742056369781
1630937480043,0.5212340950965881,0.009876144118607,0.1243500187993049,0.4199507236480713
1630937480118,0.5201104879379272,0.0131923034787178,0.1236973032355308,0.447206050157547
1630937480197,0.5160374045372009,0.0253574736416339,0.1273850053548813,0.4721839427947998
1630937480337,0.5071334838867188,0.0430549159646034,0.1263230293989181,0.4914494156837463
1630937480421,0.4882956743240356,0.0560199469327926,0.114358976483345,0.5047616362571716
1630937480549,0.4554350972175598,0.0558077245950698,0.0947904139757156,0.5123634338378906
1630937480625,0.4115070700645447,0.0418042987585067,0.0768571570515632,0.5136046409606934
1630937480757,0.3714178502559662,0.0186697803437709,0.0691481679677963,0.5082608461380005
1630937480806,0.3541772067546844,-0.0075811184942722,0.075126402080059,0.4990213513374328
1630937480962,0.3697345554828644,-0.0306761246174573,0.0905621275305748,0.4915391206741333
1630937481075,0.4081198275089264,-0.0447188876569271,0.1076521351933479,0.491188108921051
1630937481143,0.4508360028266907,-0.0470206923782825,0.1195107996463775,0.4984142184257507
1630937481233,0.4836607575416565,-0.0405820794403553,0.1228543072938919,0.5075148344039917
1630937481344,0.5003438591957092,-0.0316759645938873,0.1171771883964538,0.5102961659431458
1630937481406,0.5021041631698608,-0.0253166146576404,0.1017879471182823,0.5023016333580017
1630937481562,0.4970195591449737,-0.0238239783793687,0.0768517777323722,0.4863711297512054
1630937481653,0.4968224763870239,-0.0289978347718715,0.0483122207224369,0.4695546925067901
1630937481739,0.5091800689697266,-0.0416978560388088,0.0270797424018383,0.4567945301532745
1630937481880,0.5316868424415588,-0.0596532113850116,0.0200780630111694,0.4482957720756531
1630937481942,0.5556852221488953,-0.0764931365847587,0.0236320085823535,0.4419676065444946
1630937482028,0.5759600400924683,-0.084505021572113,0.0289433244615793,0.4385256171226501
1630937482147,0.5913922786712646,-0.0808969885110855,0.0300678461790084,0.442163348197937
1630937482287,0.6012066602706909,-0.0683376267552375,0.024305310100317,0.4550416767597198
1630937482393,0.6033955216407776,-0.0527461320161819,0.0115263825282454,0.4742126166820526
1630937482436,0.5962106585502625,-0.0406598448753356,-0.0027430618647485,0.4947412014007568
1630937482524,0.5811363458633423,-0.0382542982697486,-0.009985014796257,0.5129608511924744
1630937482663,0.5623224973678589,-0.0474375039339065,-0.0054253824055194,0.5261937379837036
1630937482766,0.5449891686439514,-0.0637467503547668,0.0080487374216318,0.5336604118347168
1630937482864,0.5340327620506287,-0.0798464715480804,0.0263916067779064,0.5361637473106384
1630937482948,0.5303269624710083,-0.0907957926392555,0.0482200309634208,0.5351951718330383
1630937483064,0.5286474823951721,-0.0968555808067321,0.0712552443146705,0.532056987285614
1630937483153,0.5198147892951965,-0.1000330448150634,0.0891375318169593,0.5259921550750732
1630937483244,0.4990227520465851,-0.0992408394813537,0.0971807837486267,0.5157867670059204
1630937483402,0.47093665599823,-0.091981902718544,0.0988057032227516,0.5019360780715942
1630937483489,0.4459883868694305,-0.0791217535734176,0.1034769341349601,0.4869135916233063
1630937483581,0.4287392795085907,-0.0672313272953033,0.1168000996112823,0.4737567007541656
1630937483694,0.4171055257320404,-0.0622224546968936,0.1362863630056381,0.4628172218799591
1630937483801,0.4063701629638672,-0.0629959926009178,0.1551633924245834,0.4515615105628967
1630937483849,0.3952474594116211,-0.0622421950101852,0.1679746657609939,0.436598539352417
1630937483982,0.3826978206634521,-0.0547858774662017,0.172150582075119,0.4159733951091766
1630937484091,0.3710988461971283,-0.0419071801006794,0.1684150099754333,0.3904210031032562
1630937484188,0.3652057647705078,-0.0277541857212781,0.1603995114564895,0.364933043718338
1630937484294,0.3685669302940368,-0.0140929212793707,0.1513349413871765,0.3476083278656006
1630937484392,0.3702054619789123,0.0020499073434621,0.1407765001058578,0.335896223783493
1630937484472,0.3728201985359192,0.0216619372367858,0.1351532787084579,0.3338176906108856
1630937484604,0.3755704462528229,0.0424329154193401,0.1262324601411819,0.3368545472621918
1630937484718,0.3799410164356231,0.059703528881073,0.1189772635698318,0.3401566445827484
1630937484795,0.3862379193305969,0.0641156733036041,0.1196144968271255,0.3435500264167785
1630937484898,0.3888467252254486,0.0618057996034622,0.1275116056203842,0.3497804999351501
1630937484983,0.3814359307289123,0.0540017560124397,0.1343430876731872,0.360618382692337
1630937485075,0.3656233549118042,0.0460163429379463,0.1325023472309112,0.3732746243476867
1630937485215,0.3487142324447632,0.0435891039669513,0.1202309429645538,0.3835387229919433
1630937485334,0.3425455391407013,0.0462196432054042,0.1021574214100837,0.3886013329029083
1630937485428,0.3507324159145355,0.0473499782383441,0.0840148627758026,0.3899626433849334
1630937485501,0.3507324159145355,0.0429273173213005,0.0677950903773307,0.3899626433849334
1630937485619,0.3507324159145355,0.0391040071845054,0.0677950903773307,0.3899626433849334
1630937485704,0.3507324159145355,0.0488058291375637,0.0677950903773307,0.3899626433849334
1630937485824,0.3507324159145355,0.0777077302336692,0.0677950903773307,0.3899626433849334
1630937485899,0.3507324159145355,0.0777077302336692,0.0677950903773307,0.3899626433849334
1630937486028,0.3507324159145355,0.0777077302336692,0.0677950903773307,0.3899626433849334
1630937486102,0.3507324159145355,0.0777077302336692,0.0677950903773307,0.3899626433849334
1630937486194,0.3507324159145355,0.0777077302336692,0.0677950903773307,0.3899626433849334
1630937486318,0.3507324159145355,0.0777077302336692,0.0677950903773307,0.3899626433849334
1630937486440,0.3507324159145355,-0.1379586607217788,-0.0116005353629589,0.3899626433849334
1630937486528,0.3538529574871063,-0.1449616104364395,-0.0013275798410177,0.3930111527442932
1630937486627,0.3978867530822754,-0.1511706411838531,0.0033055979292839,0.4265962541103363
1630937486714,0.4297377467155456,-0.1575936377048492,0.0022746892645955,0.4494122266769409
1630937486808,0.4444229006767273,-0.1648035794496536,-0.0044107418507337,0.4535873532295227
1630937486900,0.442520260810852,-0.1712294369935989,-0.0158547740429639,0.4419909715652466
1630937487067,0.4291767179965973,-0.1742212921380996,-0.0276119261980056,0.4239205121994018
1630937487165,0.4101848900318146,-0.1728617697954177,-0.033118549734354,0.4071773290634155
1630937487258,0.3895936608314514,-0.1702892333269119,-0.0300989504903554,0.3939583599567413
1630937487320,0.3695736229419708,-0.1710230261087417,-0.0224193856120109,0.3811324536800384
1630937487415,0.3514538407325744,-0.177387461066246,-0.0157519336789846,0.3672671616077423
1630937487496,0.3387841284275055,-0.1881851106882095,-0.0125760436058044,0.3539865016937256
1630937487634,0.3328514695167541,-0.2046227306127548,-0.0079229744151234,0.3425428569316864
1630937487779,0.3301393389701843,-0.216443583369255,-0.0026856232434511,0.3249841630458832
1630937487844,0.3275156617164612,-0.2194496989250183,0.0054573584347963,0.3142460584640503
1630937487932,0.3153626322746277,-0.2165834903717041,0.0146288247779011,0.3021110892295837
1630937488058,0.2899023592472076,-0.2127344757318496,0.022809175774455,0.2788190245628357
1630937488107,0.2572214305400848,-0.207544595003128,0.0289656724780797,0.2408209145069122
1630937488266,0.227281779050827,-0.1973604559898376,0.0347900055348873,0.19542096555233
1630937488397,0.2129753828048706,-0.1812739372253418,0.0432542189955711,0.1573187410831451
1630937488449,0.2221377491950988,-0.1639653891324997,0.0558198206126689,0.1420269459486007
1630937488571,0.2515278160572052,-0.1511563062667846,0.0698800459504127,0.1528350412845611
1630937488641,0.2871193885803222,-0.1458146870136261,0.08002320677042,0.1800227165222168
1630937488756,0.3157701194286346,-0.1470747590065002,0.0842806696891784,0.2101735770702362
1630937488862,0.3339126408100128,-0.1516663581132888,0.0854102820158004,0.2366845309734344
1630937488952,0.3439837098121643,-0.1557702869176864,0.0870669186115264,0.2582003772258758
1630937489095,0.3470644056797027,-0.1568563729524612,0.0896197855472564,0.274644523859024
1630937489155,0.3537918627262115,-0.1551338583230972,0.0911411941051483,0.2882090508937835
1630937489246,0.3589305579662323,-0.1519385278224945,0.0890431553125381,0.300577849149704
1630937489338,0.3681294023990631,-0.146906316280365,0.0836338102817535,0.3097316026687622
1630937489488,0.385560929775238,-0.1394284069538116,0.0771121606230735,0.3212641179561615
1630937489577,0.4241161048412323,-0.1317640841007232,0.0721018090844154,0.3359401822090149
1630937489651,0.4450488090515136,-0.1279496550559997,0.070669911801815,0.3553534150123596
1630937489760,0.461232841014862,-0.1304738521575927,0.0705786123871803,0.3800090551376343
1630937489886,0.4682163298130035,-0.1371944993734359,0.0677017718553543,0.4067264199256897
1630937489953,0.4625164866447449,-0.1434268355369568,0.0656808987259864,0.4285925626754761
1630937490095,0.4403347671031952,-0.1528930068016052,0.0626655519008636,0.4378955662250519
1630937490190,0.4053472876548767,-0.1586533039808273,0.0604841634631156,0.4302435517311096
1630937490278,0.3743822574615478,-0.1583656519651413,0.0593702048063278,0.4087285101413727
1630937490361,0.3743822574615478,-0.1501394808292389,0.0574576780200004,0.3833839297294616
1630937490450,0.3743822574615478,-0.1338736116886139,0.0539040714502334,0.3833839297294616
1630937490570,0.3743822574615478,-0.1120329350233078,0.0516703389585018,0.3833839297294616
1630937490673,0.3743822574615478,-0.0892405062913894,0.0841971114277839,0.3833839297294616
1630937490765,0.3743822574615478,-0.0716018453240394,0.1163037419319152,0.3833839297294616
1630937490887,0.3743822574615478,-0.0539406575262546,0.1438093930482864,0.3833839297294616
1630937490976,0.3743822574615478,-0.0591267719864845,0.1645607948303222,0.3833839297294616
1630937491069,0.3743822574615478,-0.0735029205679893,0.1785748749971389,0.3833839297294616
1630937491175,0.3743822574615478,-0.0877623409032821,0.1861084252595901,0.3833839297294616
1630937491317,0.4057865738868713,-0.097745157778263,0.1888022422790527,0.3833839297294616
1630937491411,0.3780948221683502,-0.1000929251313209,0.1908574849367141,0.1289182156324386
1630937491495,0.3652814924716949,-0.0919647365808487,0.1776885241270065,0.1424609124660492
1630937491607,0.3665415048599243,-0.0753375217318534,0.1698080748319625,0.1723905354738235
1630937491695,0.3765973150730133,-0.0647663921117782,0.1657688468694687,0.199249267578125
1630937491811,0.3892687559127807,-0.0615933611989021,0.162516787648201,0.2132849097251892
1630937491923,0.4020754098892212,-0.0601614974439144,0.1578923314809799,0.2169306725263595
1630937492048,0.4145137965679168,-0.0560254342854023,0.1508413255214691,0.2197841703891754
1630937492110,0.4254439175128937,-0.0502576678991317,0.1411459296941757,0.2306945025920868
1630937492231,0.4342358112335205,-0.0442298352718353,0.1226832643151283,0.2525086104869842
1630937492275,0.4393081068992615,-0.0391636788845062,0.1100445687770843,0.2810208201408386
1630937492396,0.4400858581066131,-0.0394818186759948,0.1072697341442108,0.3079751133918762
1630937492574,0.4278918206691742,-0.0378006473183631,0.1114931628108024,0.3262082636356354
1630937492637,0.4219552278518677,-0.0370407328009605,0.1164147034287452,0.3397997319698334
1630937492704,0.420099526643753,-0.0373340733349323,0.1181721910834312,0.3518040478229522
1630937492831,0.4197659194469452,-0.0390718206763267,0.1168047115206718,0.3631041049957275
1630937492905,0.4197674095630646,-0.0450241453945636,0.1126641556620597,0.3711466193199157
1630937492987,0.4170650243759155,-0.0577438995242118,0.1038344651460647,0.3712325394153595
1630937493158,0.4111053943634033,-0.0756279900670051,0.089665912091732,0.3626039922237396
1630937493290,0.401747316122055,-0.0944893583655357,0.0722489431500434,0.3496034443378448
1630937493307,0.3914467096328735,-0.1116730347275734,0.0559833794832229,0.33918496966362
1630937493418,0.3850412964820862,-0.1274289190769195,0.0452858507633209,0.3371599912643432
1630937493513,0.3852429091930389,-0.1435452848672866,0.0421704612672328,0.3436766266822815
1630937493596,0.3906854689121246,-0.1606995165348053,0.0454081371426582,0.3542766869068146
1630937493766,0.3948917984962463,-0.1808511763811111,0.0493000783026218,0.3633366227149963
1630937493844,0.3967616558074951,-0.2030965238809585,0.0464739836752414,0.3676986992359161
1630937493935,0.3995106816291809,-0.2216073423624038,0.0361889526247978,0.3678049147129059
1630937494039,0.4078304767608642,-0.2279565781354904,0.0251288339495658,0.366752028465271
1630937494129,0.4199431836605072,-0.2158925682306289,0.0214499626308679,0.3658425807952881
1630937494220,0.4324946701526642,-0.188008427619934,0.0280825514346361,0.3633507788181305
1630937494355,0.4487776756286621,-0.1527851670980453,0.0431131273508071,0.3583405613899231
1630937494470,0.4762350618839264,-0.1209416463971138,0.0646445974707603,0.3530298173427582
1630937494542,0.513995349407196,-0.0984051898121833,0.0912258699536323,0.3516694009304046
1630937494663,0.5488201975822449,-0.0851342976093292,0.1176016554236412,0.3550291657447815
1630937494728,0.5704621076583862,-0.0762461423873901,0.137311115860939,0.3609973192214966
1630937494830,0.5769972205162048,-0.0680117011070251,0.1464081406593322,0.366459459066391
1630937494961,0.5720229148864746,-0.0615796409547328,0.1452577263116836,0.3678512871265411
1630937495061,0.5606891512870789,-0.0580970421433448,0.1376341730356216,0.3628084659576416
1630937495144,0.5482255816459656,-0.0553885847330093,0.1272753924131393,0.3505838513374328
1630937495244,0.543968141078949,-0.0493775457143783,0.1150510013103485,0.3316779136657715
1630937495340,0.5501129627227783,-0.0388799272477626,0.1003019139170646,0.3070679008960724
1630937495429,0.560939371585846,-0.0271952208131551,0.0815377160906791,0.2802737355232239
1630937495563,0.5664176344871521,-0.0202495418488979,0.0589704401791095,0.2573775053024292
1630937495655,0.5638919472694397,-0.0242545586079359,0.0356633365154266,0.2456413954496383
1630937495789,0.5569835305213928,-0.042621623724699,0.0153872920200228,0.2468495965003967
1630937495845,0.546231210231781,-0.0731401890516281,-0.0001963451359188,0.255244493484497
1630937495964,0.5243902206420898,-0.1064864695072174,-0.0133239887654781,0.2628821730613708
1630937496040,0.5009401440620422,-0.1320913881063461,-0.0266690719872713,0.2661913633346557
1630937496206,0.470906525850296,-0.1452160030603408,-0.0392433367669582,0.2721150815486908
1630937496293,0.4496897757053375,-0.14881032705307,-0.0470585562288761,0.291554719209671
1630937496384,0.454245001077652,-0.1484554409980774,-0.0470128059387207,0.3251256346702575
1630937496468,0.4745870530605316,-0.1478055268526077,-0.0391587018966674,0.3602966666221618
1630937496565,0.4889137744903564,-0.1474913507699966,-0.0267298333346843,0.3841228187084198
1630937496650,0.4903558492660522,-0.1474769115447998,-0.0124738635495305,0.3947916626930237
1630937496793,0.476408451795578,-0.1495744884014129,0.0044555580243468,0.400084376335144
1630937496890,0.4506373703479767,-0.1579152792692184,0.026605024933815,0.4086803197860718
1630937496987,0.4189049899578094,-0.1743655204772949,0.0549540296196937,0.4176896810531616
1630937497076,0.3933255970478058,-0.1935151070356369,0.0858825668692588,0.4281666278839111
1630937497163,0.3867726325988769,-0.2059149891138076,0.113196812570095,0.4379046261310577
1630937497249,0.3906145691871643,-0.2042408436536789,0.1340517997741699,0.4466629922389984
1630937497411,0.415154367685318,-0.1884246170520782,0.1500900983810424,0.456908106803894
1630937497502,0.4424936473369598,-0.1643746495246887,0.164455384016037,0.4728188514709472
1630937497576,0.4480315744876861,-0.1376843303442001,0.1779874116182327,0.4959559738636017
1630937497706,0.4430021941661834,-0.1114132404327392,0.189072772860527,0.4985616505146026
1630937497778,0.4317018687725067,-0.0869709029793739,0.1957192122936248,0.4897603690624237
1630937497857,0.4098475277423858,-0.0652532652020454,0.1977137178182602,0.4644315540790558
1630937498015,0.381214439868927,-0.0471141710877418,0.195520132780075,0.431736022233963
1630937498126,0.3705533146858215,-0.033326581120491,0.1905671805143356,0.401731014251709
1630937498212,0.3691464364528656,-0.023010840639472,0.184589684009552,0.3890729546546936
1630937498310,0.3746657073497772,-0.01325951423496,0.1779986023902893,0.3872124254703522
1630937498392,0.3820701241493225,-0.0009760915418155,0.1702447682619094,0.3872124254703522
1630937498481,0.3908058702945709,0.014149947091937,0.1606793254613876,0.3872124254703522
1630937498618,0.4012570083141327,0.0279646068811416,0.1506051272153854,0.3872124254703522
1630937498731,0.4012570083141327,0.0361233353614807,0.1422178447246551,0.3872124254703522
1630937498821,0.4012570083141327,0.0372463427484035,0.1354500651359558,0.3872124254703522
1630937498908,0.3726049661636352,0.0322586260735988,0.1270377784967422,0.3872124254703522
1630937498975,0.3237449526786804,0.0235883854329586,0.1139291524887085,0.3872124254703522
1630937499109,0.2855235040187835,0.0143272504210472,0.0988465696573257,0.3872124254703522
1630937499247,0.2571536600589752,0.0079210195690393,0.0915151312947273,0.3872124254703522
1630937499331,0.2571536600589752,0.0045693540014326,0.1014489457011222,0.3872124254703522
1630937499424,0.2571536600589752,0.0018539511365815,0.1267219334840774,0.3872124254703522
1630937499512,0.2571536600589752,-0.0026350477710366,0.1566327959299087,0.5637308955192566
1630937499623,0.2571536600589752,-0.0104684829711914,0.1819862276315689,0.5298780202865601
1630937499711,0.477163165807724,-0.0229885019361972,0.2008258551359176,0.4981536269187927
1630937499821,0.4359091818332672,-0.0412362031638622,0.2151791453361511,0.4751863181591034
1630937499941,0.3904227316379547,-0.0633070841431617,0.2264972925186157,0.4618389010429382
1630937500045,0.3535227179527282,-0.0822232887148857,0.2338447868824005,0.4546619057655334
1630937500127,0.3301552534103393,-0.0883305817842483,0.2352811247110366,0.4471786916255951
1630937500212,0.3231653869152069,-0.0781146883964538,0.2301048636436462,0.4363356828689575
1630937500345,0.3329567611217499,-0.0591154061257839,0.2200450152158737,0.4236242771148681
1630937500463,0.3572344183921814,-0.0419926047325134,0.2075089812278747,0.4124172627925873
1630937500538,0.3845445215702057,-0.0317010134458541,0.1936593502759933,0.4042340815067291
1630937500633,0.4055945873260498,-0.0261599272489547,0.1765228360891342,0.3980591297149658
1630937500751,0.4077598750591278,-0.0226769391447305,0.151917889714241,0.3737976253032684
1630937500855,0.3981732428073883,-0.0193019285798072,0.1166199222207069,0.3494677245616913
1630937500943,0.386492520570755,-0.0142755042761564,0.0723064616322517,0.3298909366130829
1630937501080,0.3619448840618133,-0.0059942118823528,0.0275370497256517,0.3179073929786682
1630937501176,0.3442838191986084,0.0059458324685692,-0.0066610309295356,0.3128789663314819
1630937501243,0.3371989130973816,0.0204929504543542,-0.0254323724657297,0.3133037686347961
1630937501355,0.3403311371803283,0.0365301743149757,-0.0315314531326293,0.3178918063640594
1630937501431,0.3497148156166076,0.0520623959600925,-0.0310064069926738,0.3237185478210449
1630937501523,0.361689031124115,0.0629166215658187,-0.0279438458383083,0.3273000419139862
1630937501656,0.3743256628513336,0.0651311203837394,-0.0259038228541612,0.3294940888881683
1630937501796,0.3821502029895782,0.0582001432776451,-0.0276701990514993,0.3325837254524231
1630937501862,0.3781583607196808,0.0465392917394638,-0.0350519232451915,0.3349947929382324
1630937501938,0.3574110269546509,0.0360890738666057,-0.0446291342377662,0.3319434225559234
1630937502038,0.3238945305347442,0.03053854778409,-0.0506648831069469,0.3210640847682953
1630937502127,0.2940295338630676,0.0272644069045782,-0.0475595630705356,0.3048993647098541
1630937502261,0.2853415608406067,0.0209775008261203,-0.0358815640211105,0.2866798937320709
1630937502372,0.3014240860939026,0.0086405416950583,-0.0218775235116481,0.2671164870262146
1630937502464,0.327360451221466,-0.0086985081434249,-0.0118156597018241,0.2472940236330032
1630937502571,0.345427930355072,-0.0271429531276226,-0.0082734497264027,0.2310827225446701
1630937502684,0.348950982093811,-0.042905293405056,-0.0098701352253556,0.2209344953298568
1630937502748,0.3439061939716339,-0.0533777363598346,-0.0127479676157236,0.2136797755956649
1630937502888,0.3384462893009186,-0.0578346252441406,-0.0124185867607593,0.2053322196006775
1630937503009,0.335712194442749,-0.0567035265266895,-0.0048764403909444,0.1971778571605682
1630937503064,0.3342032730579376,-0.0510707721114158,0.0109469573944807,0.1924060434103012
1630937503176,0.3332709074020386,-0.043982770293951,0.031513575464487,0.1905614137649536
1630937503245,0.3388690948486328,-0.0384915769100189,0.0504307448863983,0.1883473843336105
1630937503362,0.3580909073352813,-0.0361859500408172,0.064086802303791,0.1872770935297012
1630937503494,0.3897852003574371,-0.0366188697516918,0.0727666616439819,0.19149249792099
1630937503580,0.424130767583847,-0.0400909967720508,0.0791385471820831,0.2026108205318451
1630937503673,0.446978747844696,-0.0460905209183692,0.0835305005311966,0.2194066196680069
1630937503816,0.4508606791496277,-0.0528190284967422,0.0859878212213516,0.2414859980344772
1630937503876,0.4368041455745697,-0.0582669228315353,0.0899069532752037,0.268321543931961
1630937503978,0.41192427277565,-0.061691153794527,0.1016809865832328,0.2961474359035492
1630937504096,0.3898888528347015,-0.0631820559501648,0.1238135769963264,0.3202155232429504
1630937504186,0.3832937479019165,-0.0632541626691818,0.1501263231039047,0.3404272794723511
1630937504277,0.3966445624828338,-0.0640839487314224,0.1700189858675003,0.3594826459884643
1630937504388,0.4233344197273254,-0.0687581300735473,0.176254317164421,0.3768712282180786
1630937504523,0.4508714377880096,-0.0782138481736183,0.1676211506128311,0.3885457813739776
1630937504587,0.4708311557769775,-0.0906421020627021,0.1488025933504104,0.3922673165798187
1630937504720,0.4810939729213714,-0.1036321297287941,0.1277133524417877,0.3913640081882477
1630937504833,0.4809827208518982,-0.1157721504569053,0.1119516491889953,0.3913720548152923
1630937504923,0.4703814685344696,-0.1268207281827926,0.1049877777695655,0.393721342086792
1630937504990,0.4488841593265533,-0.1376543939113617,0.1060401648283004,0.3962291181087494
1630937505084,0.4229446351528168,-0.1487434655427932,0.1151792034506797,0.3974224030971527
1630937505169,0.4063108563423157,-0.1596251726150512,0.134731113910675,0.3978853225708008
1630937505320,0.4082200527191162,-0.1669954806566238,0.1614628881216049,0.397354781627655
1630937505390,0.4230998456478119,-0.1662411987781524,0.1853589117527008,0.3940371572971344
1630937505528,0.4406265020370483,-0.158648669719696,0.1963171362876892,0.3864616751670837
1630937505597,0.4529829323291778,-0.1511473655700683,0.1918690800666809,0.376675009727478
1630937505706,0.4560645520687103,-0.1498880088329315,0.1790640503168106,0.3665802478790283
1630937505795,0.4466264843940735,-0.1524808853864669,0.1690607666969299,0.3571252524852752
1630937505956,0.4246566593647003,-0.1519390791654586,0.1677207499742508,0.3488769233226776
1630937506039,0.3996782600879669,-0.1460184156894683,0.1726205796003341,0.344822883605957
1630937506136,0.3846827447414398,-0.1377968788146972,0.1772254407405853,0.3493972718715668
1630937506217,0.3858181834220886,-0.1288860738277435,0.1801681816577911,0.3630838096141815
1630937506313,0.396234929561615,-0.118883728981018,0.1868750602006912,0.3809879124164581
1630937506397,0.4058070778846741,-0.108216792345047,0.2019714117050171,0.3970703184604645
1630937506534,0.4126462042331695,-0.0974950790405273,0.2221292555332183,0.409790426492691
1630937506625,0.4176026284694671,-0.0864789560437202,0.2365620583295822,0.420138269662857
1630937506749,0.4189657866954803,-0.07599688321352,0.2352518290281295,0.426784485578537
1630937506833,0.4123967885971069,-0.0701371133327484,0.2170294970273971,0.4275669455528259
1630937506915,0.3993307948112488,-0.0724256858229637,0.1900869905948639,0.4232061803340912
1630937507024,0.3883104026317596,-0.0807966291904449,0.1662261486053466,0.4187801778316498
1630937507156,0.3915553689002991,-0.0888559147715568,0.1513060331344604,0.4182970523834228
1630937507269,0.4118797481060028,-0.0918658450245857,0.1419350504875183,0.4210550189018249
1630937507360,0.4386050105094909,-0.0929723381996154,0.1319331377744674,0.4227232635021209
1630937507456,0.458962619304657,-0.099189855158329,0.1190902814269065,0.4215922057628631
1630937507543,0.4646079540252685,-0.1126420348882675,0.1040480062365531,0.420107364654541
1630937507630,0.4554691612720489,-0.1296679526567459,0.0888190940022468,0.4204921722412109
1630937507758,0.4346660077571869,-0.1463728994131088,0.0747404620051384,0.4202566742897033
1630937507861,0.4122035801410675,-0.1604181826114654,0.0610177628695964,0.4147854149341583
1630937507946,0.401633620262146,-0.1689765602350235,0.0458079576492309,0.4036502540111542
1630937508031,0.4113405346870422,-0.1682141572237014,0.0268662553280591,0.3966589868068695
1630937508126,0.4353475868701935,-0.1588352918624878,0.0055126063525676,0.3932109773159027
1630937508237,0.4596351087093353,-0.1461272537708282,-0.0127817261964082,0.3936465978622436
1630937508396,0.4766227304935455,-0.1332509219646453,-0.0147183816879987,0.3996756076812744
1630937508479,0.4847226440906524,-0.1202563047409057,0.0122710717841982,0.4120800793170929
1630937508563,0.4865457415580749,-0.1062830910086631,0.0631056353449821,0.4170599579811096
1630937508662,0.4817053973674774,-0.0922368466854095,0.1166662275791168,0.4195053577423095
1630937508727,0.4680025279521942,-0.078654333949089,0.1546158045530319,0.4174869954586029
1630937508815,0.4487535059452057,-0.0651348084211349,0.1726783514022827,0.4131124019622803
1630937508996,0.4326110184192657,-0.0518442317843437,0.1778709888458252,0.4116097688674927
1630937509112,0.4289826452732086,-0.040761861950159,0.1797574907541275,0.414985716342926
1630937509170,0.438182383775711,-0.0332533158361911,0.1822650283575058,0.4201704859733581
1630937509294,0.4520002007484436,-0.0277718771249055,0.1838068515062332,0.4215922951698303
1630937509370,0.4620491564273834,-0.0225586108863353,0.1830746531486511,0.4185387790203094
1630937509440,0.4604969918727875,-0.0178600829094648,0.1824506372213363,0.4141867160797119
1630937509574,0.4434458315372467,-0.0163490809500217,0.1859694719314575,0.4011510908603668
1630937509687,0.4156879484653473,-0.0191897097975015,0.1939408630132675,0.3864220380783081
1630937509776,0.3904921412467956,-0.0243294294923543,0.2027695029973983,0.3711702525615692
1630937509889,0.3810950815677643,-0.0295207165181636,0.2055694907903671,0.3577573895454407
1630937509951,0.387747198343277,-0.0340471006929874,0.1962776929140091,0.3494012355804443
1630937510061,0.3984156847000122,-0.037060223519802,0.1737705767154693,0.3486289978027344
1630937510205,0.4017779231071472,-0.0376530475914478,0.1434998512268066,0.3494955897331238
1630937510266,0.3964933753013611,-0.0374373011291027,0.1168180406093597,0.351628303527832
1630937510382,0.3871883749961853,-0.0408718846738338,0.1030700504779815,0.3571639358997345
1630937510470,0.3780308365821838,-0.0490530729293823,0.1040030792355537,0.3643057346343994
1630937510558,0.3692121505737304,-0.0577260740101337,0.1155976057052612,0.3658830225467682
1630937510646,0.3575080037117004,-0.0624342523515224,0.1341083794832229,0.3569225966930389
1630937510806,0.3439309597015381,-0.0629609003663063,0.1568473875522613,0.3425700664520263
1630937510895,0.3334526121616363,-0.0599296130239963,0.1789624691009521,0.3342441618442535
1630937510980,0.334393173456192,-0.0540353991091251,0.1931292116641998,0.3383688926696777
1630937511102,0.3488675653934479,-0.0472280755639076,0.1948003619909286,0.3518555164337158
1630937511185,0.3675082921981811,-0.0424089841544628,0.1874350160360336,0.3705292046070099
1630937511293,0.3798114359378814,-0.0408812873065471,0.1811906695365905,0.3953120410442352
1630937511412,0.3827221095561981,-0.0410788357257843,0.1848561912775039,0.4243004620075226
1630937511495,0.3808425366878509,-0.041792657226324,0.1979037225246429,0.4498671293258667
1630937511590,0.3780386447906494,-0.0456499457359313,0.2127800434827804,0.4648574888706207
1630937511696,0.3761223554611206,-0.0551929660141468,0.2234514951705932,0.4687570631504059
1630937511772,0.3785306811332702,-0.0684076249599456,0.2275242209434509,0.4669063091278076
1630937511895,0.3912312984466553,-0.0778741315007209,0.2273946851491928,0.4657638669013977
1630937512022,0.4188851118087768,-0.0787584409117698,0.2259088456630706,0.4679699242115021
1630937512107,0.4566320478916168,-0.0745358765125274,0.2232812345027923,0.4729634523391723
1630937512219,0.4944124221801758,-0.0714365243911743,0.2173406034708023,0.4788675308227539
1630937512309,0.523792028427124,-0.070983812212944,0.2053036540746688,0.4842197597026825
1630937512396,0.5417178273200989,-0.0716843977570533,0.1881706714630127,0.4865469932556152
1630937512483,0.5479258894920349,-0.0734653398394584,0.1725764870643615,0.4845884442329407
1630937512642,0.5440390706062317,-0.0780084654688835,0.1667486429214477,0.4790592491626739
1630937512775,0.5343371033668518,-0.0854539722204208,0.1721372306346893,0.4712817668914795
1630937512815,0.5244895815849304,-0.0939865037798881,0.1808532327413559,0.4601667523384094
1630937512911,0.5165701508522034,-0.1018975600600242,0.1815387457609176,0.4459350407123565
1630937512998,0.5094966292381287,-0.1092559248208999,0.1669699251651764,0.4347881972789764
1630937513110,0.5025978684425354,-0.1149877905845642,0.1383394747972488,0.4351716041564941
1630937513241,0.4972043931484222,-0.117279015481472,0.1045547202229499,0.4469898343086242
1630937513384,0.4937289357185364,-0.1153109967708587,0.0778255015611648,0.4606672823429107
1630937513431,0.4868122935295105,-0.1114377528429031,0.0630375444889068,0.4654200971126556
1630937513547,0.4686395227909088,-0.1090854108333587,0.0565577372908592,0.4585529267787933
1630937513611,0.438138872385025,-0.1077209562063217,0.0548306629061698,0.4462041556835174
1630937513695,0.4050999879837036,-0.1031727194786071,0.0577271282672882,0.4371993839740753
1630937513861,0.3744060695171356,-0.0955757051706314,0.0659198760986328,0.4363269209861755
1630937513948,0.3503201007843017,-0.0907263308763504,0.0757211968302726,0.4431496858596802
1630937514069,0.3344106376171112,-0.0918840169906616,0.0817033499479293,0.4533088207244873
1630937514123,0.3361167311668396,-0.0932362899184227,0.0809914320707321,0.4624882638454437
1630937514211,0.3311268985271454,-0.0878366902470588,0.0751666948199272,0.4672387838363647
1630937514305,0.3217704892158508,-0.0763953328132629,0.0677858740091323,0.4658534824848175
1630937514441,0.3091577589511871,-0.0666332393884658,0.0627172961831092,0.4576108753681183
1630937514559,0.2941397428512573,-0.0620039701461792,0.0625289008021354,0.4415314793586731
1630937514643,0.2795740962028503,-0.0593346655368804,0.0687601044774055,0.4186564981937408
1630937514728,0.2693767547607422,-0.0541293434798717,0.080094389617443,0.3949064910411834
1630937514821,0.269758939743042,-0.045926921069622,0.0930090770125389,0.3779521882534027
1630937514951,0.2842500507831573,-0.035282801836729,0.1047301813960075,0.3710286617279053
1630937515077,0.3064238727092743,-0.0223922561854124,0.1134086772799491,0.3714694678783417
1630937515173,0.3202181756496429,-0.0098311463370919,0.1164584010839462,0.3737466931343078
1630937515268,0.3120477199554443,-0.0032334425486624,0.1122036576271057,0.3755365908145904
1630937515375,0.2999199628829956,-0.0049802637659013,0.1006615236401557,0.375735342502594
1630937515447,0.2854708433151245,-0.0088774189352989,0.0845462456345558,0.3717975318431854
1630937515532,0.2748200595378876,-0.0053246724419295,0.0681990161538124,0.3621062636375427
1630937515737,0.2528882920742035,0.0063030696474015,0.0555389970541,0.3476274907588959
1630937515807,0.2413626164197921,0.0182412266731262,0.0473230183124542,0.3341339528560638
1630937515894,0.2337262332439422,0.0237528923898935,0.0403884686529636,0.3264202773571014
1630937515957,0.2281289994716644,0.0235956739634275,0.0308189056813716,0.3250350058078766
1630937516076,0.228946566581726,0.0218400247395038,0.0194674618542194,0.3270871341228485
1630937516169,0.234533354640007,0.0190713312476873,0.0110225658863782,0.3290765285491943
1630937516274,0.2400323748588562,0.0125951962545514,0.01015864033252,0.3271865844726562
1630937516388,0.2374079674482345,0.0024407883174717,0.0170040167868137,0.3196659684181213
1630937516475,0.2233410030603408,-0.0088101932778954,0.0267812609672546,0.3093677461147308
1630937516584,0.2028200179338455,-0.0183912217617034,0.0358807295560836,0.3015350699424743
1630937516671,0.1914475113153457,-0.0260081347078084,0.0454013012349605,0.3001262247562408
1630937516774,0.2037911713123321,-0.0327892936766147,0.0602219998836517,0.3040724098682403
1630937516903,0.242253765463829,-0.0392708256840705,0.0826103463768959,0.3093877732753753
1630937516997,0.2916580140590668,-0.0455443523824214,0.1085013076663017,0.3140901029109955
1630937517130,0.3030591309070587,-0.0519144684076309,0.1209307163953781,0.3069905042648315
1630937517189,0.3126939535140991,-0.0668226480484008,0.1323341429233551,0.3077592253684997
1630937517256,0.3228748738765716,-0.0868219882249832,0.1412692666053772,0.3145519196987152
1630937517369,0.3359204828739166,-0.1033950522541999,0.1510899662971496,0.3237417042255401
1630937517567,0.3529571294784546,-0.1095836386084556,0.1674239188432693,0.3340376913547516
1630937517614,0.3713873028755188,-0.1058519184589386,0.1918861120939254,0.3470142185688019
1630937517681,0.3923489451408386,-0.0963004827499389,0.219487190246582,0.364582359790802
1630937517769,0.4163878560066223,-0.083133615553379,0.2433277666568756,0.3873487114906311
1630937517886,0.4423566460609436,-0.0695023164153099,0.2600439190864563,0.4146516621112823
1630937517979,0.4699535965919494,-0.0611698813736438,0.2397254407405853,0.4443641006946563
1630937518130,0.5025009512901306,-0.0647154971957206,0.2193491011857986,0.472667932510376
1630937518192,0.5025009512901306,-0.0792362540960311,0.1991883665323257,0.472667932510376
1630937518305,0.5025009512901306,-0.0792362540960311,0.1687437742948532,0.472667932510376
1630937518419,0.5025009512901306,-0.0792362540960311,0.12058936804533,0.472667932510376
1630937518511,0.5025009512901306,-0.0792362540960311,0.0771000981330871,0.472667932510376
1630937518614,0.5025009512901306,-0.0792362540960311,0.0771000981330871,0.472667932510376
1630937518736,0.5025009512901306,-0.0792362540960311,0.0771000981330871,0.472667932510376
1630937518841,0.5025009512901306,-0.0792362540960311,0.0771000981330871,0.472667932510376
1630937518916,0.5025009512901306,-0.0792362540960311,0.0771000981330871,0.472667932510376
1630937519003,0.5025009512901306,-0.0792362540960311,0.0771000981330871,0.472667932510376
1630937519086,0.5025009512901306,-0.0792362540960311,0.0771000981330871,0.472667932510376
1630937519181,0.5025009512901306,-0.0792362540960311,0.0771000981330871,0.472667932510376
1630937519338,0.5025009512901306,-0.0792362540960311,0.0539636649191379,0.472667932510376
1630937519421,0.5025009512901306,-0.1281166225671768,0.03987492993474,0.472667932510376
1630937519539,0.5025009512901306,-0.1172704845666885,0.0448297522962093,0.472667932510376
1630937519623,0.5025009512901306,-0.095447301864624,0.0546887256205081,0.472667932510376
1630937519740,0.5025009512901306,-0.0736440420150756,0.0614187158644199,0.472667932510376
1630937519831,0.5025009512901306,-0.0597687996923923,0.0666799545288086,0.4607066512107849
1630937519943,0.5567300319671631,-0.0434190854430198,0.0762339979410171,0.4347500205039978
1630937520032,0.5304305553436279,-0.0332264974713325,0.0779516547918319,0.4347500205039978
1630937520117,0.5071927905082703,-0.0458052605390548,0.0826927870512008,0.4347500205039978
1630937520233,0.4901309311389923,-0.0593824647367,0.0872923210263252,0.4347500205039978
1630937520321,0.4732547402381897,-0.0724499970674514,0.0872687771916389,0.4347500205039978
1630937520462,0.4550811350345611,-0.0843047350645065,0.0813653618097305,0.4202924966812134
1630937520541,0.4425723850727081,-0.0945567414164543,0.0738881602883338,0.4115380644798279
1630937520629,0.4397308528423309,-0.1012714207172393,0.0696752518415451,0.4079957008361816
1630937520749,0.4436901211738586,-0.1026584059000015,0.0696553587913513,0.411085695028305
1630937520834,0.4458189606666565,-0.1040356829762458,0.0787311866879463,0.4184261560440063
1630937520971,0.438969999551773,-0.0987355485558509,0.0836557298898696,0.4245621860027313
1630937521037,0.4246965646743774,-0.0967120975255966,0.078187808394432,0.4238049685955047
1630937521165,0.3985759317874908,-0.0993838086724281,0.064767949283123,0.4083521664142608
1630937521236,0.367756187915802,-0.101884126663208,0.0499842017889022,0.385780394077301
1630937521352,0.3415111899375915,-0.1017709374427795,0.0399747602641582,0.3668940961360931
1630937521466,0.3288753926753998,-0.100752368569374,0.0367518402636051,0.3627104461193084
1630937521558,0.3305505812168121,-0.1002185270190239,0.0372394993901252,0.3652516305446625
1630937521616,0.3361981511116028,-0.0979941263794899,0.0384603850543499,0.3767890632152557
1630937521802,0.3383409976959228,-0.090784914791584,0.0414283275604248,0.3893447518348694
1630937521887,0.3368268609046936,-0.0792918503284454,0.0483174696564674,0.3964799642562866
1630937521975,0.3360952138900757,-0.0663643777370452,0.0621370300650596,0.4003109633922577
1630937522037,0.3364752233028412,-0.0515577234327793,0.0815726593136787,0.3984569013118744
1630937522156,0.338573694229126,-0.0292627401649951,0.1022008061408996,0.3938618302345276
1630937522251,0.3472104370594024,0.0055718962103128,0.1185948476195335,0.388384461402893
1630937522382,0.3710702359676361,0.0505540817975997,0.1284835487604141,0.3865895867347717
1630937522473,0.4170835018157959,0.0980483293533325,0.1351029723882675,0.3965751230716705
1630937522560,0.4779516756534576,0.13990318775177,0.1441569328308105,0.4237607717514038
1630937522670,0.5386680960655212,0.1712308377027511,0.1590775847434997,0.4650866687297821
1630937522762,0.5862679481506348,0.1907561719417572,0.1784805655479431,0.5095614790916443
1630937522850,0.6161620020866394,0.2005367577075958,0.1993050724267959,0.5457671880722046
1630937523003,0.6307308673858643,0.2042666524648666,0.2200001776218414,0.5666654109954834
1630937523084,0.6354337930679321,0.2051893323659896,0.2393657267093658,0.5705996751785278
1630937523207,0.6363852620124817,0.2036625891923904,0.2530929148197174,0.5616794228553772
1630937523273,0.6382994651794434,0.1989934593439102,0.2563673555850982,0.5490063428878784
1630937523364,0.6448551416397095,0.193199947476387,0.2500919699668884,0.5430108904838562
1630937523472,0.6551881432533264,0.190748929977417,0.2399852126836776,0.5499119162559509
1630937523613,0.6645814180374146,0.193500354886055,0.2322613894939422,0.5677062273025513
1630937523706,0.6690402626991272,0.1957934349775314,0.2284737825393676,0.5873352885246277
1630937523787,0.6661941409111023,0.1889532804489135,0.2276216596364975,0.6008056402206421
1630937523874,0.6565617322921753,0.1704139709472656,0.2293819934129715,0.6051074862480164
1630937523971,0.6403610706329346,0.1458386331796646,0.2325189262628555,0.6018213033676147
1630937524105,0.6169441342353821,0.1235621646046638,0.2336965352296829,0.5934995412826538
1630937524230,0.5872188806533813,0.107213407754898,0.2282466292381286,0.5800572037696838
1630937524324,0.5567243099212646,0.0953187644481659,0.213426262140274,0.5625373125076294
1630937524403,0.5336778163909912,0.0869651362299919,0.1896246522665023,0.5469080209732056
1630937524478,0.5228344798088074,0.082878939807415,0.1599873006343841,0.541486382484436
1630937524570,0.5229398608207703,0.0816562697291374,0.1308793872594833,0.5488726496696472
1630937524710,0.5274478197097778,0.0812748000025749,0.1101128160953521,0.5625139474868774
1630937524819,0.529603898525238,0.0803060308098793,0.1022586971521377,0.5731418132781982
1630937524936,0.5256255865097046,0.0775370001792907,0.1037070378661155,0.5763488411903381
1630937525000,0.5171384215354919,0.070831187069416,0.1054579317569732,0.5719025135040283
1630937525109,0.5088945031166077,0.0580079965293407,0.1012782752513885,0.5603863000869751
1630937525219,0.5016077160835266,0.0397201739251613,0.0907606929540634,0.5437031388282776
1630937525307,0.4931483268737793,0.0190136823803186,0.0764078348875045,0.5249336361885071
1630937525423,0.4816221296787262,-0.0040156003087759,0.0603618882596492,0.506729245185852
1630937525513,0.4690262079238891,-0.0327585749328136,0.0429445430636405,0.4881337881088257
1630937525623,0.4611449241638183,-0.0692554265260696,0.0269306357949972,0.4661163985729217
1630937525738,0.4612696766853332,-0.1091502532362937,0.0191773269325494,0.440441757440567
1630937525820,0.4700668156147003,-0.1424858421087265,0.0253996681421995,0.4139059484004974
1630937525896,0.4836888909339905,-0.1614036411046981,0.0410472266376018,0.388291984796524
1630937526026,0.4949869811534881,-0.1648169010877609,0.0535800792276859,0.3628929853439331
1630937526141,0.4969890713691711,-0.1546165347099304,0.0544956997036933,0.3364947736263275
1630937526220,0.4881847500801086,-0.1346951127052307,0.0470865070819854,0.311193436384201
1630937526337,0.4735245406627655,-0.1108323037624359,0.042602501809597,0.2904947698116302
1630937526450,0.4594763517379761,-0.0886880382895469,0.0491288863122463,0.2733407020568847
1630937526511,0.4490128755569458,-0.0734435021877288,0.0629292204976081,0.2553488612174988
1630937526653,0.4445697367191314,-0.0662132799625396,0.0730315446853637,0.2365916073322296
1630937526741,0.449357271194458,-0.0638212338089943,0.0733098983764648,0.2231412529945373
1630937526836,0.4623183608055115,-0.0596144683659076,0.0674259513616561,0.2201327383518219
1630937526916,0.4775774180889129,-0.0463895238935947,0.0639243349432945,0.2253545373678207
1630937527035,0.4877691566944122,-0.0213033948093652,0.0680905506014823,0.2339302003383636
1630937527115,0.489960104227066,0.0117857391014695,0.076910488307476,0.2464649230241775
1630937527276,0.4861136078834533,0.0451860874891281,0.0838153734803199,0.2666208744049072
1630937527348,0.4761707484722137,0.072534292936325,0.0866380259394645,0.2928801774978637
1630937527455,0.4596759974956512,0.091615192592144,0.0893741026520729,0.3182412385940552
1630937527567,0.4421610832214355,0.1039886996150016,0.097539946436882,0.3376556634902954
1630937527664,0.435308426618576,0.1123122572898864,0.1104339212179184,0.3527759611606598
1630937527736,0.4481025636196136,0.1176226958632469,0.1212188154458999,0.3669518232345581
1630937527854,0.4740671217441559,0.1195514723658561,0.1242386177182197,0.3803397715091705
1630937527968,0.5002261996269226,0.1187539994716644,0.1207130327820777,0.3916218876838684
1630937528078,0.5181853771209717,0.1185750961303711,0.1175830662250518,0.4020123183727264
1630937528148,0.52567058801651,0.1217177510261535,0.1204040274024009,0.4140801727771759
1630937528238,0.5237424969673157,0.1264746487140655,0.1290069371461868,0.4278354942798614
1630937528327,0.5156875848770142,0.1267599910497665,0.1390030831098556,0.4416627585887909
1630937528479,0.5072270035743713,0.1182490214705467,0.1466348320245742,0.4552092254161834
1630937528576,0.505310595035553,0.1016904413700103,0.1497310847043991,0.4698788225650787
1630937528661,0.5119580626487732,0.0814186930656433,0.148017942905426,0.4846449196338653
1630937528778,0.5239418745040894,0.0629995986819267,0.1438231617212295,0.4957699179649353
1630937528863,0.5354348421096802,0.050405241549015,0.1419271230697631,0.5013596415519714
1630937528973,0.542971670627594,0.0447984784841537,0.1482404917478561,0.5044208765029907
1630937529086,0.544821560382843,0.046530544757843,0.165034994482994,0.5088897347450256
1630937529207,0.5394307971000671,0.0553103126585483,0.1889231652021408,0.5152929425239563
1630937529300,0.5259859561920166,0.06934704631567,0.2140585929155349,0.521743655204773
1630937529376,0.5081349611282349,0.0846920385956764,0.2356065511703491,0.5275084972381592
1630937529475,0.4932291209697723,0.0955990105867385,0.2500924170017242,0.5323457717895508
1630937529555,0.4907882511615753,0.09870196133852,0.2562552690505981,0.5344208478927612
1630937529690,0.5055338740348816,0.0959551483392715,0.2562642395496368,0.5323123335838318
1630937529801,0.5316518545150757,0.093993529677391,0.2555542290210724,0.5283153057098389
1630937529896,0.5578131675720215,0.0974410101771354,0.2582535147666931,0.5254814028739929
1630937529984,0.573810875415802,0.1037711948156356,0.2644287943840027,0.5230189561843872
1630937530084,0.5761430859565735,0.1071573868393898,0.2745526432991028,0.516787588596344
1630937530159,0.5661759972572327,0.1055066734552383,0.2901719510555267,0.5044103860855103
1630937530313,0.5470795631408691,0.101869873702526,0.3089206516742706,0.4876357614994049
1630937530436,0.5256651043891907,0.0992617309093475,0.3226691782474518,0.4696550071239471
1630937530499,0.5111346244812012,0.0971065312623977,0.3231757581233978,0.4516984820365906
1630937530588,0.5094775557518005,0.0911836773157119,0.3087745606899261,0.4323488473892212
1630937530678,0.5177013278007507,0.0775566473603248,0.2856671512126922,0.4112119972705841
1630937530766,0.5264049172401428,0.0561699867248535,0.2627063393592834,0.3905746936798095
1630937530900,0.5288858413696289,0.0320393368601799,0.2458468079566955,0.3726722300052643
1630937530986,0.5225228071212769,0.0133445309475064,0.2376536279916763,0.3574270009994507
1630937531104,0.5068492889404297,0.011064575985074,0.2389780282974243,0.3455012440681457
1630937531236,0.4821986854076385,0.015415602363646,0.2508429884910583,0.3409241437911987
1630937531303,0.4526627957820892,0.0182121079415082,0.2711042761802673,0.3358862102031708
1630937531392,0.4271427989006042,0.016814375296235,0.2944095432758331,0.3275256752967834
1630937531529,0.4149787127971649,0.0165808666497468,0.3143695294857025,0.3703277111053467
1630937531615,0.4167099297046661,0.0232273489236831,0.3249783813953399,0.4162847995758056
1630937531699,0.4281762838363647,0.0351917184889316,0.3237077891826629,0.4606059193611145
1630937531792,0.4445316195487976,0.0435718074440956,0.3138687312602997,0.5040859580039978
1630937531905,0.4604283273220062,0.0414057336747646,0.304077535867691,0.5474989414215088
1630937531986,0.4696444272994995,0.0280397143214941,0.3014457523822784,0.5865650773048401
1630937532130,0.4681329429149627,0.006639611441642,0.3068509697914123,0.6151551008224487
1630937532245,0.459770917892456,0.006639611441642,0.3158625662326813,0.6306926608085632
1630937532332,0.4549103677272796,0.006639611441642,0.3246996402740478,0.637091875076294
1630937532399,0.4635635912418365,0.006639611441642,0.332373708486557,0.6426989436149597
1630937532499,0.4855562448501587,0.006639611441642,0.338459700345993,0.6538822650909424
1630937532618,0.5096079707145691,-0.0784511417150497,0.342120885848999,0.6708223223686218
1630937532735,0.5231568813323975,-0.0613729171454906,0.3404414355754852,0.6676444411277771
1630937532821,0.5229204297065735,-0.0555067732930183,0.3298533260822296,0.6618483066558838
1630937532939,0.5117200016975403,-0.0600699372589588,0.3084810972213745,0.6510346531867981
1630937533022,0.4950070679187774,-0.0650824084877967,0.2796768546104431,0.629487156867981
1630937533114,0.478780597448349,-0.0600882694125175,0.2511431574821472,0.602136492729187
1630937533274,0.4695999324321747,-0.04248558729887,0.2289209365844726,0.5744755864143372
1630937533351,0.4733807742595672,-0.0193908642977476,0.2129019349813461,0.5459003448486328
1630937533473,0.4888457953929901,-0.0009616559254936,0.19842529296875,0.5128277540206909
1630937533579,0.5085737109184265,0.0068066432140767,0.1832843124866485,0.4757636487483978
1630937533663,0.5246264934539795,0.0041804360225796,0.1685722768306732,0.4426887035369873
1630937533748,0.5316144227981567,-0.0036261123605072,0.1550409197807312,0.4217427968978882
1630937533827,0.5288448333740234,-0.0068986103869974,0.1399175226688385,0.4114134907722473
1630937533987,0.515828013420105,-0.0043620206415653,0.1195749044418335,0.4024738073348999
1630937534080,0.4954848289489746,0.0033663297072052,0.0927840992808342,0.3897393047809601
1630937534164,0.4753347039222717,0.0163324456661939,0.0598834231495857,0.3752845823764801
1630937534261,0.4659242033958435,0.0343104377388954,0.0246548093855381,0.3664370775222778
1630937534359,0.4684728682041168,0.0546231195330619,-0.0046399151906371,0.3680708706378937
1630937534408,0.4758743941783905,0.0722220689058303,-0.0161839500069618,0.3790847957134247
1630937534564,0.4801438450813293,0.0814044252038002,-0.0065197986550629,0.3944999575614929
1630937534676,0.4764522314071655,0.0788431093096733,0.0152487037703394,0.4076449275016784
1630937534743,0.4619597792625427,0.0640041008591651,0.0370521731674671,0.4134708642959595
1630937534859,0.4370400905609131,0.0396012216806411,0.0521286539733409,0.4115629494190216
1630937534949,0.4066024720668793,0.012788170017302,0.0593277886509895,0.4059918224811554
1630937535042,0.3778536915779114,-0.0057425387203693,0.0601138062775135,0.4055804014205932
1630937535210,0.3554727435111999,-0.0077403173781931,0.055791113525629,0.4175536334514618
1630937535281,0.3427836894989013,0.0054572159424424,0.0470411032438278,0.4422521591186523
1630937535374,0.3399508595466614,0.0254426877945661,0.0363948307931423,0.4747082591056824
1630937535468,0.3484928607940674,0.043886549770832,0.0277510527521371,0.506895899772644
1630937535548,0.3651423752307892,0.0545447953045368,0.0231203231960535,0.5308384895324707
1630937535641,0.380720317363739,0.0526478178799152,0.0221377443522214,0.5412532091140747
1630937535804,0.3857746720314026,0.037266805768013,0.0217639971524477,0.536723256111145
1630937535876,0.3796666860580444,0.0136642837896943,0.0194388534873724,0.5207599401473999
1630937535976,0.3726662099361419,-0.0081763984635472,0.0129884108901023,0.5006807446479797
1630937536074,0.3819193542003631,-0.0207048617303371,0.0015718130161985,0.4830946624279022
1630937536151,0.4158546924591064,-0.0233073104172945,-0.0131627693772315,0.4709540605545044
1630937536290,0.4621809422969818,-0.0192104969173669,-0.026769271120429,0.4646440148353576
1630937536398,0.5008364319801331,-0.0105096325278282,-0.0328984595835208,0.4641605913639068
1630937536498,0.5204634070396423,0.0007207075832411,-0.0256727617233991,0.4687429666519165
1630937536581,0.5229714512825012,0.0093051455914974,-0.0038583558052778,0.4733619093894958
1630937536673,0.5190873146057129,0.0101927006617188,0.0294705256819725,0.4720194637775421
1630937536781,0.5193148851394653,0.0035539821255952,0.0712611451745033,0.4641849100589752
1630937536890,0.5268704295158386,-0.0052018584683537,0.1184576526284217,0.4531867802143097
1630937537006,0.5393050909042358,-0.0119299562647938,0.1633888781070709,0.4421196281909942
1630937537095,0.5529703497886658,-0.0163517296314239,0.198114812374115,0.4319331049919128
1630937537181,0.5663880705833435,-0.018570689484477,0.2195625454187393,0.4253379106521606
1630937537273,0.5781645178794861,-0.0160608980804681,0.2301770895719528,0.4300825595855713
1630937537406,0.5866622924804688,-0.0081000113859772,0.2346903532743454,0.4519660770893097
1630937537499,0.5897195935249329,0.0026399130001664,0.2364023327827453,0.4851942360401153
1630937537607,0.5830982327461243,0.0135107357054948,0.2365408688783645,0.5172086954116821
1630937537701,0.562571108341217,0.0234146211296319,0.2355345338582992,0.5381327867507935
1630937537807,0.5290685296058655,0.0317576490342617,0.2333582639694214,0.5451028347015381
1630937537923,0.4925231635570526,0.0373678691685199,0.2318173199892044,0.5415633320808411
1630937537988,0.4685316681861877,0.0402173586189746,0.2327155768871307,0.533688485622406
1630937538072,0.4647534191608429,0.042370717972517,0.2343499064445495,0.5265480279922485
1630937538229,0.475733608007431,0.0453798286616802,0.2302716821432113,0.5212706923484802
1630937538326,0.4881932139396667,0.0472588390111923,0.2145587801933288,0.5140560865402222
1630937538410,0.4920544922351837,0.0442663058638572,0.1884099692106247,0.5011558532714844
1630937538499,0.4814233779907226,0.0358821898698806,0.1610665321350097,0.4836789965629577
1630937538641,0.4557301998138428,0.025968998670578,0.1407032161951065,0.4661904573440552
1630937538707,0.4188865125179291,0.0181504376232624,0.1267784982919693,0.450313538312912
1630937538841,0.3793607056140899,0.0118261976167559,0.114636056125164,0.4319536685943603
1630937538929,0.3458369076251983,0.00594113022089,0.1029911637306213,0.4078130424022674
1630937539041,0.3248245418071747,0.0022360896691679,0.095136322081089,0.3813189268112182
1630937539124,0.3162080347537994,0.003063476178795,0.0936881974339485,0.3598783612251282
1630937539220,0.316824346780777,0.0064065139740705,0.0987750515341758,0.3499535918235779
1630937539305,0.3218035995960235,0.0069088404998183,0.1083484292030334,0.3531696200370788
1630937539474,0.3230661749839782,0.0013568026479333,0.1167757660150528,0.3650737106800079
1630937539533,0.3145062029361725,-0.0097943805158138,0.1166225746273994,0.3782398402690887
1630937539641,0.2937220633029938,-0.0234657656401395,0.1041191071271896,0.3871828615665436
1630937539735,0.2608149647712707,-0.0369169823825359,0.0837781950831413,0.3911898136138916
1630937539826,0.2193849980831146,-0.0494055226445198,0.064700111746788,0.3935608863830566
1630937539911,0.1780317723751068,-0.0615772865712642,0.0499696470797061,0.3966508209705353
1630937540042,0.1501044183969497,-0.0751184374094009,0.0356374569237232,0.3998296558856964
1630937540132,0.1438112258911132,-0.0911513417959213,0.0208875145763158,0.4019598364830017
1630937540248,0.1539717763662338,-0.1087530404329299,0.0124566657468676,0.4035140872001648
1630937540349,0.1690171808004379,-0.1261278837919235,0.0146072749048471,0.4044444561004638
1630937540424,0.1830298006534576,-0.142986312508583,0.0216912981122732,0.4012886583805084
1630937540557,0.1923070549964904,-0.1624534130096435,0.0241322368383407,0.3908680975437164
1630937540655,0.1943928450345993,-0.187028557062149,0.0192644502967596,0.3751099407672882
1630937540757,0.1875559836626052,-0.2124223411083221,0.0113785238936543,0.3615870177745819
1630937540875,0.1740939021110534,-0.2265231907367706,0.0099791549146175,0.3568595647811889
1630937540959,0.1630970984697342,-0.2213746756315231,0.025400411337614,0.3631487786769867
1630937541025,0.1636690944433212,-0.200266495347023,0.0608022138476371,0.3787185251712799
1630937541122,0.1768680065870285,-0.1748204678297042,0.1094355732202529,0.3982469439506531
1630937541276,0.1935332119464874,-0.1552020013332367,0.1586942821741104,0.4138101935386657
1630937541362,0.2061126083135604,-0.144492819905281,0.1980630606412887,0.4199280440807342
1630937541471,0.2124960720539093,-0.1387282609939575,0.2239074409008026,0.4190887808799743
1630937541550,0.2184421122074127,-0.1307150423526764,0.2402516305446624,0.4188579320907593
1630937541657,0.2192016094923019,-0.1164510846138,0.2539809346199035,0.4227710366249084
1630937541746,0.2153767645359039,-0.0972563028335571,0.2692303955554962,0.4325422346591949
1630937541879,0.2103926241397857,-0.073669247329235,0.283942312002182,0.44760262966156
1630937541969,0.2175265103578567,-0.0444330051541328,0.2958329319953918,0.4665885865688324
1630937542053,0.2389392852783203,-0.0087464144453406,0.3071772456169128,0.4877469837665558
1630937542175,0.2735257744789123,0.0294506903737783,0.3209802210330963,0.4955850839614868
1630937542259,0.3127654194831848,0.0630679950118064,0.334681898355484,0.4932925701141357
1630937542372,0.3461361825466156,0.08609489351511,0.3417316079139709,0.4775690734386444
1630937542484,0.3659770786762237,0.0974815562367439,0.3373635709285736,0.4491836726665497
1630937542574,0.3714135289192199,0.1001433953642845,0.3229874968528747,0.4081601798534393
1630937542662,0.3655217885971069,0.0988496616482734,0.3036344945430755,0.3547386825084686
1630937542776,0.3554349541664123,0.0968405529856681,0.2839701175689697,0.2971625328063965
1630937542859,0.3485194742679596,0.0958597511053085,0.2674716711044311,0.2518938779830932
1630937542973,0.3504696190357208,0.096102125942707,0.2575423419475555,0.2512636482715606
1630937543112,0.3466731607913971,0.0969913974404335,0.2571143805980682,0.2574547827243805
1630937543194,0.3501944839954376,0.0979792103171348,0.266123503446579,0.2691991925239563
1630937543292,0.3587164580821991,0.098317451775074,0.2792925536632538,0.2888916432857513
1630937543375,0.3706433176994324,0.0963421911001205,0.2911558449268341,0.3168620467185974
1630937543468,0.3882751166820526,0.0895707234740257,0.2984070479869842,0.3465952575206756
1630937543579,0.3994664549827575,0.0764912068843841,0.3001958429813385,0.3695912063121795
1630937543716,0.4021570086479187,0.0583279691636562,0.2986035645008087,0.3824047148227691
1630937543811,0.4029192328453064,0.0404263511300087,0.2985682487487793,0.3914007842540741
1630937543913,0.4123384654521942,0.0291385687887668,0.303206592798233,0.4012103974819183
1630937543988,0.4333169460296631,0.0268911998718976,0.3101013600826263,0.4117090404033661
1630937544094,0.4574246406555176,0.0314318574965,0.3145962655544281,0.4209357798099518
1630937544153,0.4757293462753296,0.0384374968707561,0.3153775334358215,0.4293861985206604
1630937544324,0.4867691695690155,0.0457660108804702,0.3149985074996948,0.438691645860672
1630937544407,0.4929811060428619,0.0514474250376224,0.3151429891586303,0.4527414739131927
1630937544534,0.5079790353775024,0.05314477160573,0.3133841156959533,0.4652052819728851
1630937544605,0.5203899145126343,0.0504166334867477,0.3033378422260284,0.4759731590747833
1630937544698,0.529654324054718,0.044865146279335,0.2802774608135223,0.4843051135540008
1630937544780,0.535729706287384,0.03928729519248,0.245454728603363,0.4874298572540283
1630937544925,0.5381941199302673,0.0361903682351112,0.2071636170148849,0.4763515591621399
1630937545004,0.5698911547660828,0.0374105907976627,0.1770102679729461,0.4589450657367706
1630937545125,0.5901582837104797,0.0419672392308712,0.1607074588537216,0.4508233070373535
1630937545207,0.5994132161140442,0.0460074096918106,0.1532156765460968,0.4594717919826507
1630937545329,0.6003317832946777,0.0446513630449771,0.1443100720643997,0.4750712513923645
1630937545438,0.5949468016624451,0.0362245813012123,0.1280278265476226,0.4846652746200561
1630937545542,0.5859559178352356,0.0234163720160722,0.1068904623389244,0.4863090813159942
1630937545636,0.5797595977783203,0.0105790505185723,0.0866840481758117,0.4947924017906189
1630937545730,0.5833960771560669,0.0001541582023492,0.0705832690000534,0.5077980756759644
1630937545836,0.5961902141571045,-0.0081815663725137,0.0605943538248539,0.5237929224967957
1630937545905,0.6132258772850037,-0.014152224175632,0.0606997087597847,0.5132224559783936
1630937545994,0.6062225103378296,-0.0170913822948932,0.0731535330414772,0.5024569630622864
1630937546156,0.5978347659111023,-0.0184420589357614,0.0932175815105438,0.492159903049469
1630937546246,0.590660035610199,-0.0191538129001855,0.1123597249388694,0.4843315184116363
1630937546331,0.5858780145645142,-0.0191288348287343,0.1253098845481872,0.4784793853759765
1630937546444,0.5847386717796326,-0.0202937796711921,0.1338448226451873,0.4787254929542541
1630937546560,0.5690022110939026,-0.0274438448250293,0.1411335915327072,0.4786014556884765
1630937546621,0.5606417655944824,-0.0430279895663261,0.1474358439445495,0.4700012505054474
1630937546762,0.5602126717567444,-0.0629888623952865,0.151033878326416,0.4523212313652038
1630937546844,0.5620740652084351,-0.0784555450081825,0.1532118022441864,0.4355165660381317
1630937546930,0.5609956979751587,-0.0835065990686416,0.1604543030261993,0.431054025888443
1630937547018,0.5541288256645203,-0.0800563991069793,0.1774490028619766,0.4382323920726776
1630937547108,0.5417312979698181,-0.0753424242138862,0.2009570598602295,0.4431382417678833
1630937547224,0.5399197340011597,-0.0757906436920166,0.2218490242958068,0.44471275806427
1630937547382,0.5380483865737915,-0.0821073725819587,0.2320189327001571,0.4457110464572906
1630937547467,0.5290228128433228,-0.0889815241098404,0.2283408194780349,0.4505385756492615
1630937547578,0.5380955338478088,-0.0874933004379272,0.2144694030284881,0.4588741660118103
1630937547648,0.5640010833740234,-0.0706752762198448,0.1987948566675186,0.4674087166786194
1630937547745,0.5927717089653015,-0.0414868891239166,0.1899110376834869,0.4714814722537994
1630937547838,0.6102362275123596,-0.0114085869863629,0.1922731846570968,0.4685750305652618
1630937547983,0.61006760597229,0.008584588766098,0.2021755278110504,0.4603258371353149
1630937548075,0.5953850746154785,0.0158592779189348,0.2111341208219528,0.4511692821979522
1630937548167,0.5736053586006165,0.0152742741629481,0.2124895751476287,0.4447136521339416
1630937548273,0.5517086982727051,0.0150050334632396,0.2047456949949264,0.441283643245697
1630937548342,0.5368735790252686,0.0220362599939107,0.1918183267116546,0.4384028017520904
1630937548424,0.5372058749198914,0.0400584302842617,0.1781665533781051,0.4347354769706726
1630937548596,0.5567983388900757,0.0683295950293541,0.1655239760875702,0.4314121901988983
1630937548657,0.5864310264587402,0.0999669656157493,0.1525503396987915,0.4308832287788391
1630937548779,0.5950965881347656,0.1276229172945022,0.1387325078248977,0.4340521693229675
1630937548853,0.5940778851509094,0.1477815955877304,0.125267893075943,0.4389573037624359
1630937548968,0.5968459248542786,0.1607219278812408,0.1145407259464263,0.4414834976196289
1630937549059,0.5872896313667297,0.1662086844444275,0.1084376871585846,0.4395864605903625
1630937549194,0.5672101378440857,0.1618572175502777,0.1092819646000862,0.4356777966022491
1630937549276,0.5440080761909485,0.1476465016603469,0.1194871068000793,0.4372156858444214
1630937549401,0.5255993604660034,0.1306947022676468,0.1375410854816436,0.4415836632251739
1630937549480,0.5220524072647095,0.1252328306436538,0.1355641782283783,0.4511257708072662
1630937549589,0.5338338017463684,0.1298952996730804,0.1327763646841049,0.462519884109497
1630937549735,0.5543926954269409,0.1445250213146209,0.1331859678030014,0.4731131792068481
1630937549818,0.5777676105499268,0.1624660044908523,0.1410310864448547,0.481837511062622
1630937549878,0.5987129807472229,0.1750857084989547,0.1551759839057922,0.4889535307884216
1630937550007,0.6071162223815918,0.1743652075529098,0.1680970340967178,0.4936825931072235
1630937550113,0.5931157469749451,0.1537166684865951,0.1713602691888809,0.4958933889865875
1630937550174,0.5578737258911133,0.1131874248385429,0.163422405719757,0.4966709017753601
1630937550289,0.5158049464225769,0.0625516399741172,0.152191936969757,0.4946342706680298
1630937550442,0.5158049464225769,0.017877634614706,0.153148204088211,0.4869251251220703
1630937550509,0.5158049464225769,-0.0125380512326955,0.178822636604309,0.4869251251220703
1630937550603,0.5158049464225769,-0.0125380512326955,0.178822636604309,0.4869251251220703
1630937550694,0.5158049464225769,-0.0125380512326955,0.178822636604309,0.4869251251220703
1630937550778,0.5158049464225769,-0.0125380512326955,0.178822636604309,0.4869251251220703
1630937550871,0.5158049464225769,-0.0125380512326955,0.178822636604309,0.4869251251220703
1630937551025,0.5158049464225769,-0.0125380512326955,0.178822636604309,0.4869251251220703
1630937551123,0.5158049464225769,-0.0125380512326955,0.178822636604309,0.4869251251220703
1630937551206,0.5158049464225769,-0.0125380512326955,0.178822636604309,0.4869251251220703
1630937551299,0.5158049464225769,-0.0125380512326955,0.178822636604309,0.4869251251220703
1630937551409,0.5158049464225769,0.089316502213478,0.1015218347311019,0.4869251251220703
1630937551489,0.5158049464225769,0.1094662621617317,0.0846288725733757,0.4869251251220703
1630937551652,0.5158049464225769,0.1051117479801178,0.0610520727932453,0.657623827457428
1630937551740,0.5158049464225769,0.0842562690377235,0.0367436520755291,0.607178807258606
1630937551830,0.5496075749397278,0.0552742183208465,0.0171283073723316,0.5652759671211243
1630937551915,0.5227042436599731,0.0241207238286733,0.0051403497345745,0.5342004895210266
1630937552016,0.5036910772323608,-0.00469192257151,0.0017480328679084,0.5139358043670654
1630937552119,0.4967254102230072,-0.0279116947203874,0.0050312792882323,0.5047584176063538
1630937552243,0.5018692016601562,-0.0437088198959827,0.0129011841490864,0.5058372616767883
1630937552321,0.5100570917129517,-0.0519943088293075,0.0239250045269727,0.5136373043060303
1630937552430,0.5145599842071533,-0.0543055199086666,0.0358895249664783,0.5239161252975464
1630937552522,0.5142769813537598,-0.0539567321538925,0.0446176454424858,0.5333461165428162
1630937552614,0.5118228197097778,-0.0512072034180164,0.0417138412594795,0.5404164791107178
1630937552711,0.5090016722679138,-0.0568001717329025,0.0335002355277538,0.5441275238990784
1630937552860,0.4965497851371765,-0.073125272989273,0.0241011008620262,0.5286903977394104
1630937552943,0.4828121662139892,-0.09468874335289,0.0202291794121265,0.5103632211685181
1630937553065,0.4761774837970733,-0.1102904453873634,0.025093050673604,0.5012184977531433
1630937553129,0.4892849028110504,-0.111318215727806,0.0360045619308948,0.5070167183876038
1630937553227,0.5119761824607849,-0.0987002551555633,0.0464050658047199,0.521201491355896
1630937553361,0.5388252139091492,-0.0797848030924797,0.05168267339468,0.5330062508583069
1630937553477,0.5568540692329407,-0.060648575425148,0.0525393448770046,0.5374501943588257
1630937553557,0.561797022819519,-0.0443639978766441,0.0532620511949062,0.5338364839553833
1630937553642,0.5560951232910156,-0.0329861789941787,0.0572226196527481,0.523006796836853
1630937553751,0.5421519875526428,-0.0289140343666076,0.0643059611320495,0.5049968361854553
1630937553854,0.5249297618865967,-0.0331245735287666,0.0721169635653495,0.4808931350708008
1630937553931,0.510401725769043,-0.0440401323139667,0.0788477957248687,0.4531974792480469
1630937554064,0.504068911075592,-0.0570008940994739,0.0854095071554184,0.4255350232124328
1630937554180,0.5058099031448364,-0.0688928216695785,0.0937502309679985,0.4006373584270477
1630937554263,0.5105747580528259,-0.0804765000939369,0.1043128967285156,0.3811708390712738
1630937554365,0.5148146152496338,-0.0943497568368911,0.1150300726294517,0.3661548495292663
1630937554444,0.5164123773574829,-0.1111449375748634,0.1227782666683197,0.3516609966754913
1630937554539,0.5135328769683838,-0.127916470170021,0.1259838938713073,0.3329102098941803
1630937554676,0.5008498430252075,-0.1396571993827819,0.1251900494098663,0.3048878610134125
1630937554828,0.4767034947872162,-0.1420414298772812,0.1240741685032844,0.2681666016578674
1630937554866,0.4441857039928436,-0.1595135033130645,0.133820354938507,0.2320414781570434
