timestamp,TP9,AF7,AF8,TP10
1630937420104,1.480618953704834,0.8411380648612976,0.9415143728256226,0.7621734142303467
1630937420222,1.480618953704834,0.8403531908988953,0.9905208349227904,0.7621734142303467
1630937420288,1.514648199081421,0.8288853764533997,1.0460593700408936,0.7621734142303467
1630937420384,1.5336028337478638,0.8215513825416565,1.091149091720581,0.7621734142303467
1630937420492,1.5353021621704102,0.7990978956222534,1.091149091720581,0.7621734142303467
1630937420622,1.5353021621704102,0.761167585849762,1.091149091720581,0.7621734142303467
1630937420706,1.5353021621704102,0.7139946818351746,1.091149091720581,0.7621734142303467
1630937420804,1.5353021621704102,0.6707032322883606,1.091149091720581,0.7621734142303467
1630937420923,1.5353021621704102,0.6419259309768677,1.091149091720581,0.7621734142303467
1630937420977,1.5353021621704102,0.627446174621582,1.091149091720581,0.7621734142303467
1630937421114,1.5353021621704102,0.6187425851821899,1.091149091720581,0.7621734142303467
1630937421226,1.5353021621704102,0.6024694442749023,1.091149091720581,0.7621734142303467
1630937421336,1.5353021621704102,0.5773743987083435,1.091149091720581,0.7621734142303467
1630937421412,1.5353021621704102,0.5725436210632324,1.091149091720581,0.7621734142303467
1630937421515,1.5353021621704102,0.6425473093986511,1.091149091720581,0.7621734142303467
1630937421597,1.5353021621704102,0.7717562317848206,1.091149091720581,0.7621734142303467
1630937421714,1.5353021621704102,0.8931564092636108,1.091149091720581,0.7621734142303467
1630937421828,1.5353021621704102,0.907215654850006,1.091149091720581,0.7621734142303467
1630937421929,1.5353021621704102,0.9284008741378784,1.091149091720581,0.7621734142303467
1630937422057,1.5353021621704102,0.954505741596222,1.091149091720581,0.7621734142303467
1630937422120,1.5353021621704102,0.9846448302268982,1.091149091720581,0.7621734142303467
1630937422213,1.5353021621704102,1.0200252532958984,1.091149091720581,0.7621734142303467
1630937422328,1.5353021621704102,1.0615650415420532,1.091149091720581,0.7621734142303467
1630937422448,1.5353021621704102,1.1098272800445557,1.091149091720581,0.7621734142303467
1630937422535,1.5353021621704102,1.1652451753616333,1.091149091720581,0.7621734142303467
1630937422629,1.5353021621704102,1.185876965522766,1.091149091720581,0.7621734142303467
1630937422766,1.5353021621704102,1.1923748254776,1.091149091720581,0.7621734142303467
1630937422828,1.5353021621704102,1.186388611793518,1.091149091720581,0.7621734142303467
1630937422954,1.5353021621704102,1.1544348001480105,1.091149091720581,0.7621734142303467
1630937423056,1.5353021621704102,1.060428500175476,1.091149091720581,0.7621734142303467
1630937423185,1.5353021621704102,0.8464587926864624,1.091149091720581,0.7621734142303467
1630937423257,1.5353021621704102,0.3246467411518097,1.091149091720581,0.7621734142303467
1630937423355,1.5353021621704102,0.2907607853412628,0.5388042330741882,0.7621734142303467
1630937423439,1.5353021621704102,0.2579113245010376,0.5269212126731873,0.7621734142303467
1630937423522,1.5353021621704102,0.2240563929080963,0.5272771120071411,-0.1815101653337478
1630937423655,1.5353021621704102,0.2240563929080963,0.5272771120071411,-0.1815101653337478
1630937423846,1.5353021621704102,0.2240563929080963,0.5272771120071411,-0.1815101653337478
1630937423874,1.5353021621704102,0.2240563929080963,0.5272771120071411,-0.1815101653337478
1630937423928,1.5353021621704102,0.2240563929080963,0.5272771120071411,-0.1815101653337478
1630937424015,1.5353021621704102,0.2240563929080963,0.5272771120071411,-0.1815101653337478
1630937424141,1.5353021621704102,0.0873641818761825,0.5272771120071411,-0.1815101653337478
1630937424312,1.5353021621704102,0.0137189272791147,0.5272771120071411,-0.1815101653337478
1630937424374,1.5353021621704102,-0.0163409877568483,0.5272771120071411,-0.1815101653337478
1630937424473,1.5353021621704102,-0.0415373630821704,0.5272771120071411,-0.1815101653337478
1630937424570,1.5353021621704102,-0.0824497789144516,0.4907216727733612,-0.1815101653337478
1630937424672,1.5353021621704102,-0.1306352466344833,0.4689637124538421,-0.1815101653337478
1630937424758,1.5353021621704102,-0.1306352466344833,0.4689637124538421,-0.1815101653337478
1630937424870,1.5353021621704102,-0.1306352466344833,0.4689637124538421,-0.1815101653337478
1630937424976,1.5353021621704102,-0.1306352466344833,0.4689637124538421,-0.1815101653337478
1630937425072,1.5353021621704102,-0.1306352466344833,0.4689637124538421,-0.1815101653337478
1630937425196,1.5353021621704102,-0.1306352466344833,0.4689637124538421,-0.1815101653337478
1630937425253,1.5353021621704102,-0.1306352466344833,0.4689637124538421,-0.1815101653337478
1630937425404,1.5353021621704102,-0.1306352466344833,0.4689637124538421,-0.1815101653337478
1630937425509,1.5353021621704102,-0.1306352466344833,0.4689637124538421,-0.1815101653337478
1630937425592,1.5353021621704102,-0.1306352466344833,0.4689637124538421,-0.1815101653337478
1630937425679,1.5353021621704102,-0.1306352466344833,0.4689637124538421,-0.1815101653337478
1630937425786,1.5353021621704102,-0.1306352466344833,0.4689637124538421,-0.1815101653337478
1630937425858,1.5353021621704102,-0.1306352466344833,0.4689637124538421,-0.1815101653337478
1630937425941,1.5353021621704102,-0.1306352466344833,0.4689637124538421,-0.1815101653337478
1630937426113,1.5353021621704102,-0.1306352466344833,0.4689637124538421,-0.1815101653337478
1630937426191,1.5353021621704102,-0.1306352466344833,0.4689637124538421,-0.1815101653337478
1630937426298,1.5353021621704102,-0.1306352466344833,0.4689637124538421,-0.1815101653337478
1630937426398,1.5353021621704102,-0.1306352466344833,0.4689637124538421,-0.1815101653337478
1630937426482,1.5353021621704102,-0.1306352466344833,0.4689637124538421,-0.1815101653337478
1630937426589,1.5353021621704102,0.1520775258541107,0.4689637124538421,-0.1815101653337478
1630937426727,0.9334210157394408,0.1086145490407943,0.411918044090271,-0.1815101653337478
1630937426821,0.889630913734436,0.0658225566148758,0.3556241393089294,-0.1815101653337478
1630937426898,0.8475666046142578,0.0312984362244606,0.3084347248077392,-0.1815101653337478
1630937426975,0.8091940879821777,0.0074559301137924,0.2722268104553222,-0.1815101653337478
1630937427083,0.7805538773536682,0.0021819106768816,0.2457289546728134,-0.1815101653337478
1630937427189,0.7761228680610657,0.0359891019761562,0.2258749902248382,-0.1815101653337478
1630937427325,0.7973969578742981,0.1068762987852096,0.2082289010286331,-0.1815101653337478
1630937427440,0.7973969578742981,0.1794994473457336,0.1874844580888748,-0.1815101653337478
1630937427532,0.7973969578742981,0.2269210815429687,0.1793956905603408,-0.1815101653337478
1630937427599,0.7973969578742981,0.2673499882221222,0.1793956905603408,-0.1815101653337478
1630937427714,0.7973969578742981,0.3513409793376922,0.1793956905603408,-0.1815101653337478
1630937427771,0.7973969578742981,0.3610319495201111,0.1793956905603408,-0.1815101653337478
1630937427938,0.7760447263717651,0.3710890114307403,0.1417968571186065,-0.1815101653337478
1630937428040,0.7372759580612183,0.3848879635334015,0.079475961625576,-0.1815101653337478
1630937428163,0.6970758438110352,0.4058804512023926,0.0206023287028074,-0.1815101653337478
1630937428198,0.6752270460128784,0.4355885088443756,-0.0104174073785543,-0.1815101653337478
1630937428335,0.6801413893699646,0.4723136723041534,-0.0127185648307204,-0.1815101653337478
1630937428405,0.7092546224594116,0.514573872089386,-0.0050141401588916,-0.1815101653337478
1630937428538,0.7092546224594116,0.562227189540863,0.0031040040776133,-0.1815101653337478
1630937428633,0.7092546224594116,0.6134777665138245,0.0054449765011668,-0.1815101653337478
1630937428740,0.7092546224594116,0.6593586206436157,0.0054449765011668,-0.1815101653337478
1630937428824,0.7092546224594116,0.6905389428138733,0.0054449765011668,-0.1815101653337478
1630937428894,0.7092546224594116,0.6905389428138733,0.0054449765011668,-0.1815101653337478
1630937429006,0.7092546224594116,0.6905389428138733,0.0054449765011668,-0.1815101653337478
1630937429146,0.7092546224594116,0.6905389428138733,0.0054449765011668,-0.1815101653337478
1630937429228,0.7092546224594116,0.6905389428138733,0.0054449765011668,-0.1815101653337478
1630937429340,0.7092546224594116,0.6905389428138733,0.0054449765011668,-0.1815101653337478
1630937429431,0.7092546224594116,0.6905389428138733,0.0054449765011668,-0.1815101653337478
1630937429518,0.7092546224594116,0.6905389428138733,0.0054449765011668,-0.1815101653337478
1630937429622,0.7092546224594116,0.6905389428138733,0.0054449765011668,-0.1815101653337478
1630937429771,0.7092546224594116,0.6905389428138733,0.0054449765011668,-0.1815101653337478
1630937429878,0.7092546224594116,0.6905389428138733,0.0054449765011668,-0.1815101653337478
1630937429969,0.7092546224594116,0.6905389428138733,0.0054449765011668,-0.1815101653337478
1630937430065,0.7092546224594116,0.6905389428138733,0.0054449765011668,-0.1815101653337478
1630937430138,0.7092546224594116,0.6905389428138733,0.0054449765011668,-0.1815101653337478
1630937430232,0.7092546224594116,0.6905389428138733,0.0054449765011668,-0.1815101653337478
1630937430376,0.7092546224594116,0.6905389428138733,0.0054449765011668,-0.1815101653337478
1630937430485,0.7092546224594116,-0.4823425710201263,0.0054449765011668,-0.1815101653337478
1630937430572,0.7092546224594116,-0.3993080258369446,-0.7281864285469055,-0.1815101653337478
1630937430663,0.7092546224594116,-0.3370274305343628,-0.6561911106109619,-0.1815101653337478
1630937430751,0.7092546224594116,-0.2961809933185577,-0.532058835029602,0.2372231483459472
1630937430842,0.7092546224594116,-0.2394360452890396,-0.2754208445549011,0.2372231483459472
1630937430979,0.7092546224594116,-0.2394360452890396,-0.2754208445549011,0.2372231483459472
1630937431123,0.7092546224594116,-0.2394360452890396,-0.2754208445549011,0.2372231483459472
1630937431186,0.7092546224594116,-0.2394360452890396,-0.2754208445549011,0.2372231483459472
1630937431267,0.7092546224594116,-0.2394360452890396,-0.2754208445549011,0.2372231483459472
1630937431380,0.7092546224594116,-0.2394360452890396,-0.2754208445549011,0.2372231483459472
1630937431460,0.7092546224594116,-0.2394360452890396,-0.2754208445549011,0.2372231483459472
1630937431577,0.7092546224594116,-0.2394360452890396,-0.2754208445549011,0.2372231483459472
1630937431682,0.7092546224594116,-0.2018367946147918,-0.2754208445549011,0.2372231483459472
1630937431776,0.7092546224594116,-0.1588674485683441,-0.2335359305143356,0.2372231483459472
1630937431856,0.7092546224594116,-0.1184678673744201,-0.1765349954366684,0.2372231483459472
1630937431969,0.7092546224594116,-0.0845867097377777,-0.1009896919131279,0.2372231483459472
1630937432047,0.7092546224594116,-0.0845867097377777,-0.1009896919131279,0.2372231483459472
1630937432223,0.7092546224594116,-0.0845867097377777,-0.1009896919131279,0.2372231483459472
1630937432287,0.7092546224594116,-0.0845867097377777,-0.1009896919131279,0.2372231483459472
1630937432380,0.7092546224594116,-0.0845867097377777,-0.1009896919131279,0.2372231483459472
1630937432477,0.7092546224594116,-0.0845867097377777,-0.1009896919131279,0.2372231483459472
1630937432563,0.7092546224594116,-0.0845867097377777,-0.1009896919131279,0.2372231483459472
1630937432690,0.7092546224594116,-0.0845867097377777,-0.1009896919131279,0.2372231483459472
1630937432841,0.7092546224594116,-0.0845867097377777,-0.1009896919131279,0.2372231483459472
1630937432904,0.7092546224594116,-0.0845867097377777,-0.1009896919131279,0.2372231483459472
1630937432994,0.7092546224594116,-0.0845867097377777,-0.1009896919131279,0.2372231483459472
1630937433073,0.7092546224594116,-0.0845867097377777,-0.1009896919131279,0.2372231483459472
1630937433175,0.7092546224594116,-0.0845867097377777,-0.1009896919131279,0.2372231483459472
1630937433289,0.7092546224594116,-0.0845867097377777,-0.1009896919131279,0.2372231483459472
1630937433405,0.7092546224594116,-0.0845867097377777,-0.1009896919131279,0.2372231483459472
1630937433499,0.7092546224594116,-0.0845867097377777,-0.1009896919131279,0.2372231483459472
1630937433605,0.7092546224594116,-0.0845867097377777,-0.1009896919131279,0.2372231483459472
1630937433703,0.7092546224594116,-0.0845867097377777,-0.1009896919131279,0.2372231483459472
1630937433783,0.7092546224594116,-0.0845867097377777,-0.1009896919131279,0.2372231483459472
1630937433868,0.7092546224594116,-0.0845867097377777,-0.1009896919131279,0.2372231483459472
1630937434054,0.7092546224594116,-0.0845867097377777,-0.1009896919131279,0.2372231483459472
1630937434119,0.7092546224594116,-0.0845867097377777,-0.1009896919131279,0.2372231483459472
1630937434207,0.7092546224594116,-0.0845867097377777,-0.1009896919131279,0.2372231483459472
1630937434294,0.7092546224594116,-0.0845867097377777,-0.1009896919131279,0.2372231483459472
1630937434413,0.7092546224594116,-0.0845867097377777,-0.1009896919131279,0.2372231483459472
1630937434477,0.7092546224594116,0.2195331752300262,0.3695831596851349,0.2372231483459472
1630937434633,0.7092546224594116,0.1392407268285751,0.384080708026886,0.2372231483459472
1630937434756,0.7092546224594116,0.0855619013309478,0.4278838634490967,0.2372231483459472
1630937434851,0.9706602692604064,-0.0287994854152202,0.4716334342956543,0.2372231483459472
1630937434922,0.9320498108863832,-0.4586358666419983,0.4943151175975799,0.2372231483459472
1630937435020,0.8853877782821655,-0.388186365365982,0.4923577010631561,0.2372231483459472
1630937435152,0.8564351201057434,-0.3210429847240448,0.4800902307033539,0.2372231483459472
1630937435258,0.865191638469696,-0.2228171676397323,0.4813361167907715,0.2372231483459472
1630937435323,0.9088040590286256,-0.0646521374583244,0.509539783000946,0.2372231483459472
1630937435434,0.9588463306427002,0.1214538067579269,0.555529773235321,0.2372231483459472
1630937435532,0.9588463306427002,0.2784419357776642,0.598024308681488,0.2372231483459472
1630937435621,0.9588463306427002,0.3814162015914917,0.6219770312309265,0.2372231483459472
1630937435702,0.9588463306427002,0.4328189790248871,0.628247857093811,0.2372231483459472
1630937435891,0.9588463306427002,0.4482099413871765,0.6269278526306152,0.672408938407898
1630937435954,0.9597914814949036,0.4458880424499511,0.6411097049713135,0.6962849497795105
1630937436035,0.9720548391342164,0.4635064303874969,0.6708243489265442,0.7471181154251099
1630937436136,0.9953594207763672,0.4769005477428436,0.7005817890167236,0.7471181154251099
1630937436244,1.0209643840789795,0.4864151179790497,0.7165378332138062,0.7471181154251099
1630937436312,1.0635831356048584,0.4935654997825622,0.717302143573761,0.7471181154251099
1630937436469,1.131547451019287,0.5003442764282227,0.7113412618637085,0.9272228479385376
1630937436574,1.20102858543396,0.5058487057685852,0.706747829914093,1.098456859588623
1630937436671,1.2453755140304563,0.5064268708229065,0.7037371397018433,1.1488724946975708
1630937436774,1.2676011323928833,0.4983571469783783,0.6978906393051147,1.1488724946975708
1630937436871,1.278451919555664,0.473956435918808,0.6847460865974426,1.1488724946975708
1630937436940,1.2812484502792358,0.4217626452445984,0.6629558205604553,1.1488724946975708
1630937437072,1.2812484502792358,0.3354520797729492,0.6341935396194458,1.1488724946975708
1630937437155,1.2812484502792358,0.2242329120635986,0.6046167016029358,1.1772429943084717
1630937437255,1.2368113994598389,0.1196656227111816,0.5793280601501465,1.2209458351135254
1630937437341,1.2023452520370483,0.0605257228016853,0.5567377209663391,1.2199382781982422
1630937437463,1.1949074268341064,0.0516621954739093,0.5260637402534485,1.227226495742798
1630937437545,1.1835801601409912,0.0621072500944137,0.4808008372783661,1.2348769903182983
1630937437722,1.1664447784423828,0.0692959129810333,0.4289028346538543,1.2100872993469238
1630937437795,1.1391220092773438,0.0650397688150405,0.3887217938899994,1.1807857751846311
1630937437895,1.0866637229919434,0.0503053329885005,0.3672599196434021,1.1443626880645752
1630937437965,0.9911442995071412,0.0276327189058065,0.3543240129947662,1.053046941757202
1630937438053,0.8589977025985718,0.0099666286259889,0.3426258563995361,0.9101698994636536
1630937438162,0.7496224641799927,0.0255401972681283,0.3363134264945984,0.7530032396316528
1630937438289,0.7869706153869629,0.0808526575565338,0.3340151011943817,0.7435368299484253
1630937438388,0.8254295587539673,0.1510495394468307,0.3265232741832733,0.7418193817138672
1630937438478,0.8454645872116089,0.2065107822418213,0.3035395741462707,0.7348822951316833
1630937438627,0.8432378768920898,0.2358048856258392,0.2695784866809845,0.7173908352851868
1630937438674,0.8261712789535522,0.2421648353338241,0.2385398894548416,0.6923700571060181
1630937438766,0.8218101263046265,0.2328833937644958,0.2174282371997833,0.6651988625526428
1630937438903,0.8081585764884949,0.2087588012218475,0.2006136178970337,0.639505922794342
1630937438996,0.7827422618865967,0.1704619526863098,0.1797097623348236,0.5874281525611877
1630937439126,0.7445934414863586,0.126906618475914,0.1493070423603058,0.5052115321159363
1630937439190,0.7028247117996216,0.093535341322422,0.1058420240879058,0.4070769846439361
1630937439259,0.6711668372154236,0.0782297253608703,0.0502782352268695,0.3251939713954925
1630937439352,0.6568085551261902,0.0732967779040336,-0.0043381922878324,0.2842949032783508
1630937439490,0.6515766382217407,0.068971998989582,-0.0381395407021045,0.2745066583156585
1630937439601,0.6435631513595581,0.0616961941123008,-0.0406108759343624,0.2710930109024048
1630937439717,0.620347261428833,0.0464591309428215,-0.0252358894795179,0.2585959732532501
1630937439783,0.5780264139175415,0.0133961252868175,-0.0075211785733699,0.2316323071718216
1630937439894,0.528189480304718,-0.0441010631620883,0.0080737490206956,0.1969185918569564
1630937439977,0.4872153103351593,-0.1116835549473762,0.0412345007061958,0.1679457128047943
1630937440111,0.4663634300231933,-0.1498094201087951,0.1058256924152374,0.1545231491327285
1630937440211,0.4612200558185577,-0.1239850372076034,0.1915196180343628,0.1542663127183914
1630937440336,0.4622434377670288,-0.0542689114809036,0.2747146785259247,0.1603123396635055
1630937440432,0.4658185541629791,0.0156367216259241,0.3397340178489685,0.1662703305482864
1630937440505,0.4697443842887878,0.0605075992643833,0.3830204904079437,0.173575758934021
1630937440593,0.471019834280014,0.0781303644180297,0.4102781116962433,0.1852950751781463
1630937440742,0.4668161273002624,0.0786876305937767,0.4322271943092346,0.2029371559619903
1630937440818,0.4580590724945068,0.0739796981215477,0.4571165144443512,0.2267677187919616
1630937440918,0.4465960264205932,0.0719214305281639,0.4855889081954956,0.2605748176574707
1630937441052,0.4351295828819275,0.0736788585782051,0.5159224271774292,0.3075537383556366
1630937441106,0.4209065735340118,0.072718359529972,0.5439440608024597,0.3591205775737762
1630937441219,0.390123575925827,0.0602293908596038,0.5652331113815308,0.3959295749664306
1630937441338,0.3301161825656891,0.0364588759839534,0.5759296417236328,0.4078375697135925
1630937441436,0.2374574989080429,0.0206503961235284,0.5753300189971924,0.3981617391109466
1630937441533,0.1417774558067321,0.033723160624504,0.5639790892601013,0.3810872137546539
1630937441640,0.0961623191833496,0.0679612979292869,0.5419431328773499,0.3702154159545898
1630937441705,0.1168966218829155,0.0917949602007865,0.5085440874099731,0.3695329129695892
1630937441804,0.1592257171869278,0.084974430501461,0.4664234519004822,0.3745656907558441
1630937441953,0.1838694959878921,0.053363848477602,0.4233115017414093,0.3816783726215362
1630937442026,0.1885383278131485,0.0191020090132951,0.3887351751327514,0.3875402212142944
1630937442114,0.1905685663223266,-7.017622556304559e-05,0.3659667372703552,0.3875226378440857
1630937442230,0.2025409340858459,-0.0025998712517321,0.3502210080623626,0.3783182203769684
1630937442336,0.222429946064949,0.0137554164975881,0.3394475877285003,0.3592017292976379
1630937442404,0.2465374320745468,0.0580282658338546,0.339402824640274,0.3321363925933838
1630937442563,0.2672073543071747,0.1241978779435157,0.3479200303554535,0.2985740303993225
1630937442712,0.2824089527130127,0.1883463710546493,0.3537680208683014,0.261612594127655
1630937442757,0.2956359684467315,0.2309842407703399,0.3485399484634399,0.2274505496025085
1630937442854,0.3139339685440063,0.2473025918006897,0.335509181022644,0.2027054131031036
1630937442938,0.3405998945236206,0.2406214773654937,0.3245511651039123,0.1888643354177475
1630937443028,0.3688703179359436,0.2142958641052246,0.320599764585495,0.1839640289545059
1630937443164,0.381515234708786,0.1709122359752655,0.322855681180954,0.1851767897605896
1630937443252,0.3728418350219726,0.1200433447957038,0.3287444412708282,0.188844084739685
1630937443394,0.3506429195404053,0.0775156766176223,0.3354171514511108,0.1906564086675644
1630937443454,0.3308216333389282,0.0530816912651062,0.3420178294181824,0.1874713748693466
1630937443523,0.3168273866176605,0.0431252978742122,0.3500400483608246,0.1810328066349029
1630937443631,0.302347868680954,0.0391450449824333,0.361505389213562,0.1778504252433776
1630937443807,0.2817803025245666,0.0340261273086071,0.3737740218639374,0.1832517683506012
1630937443879,0.2570493221282959,0.014920943416655,0.3773396611213684,0.1938446164131164
1630937443979,0.2282345741987228,-0.0391752831637859,0.3606995940208435,0.1997729241847992
1630937444058,0.2018737941980362,-0.1465238481760025,0.319484680891037,0.1928630471229553
1630937444148,0.184915155172348,-0.3008202612400055,0.2629820108413696,0.1773564666509628
1630937444246,0.186775803565979,-0.4344899356365204,0.2111329883337021,0.1716999113559723
1630937444395,0.2106779664754867,-0.4437356889247894,0.1807131469249725,0.1936843395233154
1630937444486,0.2395957857370376,-0.3551802337169647,0.1720691323280334,0.2336567044258117
1630937444611,0.2571675479412079,-0.2589544653892517,0.1757710427045822,0.2675521075725555
1630937444664,0.268549233675003,-0.1710381507873535,0.1868030130863189,0.2792456150054931
1630937444748,0.2902275323867798,-0.081997737288475,0.208589881658554,0.2918890118598938
1630937444844,0.3264736831188202,0.0032924271654337,0.2398676425218582,0.3162448406219482
1630937444996,0.3654275238513946,0.0700832903385162,0.2745653986930847,0.3519017696380615
1630937445090,0.395416110754013,0.1132634803652763,0.2863237559795379,0.3834435045719147
1630937445179,0.4131665527820587,0.1386786252260208,0.2931628227233886,0.4016495048999786
1630937445288,0.4230252504348755,0.1556603908538818,0.2921037077903747,0.4058617055416107
1630937445355,0.4288346171379089,0.1687839925289154,0.2863770127296448,0.4024132192134857
1630937445448,0.4321591556072235,0.1776729226112365,0.2839999198913574,0.3955767154693603
1630937445602,0.4356297552585602,0.1818474531173706,0.2929239571094513,0.386859267950058
1630937445693,0.4367419779300689,0.1801892668008804,0.3149622082710266,0.3736830651760101
1630937445808,0.4299234449863434,0.1684997528791427,0.3446643948554992,0.350351870059967
1630937445865,0.4101403355598449,0.1441024392843246,0.3754266500473022,0.3110387325286865
1630937445982,0.3818599283695221,0.1101340800523758,0.4069074988365173,0.259915828704834
1630937446073,0.3520328998565674,0.0721817091107368,0.4427554607391357,0.2114948481321334
1630937446229,0.3226637542247772,0.0268209222704172,0.4427554607391357,0.1897900998592376
1630937446295,0.2848103046417236,-0.0374312326312065,0.4427554607391357,0.1797872334718704
1630937446384,0.236038401722908,-0.1277887970209121,0.4427554607391357,0.1496225893497467
1630937446478,0.1905847489833831,-0.2253431528806686,0.4427554607391357,0.0919113755226135
1630937446583,0.1885137557983398,-0.2939977347850799,0.4427554607391357,0.0232992805540561
1630937446723,0.232499361038208,-0.2980632185935974,0.4427554607391357,0.1466627866029739
1630937446811,0.2955392897129059,-0.3294142186641693,0.4427554607391357,0.2722082734107971
1630937446946,0.3558154106140136,-0.3532858788967132,0.4427554607391357,0.3498519361019134
1630937447011,0.4182920157909393,-0.3637464046478271,0.4427554607391357,0.3898919224739074
1630937447097,0.4885047376155853,-0.3573370277881622,0.4427554607391357,0.4216006994247436
1630937447199,0.5612379312515259,-0.3383162915706634,0.4427554607391357,0.4612450003623962
1630937447306,0.6238777041435242,0.2336348444223404,0.4427554607391357,0.5085424780845642
1630937447464,0.6721365451812744,0.4517330229282379,0.4427554607391357,0.5572267174720764
1630937447524,0.7068012952804565,0.5599147081375122,0.4427554607391357,0.6062749624252319
1630937447620,0.7336676716804504,0.618930995464325,0.4427554607391357,0.6560682058334351
1630937447706,0.7552266120910645,0.6598735451698303,0.4427554607391357,0.7054877281188965
1630937447818,0.7719118595123291,0.6926754713058472,1.1361349821090698,0.7143089771270752
1630937447892,0.7832546830177307,0.7208918929100037,1.0901283025741575,0.7150010466575623
1630937448036,0.7653414607048035,0.7436565160751343,1.048218846321106,0.7043145895004272
1630937448133,0.7579623460769653,0.7591209411621094,1.0157713890075684,0.6848046183586121
1630937448219,0.7427364587783813,0.765798807144165,0.98886638879776,0.6521191000938416
1630937448307,0.7230503559112549,0.7381210327148438,0.9624322056770324,0.6122506856918335
1630937448411,0.7031383514404297,0.7128329873085022,0.9361540675163268,0.5808461904525757
1630937448488,0.6794951558113098,0.6889378428459167,0.9097830653190612,0.5613329410552979
1630937448671,0.6461256146430969,0.6641095876693726,0.8820641040802002,0.5437493324279785
1630937448758,0.6013293862342834,0.6385349631309509,0.8533824682235718,0.5202867388725281
1630937448860,0.5543233752250671,0.5494765639305115,0.8264082074165344,0.4910804331302643
1630937448940,0.5078305006027222,0.4534688293933868,0.8028523921966553,0.4583621919155121
1630937449078,0.4606945216655731,0.3716404139995575,0.742097020149231,0.4283203482627868
1630937449148,0.4194750189781189,0.3095508217811584,0.6592646241188049,0.3843851685523987
1630937449254,0.3787893652915954,0.2542937695980072,0.5653761029243469,0.3197793066501617
1630937449359,0.345024824142456,0.1993474513292312,0.4841426014900207,0.2312248349189758
1630937449451,0.3234197795391083,0.1435396820306778,0.42566779255867,0.1286026984453201
1630937449539,0.3126417100429535,0.1079648062586784,0.3798151910305023,0.0467853248119354
1630937449636,0.3529216945171356,0.1443893760442733,0.3432260155677795,0.0158455837517976
1630937449717,0.4340758323669433,0.2616969048976898,0.3292506635189056,0.0234676524996757
1630937449870,0.5200562477111816,0.3942320346832275,0.3433960974216461,0.0360600985586643
1630937449959,0.5816627144813538,0.4912703335285187,0.3656989932060241,0.2281385511159896
1630937450075,0.6135897636413574,0.543326735496521,0.3801526725292206,0.3650449812412262
1630937450149,0.6221402883529663,0.5637564659118652,0.3863295316696167,0.4537086188793182
1630937450234,0.6187198758125305,0.5691725015640259,0.3901745080947876,0.5039739608764648
1630937450368,0.6083018183708191,0.567990779876709,0.3907810747623443,0.519199013710022
1630937450503,0.6210330128669739,0.5631530284881592,0.3861038088798523,0.5074561834335327
1630937450564,0.6420668363571167,0.5578315258026123,0.3798806667327881,0.4598913788795471
1630937450657,0.6420668363571167,0.5548775792121887,0.3770365118980407,0.419445127248764
1630937450753,0.6179248094558716,0.5546188950538635,0.3788395524024963,0.3888486623764038
1630937450870,0.6009186506271362,0.5555057525634766,0.3830263912677765,0.3650355041027069
1630937450944,0.5879923701286316,0.5558491349220276,0.3868924975395202,0.3428418636322021
1630937451080,0.5918248891830444,0.5488558411598206,0.3860911428928375,0.3193058371543884
1630937451201,0.5697304606437683,0.5175410509109497,0.3706194162368774,0.2932679057121277
1630937451298,0.5099660754203796,0.4397448003292084,0.3285951316356659,0.2662239074707031
1630937451369,0.4196497499942779,0.3017977774143219,0.2594895362854004,0.242019385099411
1630937451508,0.3207800388336181,0.113653726875782,0.1852701306343078,0.1719895005226135
1630937451572,0.2476135343313217,-0.067439965903759,0.1428092718124389,0.1047595664858818
1630937451707,0.218599185347557,-0.1605851203203201,0.1472474187612533,0.0637942999601364
1630937451866,0.2238847315311432,-0.1705136001110077,0.1723977625370025,0.0510687530040741
1630937451920,0.2419076263904571,-0.1531623899936676,0.1909247636795044,0.0565531067550182
1630937451987,0.2599272429943084,-0.1292873173952102,0.1962756961584091,0.0733904689550399
1630937452066,0.2723667025566101,-0.1022797897458076,0.1912468373775482,0.0926052778959274
1630937452163,0.2848812937736511,-0.077313058078289,0.1779894530773162,0.1061873063445091
1630937452337,0.2969997525215149,-0.0622141659259796,0.1592506021261215,0.1058201342821121
1630937452399,0.2997376918792724,-0.0585892125964164,0.1380541920661926,0.0974850878119468
1630937452492,0.2905696928501129,-0.0617945082485675,0.116380363702774,0.0988253206014633
1630937452580,0.2773138880729675,-0.0637858361005783,0.0944777950644493,0.1187586262822151
1630937452664,0.2706711292266845,-0.0597201064229011,0.0752190947532653,0.1495213806629181
1630937452783,0.2782446146011352,-0.0519326515495777,0.0616300888359546,0.1784502416849136
1630937452915,0.2953955829143524,-0.0457985438406467,0.0495164170861244,0.1999636143445968
1630937453006,0.3175306916236877,-0.0490390844643116,0.0253598503768444,0.2122353911399841
1630937453121,0.3337298333644867,-0.066546231508255,-0.0264067500829696,0.2119059711694717
1630937453181,0.3376494348049164,-0.0949371010065078,-0.110240414738655,0.2017325013875961
1630937453272,0.329588234424591,-0.1204249188303947,-0.205484852194786,0.1893318891525268
1630937453366,0.3177845478057861,-0.1296526193618774,-0.2661283612251282,0.1843880116939544
1630937453514,0.3138104677200317,-0.1241530030965805,-0.2661564350128174,0.193503737449646
1630937453610,0.3216578960418701,-0.1194807365536689,-0.2304592132568359,0.2208765745162964
1630937453706,0.3353964686393738,-0.1266784071922302,-0.1901253163814544,0.2644921541213989
1630937453824,0.3465546667575836,-0.1423571556806564,-0.1591442227363586,0.3113046586513519
1630937453909,0.3558646738529205,-0.1556625962257385,-0.1391917169094085,0.3447073996067047
1630937453997,0.3685972094535827,-0.1560721695423126,-0.1289163380861282,0.3570084273815155
1630937454131,0.3881153464317322,-0.1422301083803177,-0.1234437152743339,0.3536897003650665
1630937454214,0.4066873490810394,-0.1218213811516761,-0.1138329952955246,0.3454793691635132
1630937454324,0.4155263304710388,-0.1018414944410324,-0.0918494462966919,0.3390118777751922
1630937454440,0.4132006168365478,-0.0860870853066444,-0.0583221055567264,0.3375387191772461
1630937454495,0.4106462299823761,-0.0707798674702644,-0.0203566290438175,0.3455494046211242
1630937454667,0.4173023998737335,-0.0513023473322391,0.0131874782964587,0.3618002235889435
1630937454730,0.4346387982368469,-0.0271548219025135,0.0360635444521904,0.377295583486557
1630937454833,0.4503376185894012,-0.004515288863331,0.0444470196962356,0.384124219417572
1630937454928,0.4547231495380401,0.0097328424453735,0.0363115482032299,0.3802415430545807
1630937455022,0.4421302378177643,0.0142631959170103,0.0137738389894366,0.3647466003894806
1630937455117,0.4158001244068146,0.0142155950888991,-0.0171462520956993,0.3354126214981079
1630937455225,0.3818478882312774,0.0149057945236563,-0.049517922103405,0.2924862802028656
1630937455354,0.3514955639839172,0.0171369761228561,-0.0766457617282867,0.2463006675243377
1630937455445,0.3295039534568786,0.0173545833677053,-0.0943013951182365,0.2147884517908096
1630937455541,0.3117586970329284,0.0094600636512041,-0.1045219525694847,0.2046606540679931
1630937455675,0.2908088266849518,-0.008810899220407,-0.1151866987347602,0.2042237669229507
1630937455732,0.2718944251537323,-0.0311888456344604,-0.1361107230186462,0.2060006409883499
1630937455844,0.2644118070602417,-0.0475989058613777,-0.1762655526399612,0.2134588658809662
1630937455963,0.2633839547634125,-0.0539361126720905,-0.2365145534276962,0.2218779623508453
1630937456046,0.2490516006946563,-0.0580595843493938,-0.3132484853267669,0.2139872461557388
1630937456144,0.2171536386013031,-0.0691251307725906,-0.3910480439662933,0.1827528923749923
1630937456224,0.1843533813953399,-0.0833514407277107,-0.4492624700069427,0.1437695026397705
1630937456377,0.1880355477333068,-0.0914858877658844,-0.4773508608341217,0.1224771440029144
1630937456449,0.2366935908794403,-0.0917619913816452,-0.4692399501800537,0.1264311075210571
1630937456570,0.3142984807491302,-0.0891629457473754,-0.4209438264369964,0.1419586092233657
1630937456648,0.3930184245109558,-0.0867715999484062,-0.337739497423172,0.1550611704587936
1630937456745,0.456303596496582,-0.0830535590648651,-0.246643453836441,0.160879835486412
1630937456846,0.496320366859436,-0.0781587809324264,-0.1798986047506332,0.1583236753940582
1630937456942,0.5133683681488037,-0.075675368309021,-0.1487823724746704,0.1466601192951202
1630937457032,0.5153000950813293,-0.0778082683682441,-0.1439900547266006,0.128332570195198
1630937457189,0.51234370470047,-0.0854602977633476,-0.1475907862186432,0.1087230816483497
1630937457294,0.507952868938446,-0.1008010283112526,-0.1483148336410522,0.0872661620378494
1630937457377,0.5030825138092041,-0.1197723075747489,-0.1426012217998504,0.0583181492984294
1630937457453,0.501114010810852,-0.1312697380781173,-0.1315924227237701,0.0258586537092924
1630937457540,0.5044556856155396,-0.127343088388443,-0.116648256778717,0.0061359982937574
1630937457655,0.5086615681648254,-0.1119774281978607,-0.1045052334666252,0.0065916120074689
1630937457795,0.5041892528533936,-0.1021615043282508,-0.1019806787371635,0.0091951629146933
1630937457881,0.4808239340782165,-0.1082058697938919,-0.1110660582780838,-0.0059190215542912
1630937458006,0.4371802508831024,-0.1268057376146316,-0.1311805695295334,-0.0400121659040451
1630937458061,0.3728342652320862,-0.1510944366455078,-0.166838452219963,-0.0809165462851524
1630937458158,0.2946479022502899,-0.1799582093954086,-0.2260144203901291,-0.1164032518863678
1630937458239,0.2246019542217254,-0.2107771784067154,-0.300406664609909,-0.1391022801399231
1630937458421,0.195123866200447,-0.2328430265188217,-0.3547685444355011,-0.1441536694765091
1630937458506,0.2182575762271881,-0.2359801679849624,-0.3616799116134643,-0.1335964798927307
1630937458595,0.2663516104221344,-0.2266431897878646,-0.3383791446685791,-0.1165580824017524
1630937458690,0.3091046214103699,-0.2192406803369522,-0.3171315193176269,-0.1006909236311912
1630937458771,0.3349706530570984,-0.2192943841218948,-0.3055410385131836,-0.0878233835101127
1630937458864,0.3442087471485138,-0.2278083264827728,-0.2983758151531219,-0.0736210420727729
1630937459044,0.3409617841243744,-0.2481191754341125,-0.2946526408195495,-0.0582005977630615
1630937459085,0.3299240171909332,-0.2829758524894714,-0.2951796054840088,-0.0463777668774127
1630937459196,0.3163877427577972,-0.3301571905612945,-0.28950035572052,-0.0384887903928756
1630937459305,0.306588739156723,-0.3795315027236938,-0.2547949254512787,-0.0260212887078523
1630937459379,0.3085216879844665,-0.4169879257678985,-0.1817718148231506,-0.0010523610981181
1630937459472,0.3278777301311493,-0.4115217328071594,-0.0851527526974678,0.0330162607133388
1630937459611,0.3617352545261383,-0.3290416896343231,0.009804350323975,0.0718749091029167
1630937459690,0.3970304727554321,-0.1839137524366378,0.0888693258166313,0.1138297393918037
1630937459777,0.4129193127155304,-0.0392093062400817,0.1465295255184173,0.1587429791688919
1630937459891,0.4001437127590179,0.0643282458186149,0.1814766079187393,0.197828933596611
1630937460006,0.3580862283706665,0.1194504424929618,0.1975488066673278,0.2236712872982025
1630937460097,0.3017225265502929,0.1400167346000671,0.201628565788269,0.2368527203798294
1630937460241,0.2474442273378372,0.1452313065528869,0.2006852030754089,0.2429671138525009
1630937460321,0.2103643119335174,0.1489386856555938,0.1985944658517837,0.2466786652803421
1630937460408,0.192682147026062,0.1550872474908828,0.1952239573001861,0.2487989664077758
1630937460493,0.1890504509210586,0.162247821688652,0.1913158893585205,0.2495452165603637
1630937460590,0.1914395242929458,0.1684210151433944,0.1874160170555114,0.2501983642578125
1630937460693,0.193423181772232,0.1724369674921035,0.1805265843868255,0.2509072422981262
1630937460860,0.1895512342453003,0.1743097752332687,0.1631867587566375,0.24933622777462
1630937460918,0.1749312579631805,0.1734183579683303,0.1279091536998748,0.2411765605211258
1630937461012,0.1391818225383758,0.1629813909530639,0.0682775676250457,0.2240099459886551
1630937461102,0.0749724134802818,0.1295841038227081,-0.0179104637354612,0.1998596042394638
1630937461198,-0.0143088791519403,0.0570294857025146,-0.1291012316942215,0.1738886088132858
1630937461279,-0.0955637544393539,-0.0632613524794578,-0.2537522315979004,0.1499300450086593
1630937461445,-0.1321140229701995,-0.2171012610197067,-0.3486555814743042,0.1333350539207458
1630937461555,-0.1136908456683158,-0.3427075445652008,-0.3588124811649322,0.1281195878982544
1630937461622,-0.080661803483963,-0.3599385023117065,-0.2883990406990051,0.1345604509115219
1630937461744,-0.0583268739283084,-0.283833771944046,-0.1982238441705703,0.1525867581367492
1630937461844,-0.0504149347543716,-0.194240465760231,-0.1294153928756714,0.1793834865093231
1630937461927,-0.054617878049612,-0.1343673467636108,-0.0881904885172844,0.2037532478570938
1630937462062,-0.0684229135513305,-0.1095961108803749,-0.0676361918449401,0.2164876610040664
1630937462158,-0.0806193575263023,-0.1087751239538192,-0.0568704083561897,0.2173294872045517
1630937462245,-0.0759190544486045,-0.1147065833210945,-0.0474405474960804,0.2127666175365448
1630937462358,-0.041034210473299,-0.1127009242773056,-0.0367530100047588,0.2140494138002395
1630937462416,0.0256883855909109,-0.0937997326254844,-0.0260526947677135,0.2318639010190963
1630937462557,0.1139871403574943,-0.0574748441576957,-0.0146730551496148,0.2665619254112243
1630937462664,0.192231148481369,-0.0132886208593845,-0.0004378303419798,0.3038616180419922
1630937462754,0.2453912645578384,0.0265412088483572,0.0136714437976479,0.3269335031509399
1630937462890,0.2696102261543274,0.0562661252915859,0.0198377780616283,0.3274909853935241
1630937462936,0.2755006551742553,0.0775549411773681,0.0081922207027673,0.3111105561256408
1630937463057,0.2789826095104217,0.0915988087654113,-0.02625622600317,0.2925049960613251
1630937463133,0.297367125749588,0.0948706790804863,-0.0796905010938644,0.283418744802475
1630937463271,0.3325537145137787,0.0853487104177475,-0.1388664543628692,0.2817879915237427
1630937463387,0.3753128945827484,0.0678763017058372,-0.1841847598552703,0.2782236933708191
1630937463471,0.4125906229019165,0.0518186204135417,-0.2038605064153671,0.2713934481143951
1630937463564,0.437555193901062,0.0429963432252407,-0.2038299888372421,0.2663659751415252
1630937463646,0.4501786530017853,0.0433199554681777,-0.2008727788925171,0.2659719586372375
1630937463774,0.4582496285438537,0.0536779873073101,-0.2067567855119705,0.2679885625839233
1630937463880,0.4622210562229156,0.0699933022260665,-0.2193986028432846,0.2653385400772095
1630937463987,0.4624277949333191,0.082194909453392,-0.2307461947202682,0.2508702576160431
1630937464092,0.4584865570068359,0.0824861675500869,-0.2383014410734176,0.2294222116470337
1630937464167,0.4575339257717132,0.0733836442232132,-0.2440303564071655,0.2168685048818588
1630937464259,0.4629359245300293,0.0623419135808944,-0.246992751955986,0.2229872494935989
1630937464346,0.472777396440506,0.0532002970576286,-0.2454639375209808,0.2411113530397415
1630937464479,0.4776996374130249,0.0409664921462535,-0.2385071218013763,0.2548885345458984
1630937464563,0.4750691950321197,0.0209619775414466,-0.2239746898412704,0.2685354650020599
1630937464688,0.4614738821983337,-0.0061921239830553,-0.1989871710538864,0.2743670642375946
1630937464782,0.4361895024776459,-0.0378738641738891,-0.1703041195869445,0.2706907093524933
1630937464856,0.4017846286296844,-0.0666004568338394,-0.1507461071014404,0.2628252506256103
1630937464949,0.370337039232254,-0.0719666332006454,-0.150007277727127,0.2634086608886719
1630937465112,0.3538531363010406,-0.0350861735641956,-0.1647262275218963,0.2802446782588959
1630937465195,0.3563297092914581,0.0306003242731094,-0.1832654625177383,0.3182067573070526
1630937465285,0.3645517826080322,0.0917216464877128,-0.1953922510147094,0.3675879538059234
1630937465367,0.3674775063991546,0.1278673857450485,-0.2009203284978866,0.4106061458587646
1630937465482,0.3547728657722473,0.1375406235456466,-0.2043807804584503,0.4341277182102203
1630937465575,0.3254341185092926,0.1295330822467804,-0.2083573788404464,0.433767706155777
1630937465709,0.288483053445816,0.11371760815382,-0.2101488262414932,0.4171731173992157
1630937465797,0.2612311840057373,0.102597527205944,-0.1958139985799789,0.4014979004859924
1630937465906,0.2602575719356537,0.1047822013497352,-0.1563156992197036,0.4010356366634369
1630937465993,0.2848521471023559,0.1196800544857978,-0.1030497178435325,0.4178738296031952
1630937466066,0.3166566491127014,0.1388055086135864,-0.0571359880268573,0.4277482330799103
1630937466220,0.3430284559726715,0.1560397744178772,-0.0372904948890209,0.4495235681533813
1630937466314,0.3685451745986938,0.1704077273607254,-0.0448817834258079,0.485099196434021
1630937466443,0.3965797424316406,0.1801994442939758,-0.0678375288844108,0.5348638892173767
1630937466501,0.4198929667472839,0.1770242005586624,-0.0873916298151016,0.5733708739280701
1630937466601,0.4309323132038116,0.1510137766599655,-0.0945085063576698,0.5921416282653809
1630937466693,0.4254508912563324,0.1008529365062713,-0.0920977517962455,0.5890164971351624
1630937466783,0.40843465924263,0.0372207500040531,-0.0871265679597854,0.5683560371398926
1630937466914,0.3906795978546142,-0.0193395316600799,-0.0819865763187408,0.5406449437141418
1630937467024,0.3793482482433319,-0.0524558164179325,-0.0770326033234596,0.5177958607673645
1630937467130,0.3725938200950622,-0.0635542944073677,-0.0733566507697105,0.5049813985824585
1630937467217,0.3622868359088897,-0.0657612085342407,-0.0768725499510765,0.4954220056533813
1630937467358,0.3403004705905914,-0.0737897232174873,-0.0991244167089462,0.4802896380424499
1630937467420,0.3017775416374206,-0.093081347644329,-0.1475384980440139,0.4570329785346985
1630937467554,0.2539975047111511,-0.1183153018355369,-0.2184351533651352,0.429632693529129
1630937467661,0.2080798745155334,-0.1423638463020324,-0.2969638109207153,0.3971907794475555
1630937467739,0.1723393052816391,-0.1677691638469696,-0.3544149398803711,0.3497849404811859
1630937467821,0.137374922633171,-0.2020047307014465,-0.3671680390834808,0.2780776023864746
1630937467914,0.0905908122658729,-0.246155098080635,-0.3429942429065704,0.1894403845071792
1630937467995,0.0387169905006885,-0.289110779762268,-0.3092986345291137,0.1060954108834266
1630937468178,-0.0026465230621397,-0.3178894221782684,-0.28347247838974,0.0495853833854198
1630937468247,-0.0199442096054554,-0.334405243396759,-0.2663500010967254,0.0208940114825963
1630937468357,-0.0201301239430904,-0.3492516577243805,-0.2530677318572998,0.0081818141043186
1630937468435,-0.0183873865753412,-0.369264543056488,-0.2440479695796966,0.0022899785544723
1630937468527,-0.0214768350124359,-0.3866214454174042,-0.2408416718244552,0.0029907491989433
1630937468615,-0.0262608770281076,-0.3873659074306488,-0.2377729713916778,0.009925534017384
1630937468799,-0.0285531897097826,-0.367872953414917,-0.2248783111572265,0.0233075264841318
1630937468862,-0.0209735371172428,-0.3399018943309784,-0.1977445483207702,0.0407026000320911
1630937468952,-0.0142638329416513,-0.3208430707454681,-0.1620029658079147,0.0607072822749614
1630937469048,-0.0147166131064295,-0.320391446352005,-0.1284652203321457,0.0899504795670509
1630937469133,-0.0269837938249111,-0.3344978988170624,-0.1082417219877243,0.1335155367851257
1630937469242,-0.0510836206376552,-0.3480674028396606,-0.1074988767504692,0.1853347271680832
1630937469379,-0.0859931036829948,-0.3487875163555145,-0.1268578916788101,0.227588266134262
1630937469475,-0.1237534433603286,-0.3391793966293335,-0.1587712317705154,0.2459002137184143
1630937469555,-0.164014846086502,-0.3294030427932739,-0.1903540343046188,0.240801602602005
1630937469666,-0.2005494236946106,-0.3252873420715332,-0.2141661196947097,0.2225251346826553
1630937469755,-0.2314252853393554,-0.3247834146022796,-0.2333189994096756,0.2060064971446991
1630937469872,-0.2371596544981002,-0.3251815736293793,-0.2516283690929413,0.1992029398679733
1630937469976,-0.2004374116659164,-0.3263095617294311,-0.2657401263713836,0.2010287493467331
1630937470067,-0.0991293415427208,-0.3329693973064422,-0.2699064910411834,0.2067951261997223
1630937470157,0.0173789095133543,-0.3514145314693451,-0.2697696685791015,0.2155713140964508
1630937470271,0.1005869582295417,-0.3834101855754852,-0.2779489159584045,0.2278165519237518
1630937470363,0.1074160784482956,-0.4234500527381897,-0.3057499825954437,0.2404647171497345
1630937470449,0.1020008474588394,-0.4587850570678711,-0.3566852509975433,0.2467160671949386
1630937470584,0.1009108051657676,-0.4791150689125061,-0.4167988300323486,0.2369342744350433
1630937470708,0.1127558797597885,-0.4861468076705932,-0.4544541835784912,0.20455002784729
1630937470757,0.1351561844348907,-0.4917210340499878,-0.4505968391895294,0.1497659087181091
1630937470847,0.1596508175134658,-0.501052737236023,-0.4215201139450073,0.0826314389705658
1630937470965,0.1854411363601684,-0.5092679262161255,-0.3953897356986999,0.0224693324416875
1630937471055,0.2131415754556656,-0.5094048976898193,-0.3857837915420532,-0.0205887574702501
1630937471189,0.2397040873765945,-0.4984849989414215,-0.38581183552742,-0.0468207970261573
1630937471308,0.2588340938091278,-0.480471134185791,-0.3809561729431152,-0.0666766241192817
1630937471395,0.2830454111099243,-0.4593607187271118,-0.3630686998367309,-0.083706110715866
1630937471504,0.2921987175941467,-0.4379352331161499,-0.3337254524230957,-0.0961255356669426
1630937471589,0.2941546738147735,-0.4165481328964233,-0.3013659119606018,-0.091639906167984
1630937471653,0.3046430945396423,-0.3940110206604004,-0.2727825343608856,-0.0635650306940078
1630937471810,0.3324193358421325,-0.3686798810958862,-0.249174565076828,-0.0184550210833549
1630937471927,0.3711680769920349,-0.3455543518066406,-0.2280201613903045,0.0262723267078399
1630937472020,0.4102878868579864,-0.3340918719768524,-0.2104716747999191,0.0556613989174366
1630937472109,0.4484540820121765,-0.3391672670841217,-0.2035416811704635,0.06979850679636
1630937472174,0.4838128387928009,-0.3551943898200989,-0.2102508544921875,0.0774015039205551
1630937472267,0.5102005004882812,-0.3707717359066009,-0.2238118946552276,0.0839999243617057
1630937472421,0.5221747756004333,-0.3806487023830414,-0.2333121448755264,0.0871561393141746
1630937472509,0.5187817215919495,-0.3885665833950043,-0.2348533123731613,0.0840892568230629
1630937472592,0.5061154961585999,-0.3998412191867828,-0.2301293164491653,0.0784140825271606
1630937472702,0.4879059791564941,-0.4163030385971069,-0.2226724177598953,0.0759168565273284
1630937472773,0.469580203294754,-0.4355857670307159,-0.2155317664146423,0.0810152888298034
1630937472928,0.4580724537372589,-0.4576064944267273,-0.2147264778614044,0.0911106914281845
1630937473022,0.4564342796802521,-0.4817841053009033,-0.2238091230392456,0.0988083407282829
1630937473139,0.4580765962600708,-0.5063793659210205,-0.2416622191667556,0.0932665318250656
1630937473227,0.4524560570716858,-0.5247292518615723,-0.2616487443447113,0.0647728070616722
1630937473311,0.4336138963699341,-0.5366498231887817,-0.2771823704242706,0.0100188599899411
1630937473422,0.4035944640636444,-0.5479924082756042,-0.2861030399799347,-0.0589849054813385
1630937473488,0.3647356331348419,-0.5628573894500732,-0.2883685827255249,-0.1146570816636085
1630937473636,0.3138377666473388,-0.575435996055603,-0.2850982546806335,-0.1433510929346084
1630937473725,0.2491837739944458,-0.5774076581001282,-0.2798488140106201,-0.1571098864078521
1630937473828,0.1856517046689987,-0.5598672032356262,-0.2778278589248657,-0.1733008921146392
1630937473914,0.1507840454578399,-0.5204100012779236,-0.2788976728916168,-0.192901611328125
1630937474008,0.1540005058050155,-0.4651162326335907,-0.2792458832263946,-0.2098923176527023
1630937474097,0.1709461510181427,-0.4065069258213043,-0.2766466736793518,-0.2157423943281173
1630937474232,0.1889713555574417,-0.3483681380748749,-0.2702804505825043,-0.211528405547142
1630937474347,0.2111113667488098,-0.2745482325553894,-0.2512570917606354,-0.2002657204866409
1630937474429,0.245783731341362,-0.1649758070707321,-0.1939305812120437,-0.1749490946531295
1630937474537,0.2880051732063293,-0.0408889949321746,-0.0993385314941406,-0.1235432624816894
1630937474608,0.3191350996494293,0.0604806467890739,-0.003139954758808,-0.0541616640985012
1630937474719,0.3284224271774292,0.1196606382727623,0.06438560038805,0.0084936963394284
1630937474853,0.3193439245223999,0.140270859003067,0.0975948423147201,0.0443011820316314
1630937474945,0.3073673546314239,0.1390290707349777,0.1086152493953704,0.0511086918413639
1630937475029,0.3053600192070007,0.1343785226345062,0.1135174930095672,0.0409406758844852
1630937475195,0.3189187049865722,0.1347790211439132,0.117940254509449,0.0300882291048765
1630937475231,0.3424074649810791,0.1396769881248474,0.1203755140304565,0.0265223272144794
1630937475361,0.3620495498180389,0.1433133482933044,0.1184512227773666,0.0293553732335567
1630937475502,0.3663612604141235,0.140932098031044,0.1127423793077468,0.0326989740133285
1630937475546,0.3551580607891083,0.132114976644516,0.1062569320201873,0.0335579216480255
1630937475654,0.3345668613910675,0.1192725747823715,0.1000933498144149,0.0286347065120935
1630937475734,0.3142327666282654,0.1024918332695961,0.0928594693541526,0.0191703829914331
1630937475846,0.2947711050510406,0.0732638239860534,0.0776969343423843,0.0069484757259488
1630937475940,0.2689243853092193,0.0128741748631,0.0395654961466789,-0.007801997475326
1630937476061,0.2374635636806488,-0.0942232087254524,-0.0358064100146293,-0.030830068513751
1630937476178,0.2214666157960891,-0.2456608116626739,-0.149361103773117,-0.063399001955986
1630937476290,0.2368842214345932,-0.3999254107475281,-0.2772160172462463,-0.0842802226543426
1630937476348,0.2898997366428375,-0.482696533203125,-0.3789364397525787,-0.0475893430411815
1630937476477,0.3637129366397857,-0.4650369882583618,-0.4390313923358917,0.0524474456906318
1630937476554,0.4360222220420837,-0.4012529253959656,-0.4856468141078949,0.166407823562622
1630937476684,0.4876452088356018,-0.332115113735199,-0.532078206539154,0.2555233836174011
1630937476784,0.5143827795982361,-0.2754753530025482,-0.5742044448852539,0.3099989593029022
1630937476874,0.5234526991844177,-0.2366456985473632,-0.6022680401802063,0.3362739086151123
1630937476964,0.5287616848945618,-0.2142185717821121,-0.6140871644020081,0.3468131124973297
1630937477048,0.5346148014068604,-0.2032697349786758,-0.6063022613525391,0.3500669002532959
1630937477189,0.5434062480926514,-0.1979602873325348,-0.5745055079460144,0.3510384559631347
1630937477314,0.5525311827659607,-0.1921501457691192,-0.5205854177474976,0.3520852029323578
1630937477395,0.5608761310577393,-0.1857041865587234,-0.4561704099178314,0.353699654340744
1630937477474,0.5655108094215393,-0.1828651577234268,-0.3974152505397796,0.3539004325866699
1630937477565,0.5638564229011536,-0.1861492693424224,-0.3525557816028595,0.3508751988410949
1630937477708,0.5524681210517883,-0.1940526664257049,-0.3169921934604645,0.3433689773082733
1630937477775,0.5315355062484741,-0.2041397541761398,-0.2822141647338867,0.3287783861160278
1630937477923,0.4963291883468628,-0.2181816399097442,-0.2432363331317901,0.298047810792923
1630937477988,0.4419174492359161,-0.2475166469812393,-0.2043060064315796,0.2402590662240982
1630937478122,0.3702670335769653,-0.3000999391078949,-0.1698373407125473,0.1519295424222946
1630937478221,0.2941430509090423,-0.376066654920578,-0.1392980366945266,0.0460879616439342
1630937478273,0.2313723713159561,-0.4586550295352936,-0.1088480278849601,-0.0446508191525936
1630937478364,0.1879690736532211,-0.5183578133583069,-0.0790112987160682,-0.0890577062964439
1630937478498,0.153982862830162,-0.5392324328422546,-0.0548883154988288,-0.0900594443082809
1630937478592,0.1262819916009903,-0.532861590385437,-0.0420745275914669,-0.0662886351346969
1630937478679,0.1008551642298698,-0.5154072642326355,-0.0391013696789741,-0.0305557586252689
1630937478801,0.0735194236040115,-0.4986116290092468,-0.0417721830308437,0.0085204830393195
1630937478924,0.0392649918794631,-0.4817139208316803,-0.0486335381865501,0.0413667671382427
1630937478987,0.0093347756192088,-0.4518530070781708,-0.0608369335532188,0.0629275068640708
1630937479130,0.0114725092425942,-0.3904275596141815,-0.0775398835539817,0.0743946358561515
1630937479221,0.0974017977714538,-0.2909004390239715,-0.0930183380842208,0.0872156396508216
1630937479378,0.2499569654464721,-0.1768644601106643,-0.099903754889965,0.1103287264704704
1630937479417,0.3917852640151977,-0.077964574098587,-0.0975774079561233,0.1399004459381103
1630937479505,0.4863328337669372,-0.0079107917845249,-0.0933546274900436,0.1639608889818191
1630937479597,0.5303568243980408,0.0339293852448463,-0.0959085524082183,0.1749878674745559
1630937479755,0.5407029390335083,0.0546442344784736,-0.1106212735176086,0.1754698455333709
1630937479842,0.5385934114456177,0.0618115067481994,-0.1348130851984024,0.1733447760343551
1630937479945,0.5396954417228699,0.0613819882273674,-0.1603926867246627,0.1744707971811294
1630937480054,0.5467026233673096,0.058348748832941,-0.1800084859132766,0.1792502552270889
1630937480115,0.5563308000564575,0.0552438236773014,-0.1908449232578277,0.1827506422996521
1630937480198,0.5637534260749817,0.0514473244547843,-0.1997343152761459,0.1780814528465271
1630937480336,0.5672070980072021,0.0463338755071163,-0.2157703936100006,0.1628805547952652
1630937480422,0.5670849680900574,0.040188793092966,-0.2390818297863006,0.1414220929145813
1630937480550,0.564436137676239,0.0309448782354593,-0.260092943906784,0.1216611936688423
1630937480624,0.5555970072746277,0.0113102626055479,-0.272750586271286,0.1101881116628646
1630937480738,0.524847686290741,-0.0298345405608415,-0.2851581871509552,0.0986872091889381
1630937480806,0.4519041776657104,-0.0998940616846084,-0.3161661922931671,0.074947640299797
1630937480961,0.3338849246501922,-0.1950685828924179,-0.3762380182743072,0.0412291884422302
1630937481074,0.1954825222492218,-0.2954929769039154,-0.4567472040653229,0.0156584531068801
1630937481141,0.0973849818110466,-0.3717021942138672,-0.5316362380981445,0.0138155547901988
1630937481234,0.0807076841592788,-0.4072532951831817,-0.5769091844558716,0.0284021720290184
1630937481344,0.1092704012989997,-0.4133719801902771,-0.598410427570343,0.0383258201181888
1630937481406,0.1405162811279297,-0.4076306819915771,-0.6103107333183289,0.0370230451226234
1630937481570,0.163027673959732,-0.397435575723648,-0.6118608117103577,0.025749783962965
1630937481652,0.1760072410106659,-0.3800649344921112,-0.5950625538825989,0.0090659530833363
1630937481740,0.1824491769075393,-0.3516388237476349,-0.5552875399589539,-0.0037819948047399
1630937481878,0.1917081922292709,-0.3174607157707214,-0.4972633123397827,-0.0023737375158816
1630937481943,0.222511276602745,-0.2884322106838226,-0.4185982942581177,0.0124371545389294
1630937482028,0.2924386858940124,-0.2716552317142486,-0.3028590977191925,0.031098810955882
1630937482146,0.3983427882194519,-0.2667612433433532,-0.1406521797180175,0.0399211384356021
1630937482287,0.5074834227561951,-0.2658210396766662,0.0344772152602672,0.0365579687058925
1630937482396,0.5919620394706726,-0.2580190300941467,0.1799798011779785,0.0270405914634466
1630937482443,0.6432796716690063,-0.2325103729963302,0.2799945175647735,0.0128270694985985
1630937482524,0.6686368584632874,-0.1911556273698806,0.3371617197990417,-0.0056503470987081
1630937482663,0.6761775016784668,-0.1484915018081665,0.3645129203796386,-0.0236859023571014
1630937482767,0.6743300557136536,-0.1202035248279571,0.3763211369514465,-0.0345344357192516
1630937482864,0.6696404814720154,-0.1092061698436737,0.3819324076175689,-0.0342890173196792
1630937482962,0.6665000319480896,-0.1059243455529213,0.3835817873477936,-0.0302939508110284
1630937483062,0.667940616607666,-0.0988191366195678,0.3824265301227569,-0.0230343788862228
1630937483153,0.674415647983551,-0.0890216156840324,0.3785763680934906,-0.0105949053540825
1630937483238,0.6840223073959351,-0.0868693590164184,0.3727694749832153,0.0069515784271061
1630937483402,0.6927440762519836,-0.0960983484983444,0.3662505745887756,0.0330887883901596
1630937483489,0.6925538182258606,-0.1101442798972129,0.3593291044235229,0.0725709348917007
1630937483578,0.6737121343612671,-0.117270216345787,0.3470374047756195,0.1174003556370735
1630937483698,0.6254816055297852,-0.1131157353520393,0.3155097961425781,0.1536675691604614
1630937483801,0.5485659241676331,-0.1040610894560813,0.2488273233175277,0.1751013249158859
1630937483851,0.4632377028465271,-0.0996077880263328,0.1421943753957748,0.1845035552978515
1630937483982,0.4048949778079986,-0.1092787533998489,0.0092339999973773,0.1904907375574112
1630937484091,0.3825235366821289,-0.1376667469739914,-0.113444335758686,0.1965991705656051
1630937484179,0.3855197727680206,-0.1793175786733627,-0.1909180432558059,0.1988991051912307
1630937484310,0.3947059512138366,-0.2196375280618667,-0.2189109623432159,0.1947378665208816
1630937484379,0.4033811688423157,-0.2414479106664657,-0.1876854002475738,0.2026912122964859
1630937484472,0.404865026473999,-0.2399901002645492,-0.1802472472190857,0.2108815312385559
1630937484604,0.3950899839401245,-0.1759613752365112,-0.1662144362926483,0.2185831367969513
1630937484717,0.3761808276176452,-0.049454491585493,-0.146049678325653,0.2265660166740417
1630937484795,0.3559433817863464,-0.0489284135401248,-0.1225755810737609,0.2338353991508484
1630937484898,0.3418916761875152,-0.0375184156000614,-0.1006478369235992,0.2292376905679702
1630937484981,0.3413796126842499,-0.0163892842829227,-0.0896654352545738,0.1957679837942123
1630937485075,0.3532338440418243,0.0072167804464697,-0.099097654223442,0.1246105581521987
1630937485212,0.3765885829925537,0.0293717682361602,-0.1312444061040878,0.0335757806897163
1630937485327,0.4053991734981537,0.0507674179971218,-0.1722900867462158,-0.0357630997896194
1630937485437,0.4282989501953125,0.0747182518243789,-0.1935186237096786,-0.053328588604927
1630937485501,0.4282989501953125,0.1056515201926231,-0.1741238236427307,-0.053328588604927
1630937485619,0.4282989501953125,0.1492102593183517,-0.1741238236427307,-0.053328588604927
1630937485703,0.4282989501953125,0.2096330821514129,-0.1741238236427307,-0.053328588604927
1630937485823,0.4282989501953125,0.2910391688346863,-0.1741238236427307,-0.053328588604927
1630937485909,0.4282989501953125,0.2910391688346863,-0.1741238236427307,-0.053328588604927
1630937486028,0.4282989501953125,0.2910391688346863,-0.1741238236427307,-0.053328588604927
1630937486120,0.4282989501953125,0.2910391688346863,-0.1741238236427307,-0.053328588604927
1630937486198,0.4282989501953125,0.2910391688346863,-0.1741238236427307,-0.053328588604927
1630937486324,0.4282989501953125,0.2910391688346863,-0.1741238236427307,-0.053328588604927
1630937486434,0.4282989501953125,-0.5849001407623291,-0.408779114484787,-0.053328588604927
1630937486517,0.8377830982208252,-0.541022777557373,-0.4472154080867767,0.5366290211677551
1630937486604,0.7682088017463684,-0.5030975341796875,-0.4644151329994201,0.4881108701229095
1630937486731,0.7105832695960999,-0.4869361221790313,-0.4675547182559967,0.4520999789237976
1630937486808,0.6609117984771729,-0.493448406457901,-0.4639532566070556,0.4197838008403778
1630937486899,0.6232802867889404,-0.5114172697067261,-0.4530610740184784,0.3892620503902435
1630937487058,0.5978209376335144,-0.5292358994483948,-0.4337925314903259,0.3633313775062561
1630937487147,0.5780631899833679,-0.5419725775718689,-0.4117043614387512,0.3409662842750549
1630937487258,0.5565170645713806,-0.5531158447265625,-0.3974169790744781,0.3179773986339569
1630937487320,0.5316753387451172,-0.5664052367210388,-0.393585741519928,0.2914581894874573
1630937487413,0.5054217576980591,-0.5837520360946655,-0.3926516771316528,0.2651046514511108
1630937487496,0.480508416891098,-0.6037134528160095,-0.3823963701725006,0.2505969703197479
1630937487634,0.4579340517520904,-0.6297439932823181,-0.3647940158843994,0.2557167410850525
1630937487780,0.3189916908740997,-0.6454185843467712,-0.3369308114051819,0.2095637172460556
1630937487860,0.1995539665222168,-0.6554313898086548,-0.303870290517807,0.1988662630319595
1630937487933,0.1311112493276596,-0.6634693145751953,-0.2732886970043182,0.2087415754795074
1630937488057,0.0929649248719215,-0.672295868396759,-0.2508644163608551,0.2145364880561828
1630937488107,0.0637236684560775,-0.6846672296524048,-0.2362535744905471,0.2069522738456726
1630937488268,0.0359314195811748,-0.6943175792694092,-0.2276714593172073,0.1912149935960769
1630937488407,0.012399947270751,-0.6856732964515686,-0.2245887815952301,0.1766383945941925
1630937488450,-0.0172496642917394,-0.6455732583999634,-0.2281907647848129,0.1692982167005539
1630937488572,-0.0567751936614513,-0.5851074457168579,-0.2392028421163559,0.1688986420631408
1630937488642,-0.0975868478417396,-0.5273582339286804,-0.2562069892883301,0.1748052537441253
1630937488756,-0.1223732456564903,-0.4854738414287567,-0.2730778157711029,0.1877124309539795
1630937488862,-0.1227011531591415,-0.4615612030029297,-0.2855735421180725,0.2070782780647277
1630937488952,-0.1061334162950515,-0.450432151556015,-0.2961637675762176,0.2257918268442154
1630937489095,-0.0868879705667495,-0.4461883902549743,-0.3133206069469452,0.2326194196939468
1630937489155,-0.0834025293588638,-0.4448764026165008,-0.3333656787872314,0.2270607203245163
1630937489247,-0.0800002440810203,-0.4441325068473816,-0.3401215374469757,0.2271865010261535
1630937489338,-0.076481319963932,-0.4438693523406982,-0.3258216381072998,0.1945937871932983
1630937489486,-0.075436495244503,-0.4408371746540069,-0.3057960569858551,0.1666855216026306
1630937489566,0.1036089584231376,-0.430767685174942,-0.2953760623931885,0.1541449576616287
1630937489651,0.1266157180070877,-0.4090963900089264,-0.2890225350856781,0.1604519784450531
1630937489760,0.1586865484714508,-0.3797492086887359,-0.2751893401145935,0.1809350550174713
1630937489875,0.1965440958738327,-0.3343039453029632,-0.2207064777612686,0.2079261690378189
1630937489953,0.2361855804920196,-0.2715069353580475,-0.2078365832567215,0.2337161600589752
1630937490097,0.2735560238361358,-0.2806342244148254,-0.1904220283031463,0.253574401140213
1630937490190,0.3115608096122741,-0.2956922650337219,-0.1686794608831405,0.2670940160751343
1630937490283,0.3589005768299103,-0.3061539828777313,-0.1431347280740738,0.2774790823459625
1630937490373,0.3589005768299103,-0.302469789981842,-0.1139759570360183,0.2909782230854034
1630937490449,0.3589005768299103,-0.281942218542099,-0.0813440755009651,0.2909782230854034
1630937490569,0.3589005768299103,-0.2477469593286514,-0.0453654713928699,0.2909782230854034
1630937490673,0.3589005768299103,-0.2044861316680908,-0.0241794325411319,0.2909782230854034
1630937490765,0.3589005768299103,-0.1555304527282714,-0.0366158261895179,0.2909782230854034
1630937490883,0.3589005768299103,-0.0824006870388984,-0.0855207815766334,0.2909782230854034
1630937490980,0.3589005768299103,-0.0465559884905815,-0.1548386663198471,0.2909782230854034
1630937491069,0.3589005768299103,-0.0426153317093849,-0.2175943851470947,0.2909782230854034
1630937491175,0.3589005768299103,-0.0594585165381431,-0.2704484760761261,0.2909782230854034
1630937491318,0.3505492210388183,-0.0776363685727119,-0.3252715468406677,0.2909782230854034
1630937491413,0.3659979999065399,-0.1077703982591629,-0.4725132584571838,-0.2087916880846023
1630937491495,0.376376211643219,-0.1853719353675842,-0.4391891360282898,-0.2757940590381622
1630937491606,0.3765624165534973,-0.1895728856325149,-0.3939044773578644,-0.3134000301361084
1630937491695,0.3680384159088135,-0.2009760439395904,-0.3438907861709595,-0.2871190905570984
1630937491811,0.3511400520801544,-0.2147604525089264,-0.2996756732463836,-0.2106176614761352
1630937491924,0.3311287462711334,-0.2281051576137542,-0.2699072659015655,-0.1153919249773025
1630937492048,0.3126955032348633,-0.2426485121250152,-0.2516563534736633,-0.0186912305653095
1630937492111,0.3001604974269867,-0.2586430311203003,-0.2341972589492797,0.0681447759270668
1630937492234,0.2926615476608276,-0.2704778611660003,-0.2189104259014129,0.1358987390995025
1630937492275,0.2848778069019317,-0.2711101174354553,-0.1858698278665542,0.1759096086025238
1630937492396,0.2751457095146179,-0.2897083461284637,-0.1436173021793365,0.1888183206319809
1630937492574,0.2615106701850891,-0.2887376546859741,-0.1012827083468437,0.1842755228281021
1630937492634,0.2504351437091827,-0.2750705480575561,-0.0663463100790977,0.1869648993015289
1630937492705,0.2365071475505828,-0.2598276734352112,-0.0429950207471847,0.1852364838123321
1630937492830,0.2112942487001419,-0.2542227804660797,-0.0322982631623744,0.1830702424049377
1630937492904,0.1777402013540268,-0.2612435221672058,-0.0328788645565509,0.1828807741403579
1630937492988,0.1426462233066558,-0.2751249372959137,-0.0431163161993026,0.1841732561588287
1630937493159,0.1177783757448196,-0.2888675630092621,-0.0620154254138469,0.1826809644699096
1630937493287,0.1094419583678245,-0.3013616502285003,-0.0888691395521164,0.1729536205530166
1630937493317,0.119243711233139,-0.3147686421871185,-0.1190934404730796,0.1533084064722061
1630937493418,0.1377008706331253,-0.3257916569709778,-0.1454017013311386,0.1256954073905944
1630937493511,0.1511460393667221,-0.3211521804332733,-0.1658117324113845,0.0915281921625137
1630937493596,0.1512395143508911,-0.2869006395339966,-0.1889223158359527,0.0520047023892402
1630937493766,0.1423861384391784,-0.2276331931352615,-0.2229885756969452,0.0208282843232154
1630937493843,0.1383354812860489,-0.1680795401334762,-0.2615291774272918,0.0309805683791637
1630937493933,0.1421188712120056,-0.1304188519716262,-0.2875303924083709,0.0883482694625854
1630937494039,0.1517400741577148,-0.1183341145515441,-0.2955554723739624,0.1569042950868606
1630937494130,0.1649087220430374,-0.1176869198679924,-0.2972553670406341,0.2085962742567062
1630937494222,0.1848974078893661,-0.1073314175009727,-0.3043888807296753,0.2471739053726196
1630937494356,0.2118657529354095,-0.081162616610527,-0.3182573020458221,0.2822904288768768
1630937494471,0.2387654930353164,-0.051827099174261,-0.3313312530517578,0.3134160935878753
1630937494536,0.2538629472255707,-0.0328684896230697,-0.3363528549671173,0.3358593881130218
1630937494648,0.2550641894340515,-0.0266092922538518,-0.3326256573200226,0.3509986400604248
1630937494728,0.24272520840168,-0.0272114817053079,-0.3274697065353393,0.3620409667491913
1630937494826,0.2192355543375015,-0.0288716815412044,-0.3285023272037506,0.3691346645355224
1630937494961,0.1889235824346542,-0.0324406288564205,-0.3368646502494812,0.3698260188102722
1630937495062,0.1602998524904251,-0.043373379856348,-0.3473935723304748,0.3627664744853973
1630937495143,0.1385916620492935,-0.0696462839841842,-0.3546221852302551,0.3510685563087463
1630937495246,0.122132621705532,-0.11790681630373,-0.3605717420578003,0.3398280143737793
1630937495339,0.1016265451908111,-0.1849824041128158,-0.3783525228500366,0.3294698596000671
1630937495447,0.0744445845484733,-0.250315397977829,-0.421466201543808,0.3177381753921509
1630937495564,0.0375284887850284,-0.2909773290157318,-0.4916187226772308,0.3027832210063934
1630937495655,-0.0099802957847714,-0.310150533914566,-0.5704846382141113,0.283198595046997
1630937495799,-0.0703766345977783,-0.3373345136642456,-0.628258466720581,0.2545682191848755
1630937495846,-0.1510606557130813,-0.3900206685066223,-0.648923933506012,0.218754157423973
1630937495952,-0.2441125065088272,-0.4581189155578613,-0.6487254500389099,0.18589548766613
1630937496040,-0.3184831142425537,-0.5131095051765442,-0.6467834711074829,0.1702445149421692
1630937496196,-0.3797006011009216,-0.5287165641784668,-0.6414865851402283,0.172476664185524
1630937496308,-0.4218244254589081,-0.5048417448997498,-0.5990599989891052,0.1850481331348419
1630937496386,-0.2557953894138336,-0.4612830877304077,-0.4989612996578216,0.200607031583786
1630937496467,-0.1188951060175895,-0.4178419411182403,-0.3664911389350891,0.2168878018856048
1630937496562,-0.0164018105715513,-0.386177510023117,-0.2477619349956512,0.2370684742927551
1630937496650,0.0573922544717788,-0.3672220706939697,-0.1667995005846023,0.261868953704834
1630937496790,0.1055983081459999,-0.3560377657413482,-0.1257471889257431,0.2783149480819702
1630937496888,0.137508675456047,-0.346710592508316,-0.1128916293382644,0.2711691856384277
1630937496986,0.1608061492443084,-0.3369546830654144,-0.1120788678526878,0.242199420928955
1630937497076,0.1781975775957107,-0.3295904397964477,-0.1097300723195076,0.2095334976911544
1630937497161,0.2065896838903427,-0.3302970230579376,-0.1018765792250633,0.1944404393434524
1630937497249,0.2364773601293563,-0.3411382734775543,-0.0915898755192756,0.2063113451004028
1630937497412,0.2773138582706451,-0.3558922111988067,-0.0834904462099075,0.2328667044639587
1630937497502,0.3314907252788543,-0.3634581565856933,-0.0772583037614822,0.2613547444343567
1630937497578,0.3534777462482452,-0.3593699634075165,-0.0717472061514854,0.283344030380249
1630937497704,0.3693127334117889,-0.3530033528804779,-0.0690658017992973,0.2496203929185867
1630937497777,0.3738949596881866,-0.3546535074710846,-0.0790245458483696,0.2060538828372955
1630937497856,0.3689169585704803,-0.3642278015613556,-0.1133615151047706,0.1603297442197799
1630937498013,0.3683097660541534,-0.3693141937255859,-0.1734665185213089,0.1526346206665039
1630937498126,0.3616386950016022,-0.3565625548362732,-0.2415963560342788,0.134396955370903
1630937498210,0.3592220842838287,-0.3302434086799621,-0.2822354137897491,0.0714789628982544
1630937498306,0.3653235733509063,-0.3056407272815704,-0.2759002447128296,-0.0799114480614662
1630937498393,0.3814208209514618,-0.2952264547348022,-0.2407301515340805,-0.0799114480614662
1630937498481,0.4072985053062439,-0.2978834509849548,-0.2031269073486328,-0.0799114480614662
1630937498618,0.4430838525295257,-0.3033701181411743,-0.1745641976594925,-0.0799114480614662
1630937498732,0.4430838525295257,-0.3049819469451904,-0.1532845348119735,-0.0799114480614662
1630937498819,0.4430838525295257,-0.3006194829940796,-0.1335303485393524,-0.0799114480614662
1630937498908,0.4614208340644836,-0.2923244833946228,-0.1110168620944023,-0.0799114480614662
1630937498973,0.4622042179107666,-0.2788960933685303,-0.0858687385916709,-0.0799114480614662
1630937499113,0.4673953354358673,-0.2587787806987762,-0.0602828450500965,-0.0799114480614662
1630937499260,0.455053299665451,-0.2292075455188751,-0.0297158230096101,-0.0799114480614662
1630937499331,0.455053299665451,-0.1852418631315231,0.0351003184914588,-0.0799114480614662
1630937499425,0.455053299665451,-0.1292094141244888,0.1453036367893219,-0.0799114480614662
1630937499513,0.455053299665451,-0.0763252079486846,0.2661487460136413,0.4808887243270874
1630937499623,0.455053299665451,-0.0435093864798545,0.3583109676837921,0.5628846883773804
1630937499711,0.968168556690216,-0.0321352519094944,0.4083180427551269,0.6038888692855835
1630937499821,0.9841787815093994,-0.0309959929436445,0.4283878207206726,0.6285306215286255
1630937499939,0.9834734797477722,-0.0256579164415597,0.4409679472446441,0.652465283870697
1630937500044,0.9740895628929138,-0.0129550965502858,0.4586996734142303,0.6752064228057861
1630937500128,0.9587493538856506,-8.695169526617974e-05,0.4780054986476898,0.6932761073112488
1630937500220,0.9411963820457458,0.0110001806169748,0.4908651113510132,0.703120768070221
1630937500345,0.9245080947875975,0.0237417686730623,0.4956113696098327,0.7065192461013794
1630937500461,0.9121310114860536,0.0384262837469577,0.4983338415622711,0.7080076932907104
1630937500536,0.9008827805519104,0.05082693323493,0.5047988295555115,0.7085332274436951
1630937500632,0.9091058373451232,0.063379094004631,0.5157641768455505,0.7079700827598572
1630937500741,0.8986213803291321,0.0843607932329177,0.5276048183441162,0.7296082377433777
1630937500855,0.8917613625526428,0.1134522706270217,0.5301905274391174,0.748292863368988
1630937500943,0.8844596147537231,0.1373533904552459,0.5118125677108765,0.7585643529891968
1630937501079,0.8652775883674622,0.1450620591640472,0.4671882688999176,0.7552648186683655
1630937501176,0.8267061114311218,0.137743279337883,0.4057331085205078,0.7399500012397766
1630937501245,0.7804508209228516,0.1241186559200286,0.3505367636680603,0.7191435694694519
1630937501354,0.7348394989967346,0.1111506670713424,0.3170194625854492,0.6940792798995972
1630937501431,0.6940430402755737,0.0981634482741355,0.2961428761482239,0.6622207760810852
1630937501524,0.6584291458129883,0.0837382972240448,0.2736200988292694,0.6244919300079346
1630937501655,0.6282757520675659,0.0700620710849762,0.247466504573822,0.5844501852989197
1630937501797,0.6001450419425964,0.0578823946416378,0.2243202924728393,0.5476238131523132
1630937501861,0.5689483284950256,0.0435278974473476,0.2077232599258422,0.5125511288642883
1630937501937,0.5271797180175781,0.0239966139197349,0.190522626042366,0.4731984138488769
1630937502049,0.4788781106472015,-0.0015507045900449,0.1632333844900131,0.4289555549621582
1630937502127,0.4272362291812897,-0.0379336439073085,0.1229205057024955,0.3838023245334625
1630937502263,0.3665453493595123,-0.098914548754692,0.0711772814393043,0.3361153602600097
1630937502372,0.2875948250293731,-0.2001509666442871,0.0084895426407456,0.277097225189209
1630937502465,0.1964601129293441,-0.3418231010437011,-0.0599665790796279,0.2052286714315414
1630937502573,0.1119680255651474,-0.491788774728775,-0.1170061826705932,0.1391062885522842
1630937502684,0.0571822114288806,-0.5870961546897888,-0.143783837556839,0.1003688052296638
1630937502748,0.0217015128582716,-0.601280927658081,-0.1435092091560363,0.0888945758342742
1630937502887,-0.0113277677446603,-0.5680763721466064,-0.1400279551744461,0.0893234014511108
1630937503009,-0.0481786653399467,-0.5196521282196045,-0.1499057412147522,0.0906464457511901
1630937503062,-0.0832514837384224,-0.466591328382492,-0.1729887723922729,0.0877819210290908
1630937503176,-0.1165796369314193,-0.4139251708984375,-0.1953629255294799,0.0778538882732391
1630937503245,-0.1364772021770477,-0.3680275678634643,-0.2046030163764953,0.0599580854177475
1630937503362,-0.1223687753081321,-0.3343884348869324,-0.2015683203935623,0.0437165759503841
1630937503494,-0.0657601878046989,-0.315396100282669,-0.1934618055820465,0.0406894199550151
1630937503578,0.0109372939914464,-0.3082835972309112,-0.176710769534111,0.0564492084085941
1630937503672,0.0804446712136268,-0.3056440055370331,-0.1449405550956726,0.0828221589326858
1630937503819,0.1294593065977096,-0.3019380569458008,-0.1019138246774673,0.1076534464955329
1630937503876,0.1580903530120849,-0.2983864843845367,-0.0617476776242256,0.1268542408943176
1630937503959,0.1735133677721023,-0.2994502484798431,-0.0370409898459911,0.1405595988035202
1630937504095,0.1815260350704193,-0.3055064380168915,-0.0324894934892654,0.1461913287639618
1630937504187,0.1862196177244186,-0.3098191320896148,-0.0438597500324249,0.1412984132766723
1630937504277,0.1931360512971878,-0.3064051270484924,-0.0643116533756256,0.1310172975063324
1630937504388,0.2035309672355651,-0.3003984093666076,-0.0870398879051208,0.1255654245615005
1630937504524,0.2134103775024414,-0.3028058111667633,-0.1066732555627822,0.1293148100376129
1630937504586,0.2163216024637222,-0.3237171471118927,-0.1207512840628624,0.1394815891981125
1630937504721,0.2171670645475387,-0.3579019904136657,-0.1311200708150863,0.1615717709064483
1630937504833,0.2242140173912048,-0.3729192316532135,-0.1400173455476761,0.216212049126625
1630937504924,0.2399152964353561,-0.3381061851978302,-0.1482420712709427,0.30652517080307
1630937504990,0.2566065788269043,-0.268923670053482,-0.1569736897945404,0.4012357294559479
1630937505083,0.2616731226444244,-0.2059574425220489,-0.1713577508926391,0.4676701128482818
1630937505168,0.2497235834598541,-0.1705160737037658,-0.1984419077634811,0.4961967766284942
1630937505320,0.2267130017280578,-0.1602240651845932,-0.2408433556556701,0.4969728291034698
1630937505390,0.2060282975435257,-0.1623413860797882,-0.2876030504703522,0.486593097448349
1630937505528,0.194969356060028,-0.1671544015407562,-0.3161393702030182,0.4760466814041137
1630937505595,0.191401258111,-0.171144962310791,-0.3123238980770111,0.4692104458808899
1630937505706,0.1899294555187225,-0.1761526465415954,-0.2863317728042602,0.4672494828701019
1630937505795,0.1824529767036438,-0.1860637068748474,-0.2519855499267578,0.4678388833999634
1630937505957,0.1666610389947891,-0.1989518851041793,-0.2166060507297516,0.4676708281040191
1630937506041,0.1495434939861297,-0.2071918845176696,-0.186138778924942,0.4651935398578644
1630937506135,0.1423743516206741,-0.2051223069429397,-0.1691642254590988,0.4596728980541229
1630937506217,0.1472538560628891,-0.2009445130825042,-0.1689984053373336,0.4461579620838165
1630937506311,0.1528863906860351,-0.2162510901689529,-0.1787556111812591,0.4110701382160187
1630937506397,0.1440831422805786,-0.2663112282752991,-0.1877632141113281,0.338905781507492
1630937506535,0.1191024705767631,-0.3460395038127899,-0.1923273205757141,0.2247242927551269
1630937506624,0.0942810997366905,-0.4262710809707641,-0.1960427165031433,0.0880615934729576
1630937506747,0.0871846228837966,-0.4734963178634643,-0.2010217010974884,-0.0218834020197391
1630937506834,0.0983689576387405,-0.4801327586174011,-0.2051378339529037,-0.0655211955308914
1630937506916,0.1156378611922264,-0.4609658718109131,-0.2085412293672561,-0.0590430796146392
1630937507030,0.1298875957727432,-0.4291185438632965,-0.2186249643564224,-0.0372212566435337
1630937507157,0.1433872282505035,-0.3960854113101959,-0.2406283617019653,-0.0192255526781082
1630937507278,0.157519981265068,-0.3720278441905975,-0.2727335393428802,-0.010857624001801
1630937507360,0.1708477437496185,-0.3586148023605346,-0.3112427592277527,-0.0087127750739455
1630937507455,0.177201434969902,-0.3490755558013916,-0.3541506230831146,-0.0041313688270747
1630937507543,0.173879861831665,-0.331525593996048,-0.3981147110462188,0.0062474557198584
1630937507630,0.1580978482961654,-0.2975135147571563,-0.4323473572731018,0.0184040460735559
1630937507757,0.1310620158910751,-0.2497545927762985,-0.4467289745807647,0.0283818747848272
1630937507860,0.0931587889790535,-0.2023953944444656,-0.4417562186717987,0.0345374830067157
1630937507944,0.0538629740476608,-0.1657763123512268,-0.425277441740036,0.0401239991188049
1630937508029,0.026736494153738,-0.1418228894472122,-0.4029552042484283,0.0482784882187843
1630937508125,0.0219547376036643,-0.1263167709112167,-0.3810639381408691,0.0537754632532596
1630937508237,0.0336589999496936,-0.1145657300949096,-0.3685282468795776,0.0584556721150875
1630937508396,0.0479216612875461,-0.10718734562397,-0.370429515838623,0.0599990002810955
1630937508480,0.0517604947090148,-0.1065442860126495,-0.3874242901802063,0.0536498986184597
1630937508563,0.048026043921709,-0.111109085381031,-0.4119845926761627,0.0209891628473997
1630937508663,0.0377507135272026,-0.1146217361092567,-0.4349058270454407,-9.6521143859718e-05
1630937508727,0.0211918968707323,-0.1134175732731819,-0.4491466879844665,-0.0084232501685619
1630937508816,0.0007265023887157,-0.1092085763812065,-0.4503716826438904,-0.0196156520396471
1630937508999,-0.0122872060164809,-0.1108620837330818,-0.4403069019317627,-0.0494875460863113
1630937509109,-0.0078822551295161,-0.1275722980499267,-0.4245958626270294,-0.0991934388875961
1630937509171,0.0135380569845438,-0.1631121635437011,-0.4118891656398773,-0.1479038149118423
1630937509292,0.0462633594870567,-0.2144033908843994,-0.4036816954612732,-0.177899420261383
1630937509371,0.0837756022810936,-0.2672445774078369,-0.3996305763721466,-0.1942587792873382
1630937509439,0.1124928593635559,-0.3102448284626007,-0.3978386521339416,-0.2232255041599273
1630937509574,0.1236881762742996,-0.3427593410015106,-0.3955339789390564,-0.2362930476665496
1630937509687,0.1152071207761764,-0.3703570365905761,-0.3902939856052398,-0.2353297919034958
1630937509807,0.0947852060198783,-0.3928361535072326,-0.3831700980663299,-0.2240955829620361
1630937509889,0.0783404037356376,-0.399759292602539,-0.3779976963996887,-0.2101283371448516
1630937509951,0.0824431404471397,-0.3923035264015198,-0.3729469776153564,-0.1985897868871688
1630937510061,0.1000122055411338,-0.3866229355335235,-0.3634563684463501,-0.1930452138185501
1630937510206,0.1269558221101761,-0.3960761427879333,-0.3478084504604339,-0.2047997564077377
1630937510267,0.1571206748485565,-0.4143773913383484,-0.3305779993534088,-0.2219476252794265
1630937510382,0.1835960894823074,-0.4217187166213989,-0.3177535533905029,-0.2212222814559936
1630937510470,0.1983018219470977,-0.4025591909885406,-0.3092293441295624,-0.1883962899446487
1630937510560,0.2002753317356109,-0.3640006184577942,-0.3013445734977722,-0.1390748023986816
1630937510646,0.1931807696819305,-0.3276867270469665,-0.2913216054439544,-0.0986542999744415
1630937510806,0.1798153072595596,-0.3082135915756225,-0.2816113829612732,-0.0775549337267875
1630937510896,0.1621181815862655,-0.3096053898334503,-0.2761467695236206,-0.0713149756193161
1630937510980,0.1491993516683578,-0.3255707025527954,-0.2792909145355224,-0.0668568089604377
1630937511102,0.1477477997541427,-0.3484436571598053,-0.295284241437912,-0.0564983151853084
1630937511186,0.156398743391037,-0.3716095387935638,-0.3253066837787628,-0.0435037203133106
1630937511293,0.1640321910381317,-0.393578439950943,-0.3631484806537628,-0.0319300517439842
1630937511411,0.1621938049793243,-0.4190949499607086,-0.3966295123100281,-0.0278220232576131
1630937511495,0.1474537849426269,-0.4467738270759582,-0.4114810228347778,-0.0290285274386405
1630937511589,0.1311774998903274,-0.465525358915329,-0.4004081189632416,-0.0222118999809026
1630937511695,0.1155110672116279,-0.4686090052127838,-0.3686296045780182,0.0055294558405876
1630937511772,0.1125513538718223,-0.4648275375366211,-0.3283193707466125,0.047886922955513
1630937511895,0.1384877413511276,-0.4723233878612518,-0.2925582826137543,0.0867248848080635
1630937512023,0.2046002894639969,-0.5022579431533813,-0.2676622569561004,0.1078175827860832
1630937512108,0.2902328968048095,-0.5518632531166077,-0.2538442313671112,0.1127508729696273
1630937512216,0.3656443059444427,-0.6059538125991821,-0.2485529333353042,0.1126721948385238
1630937512308,0.4124954640865326,-0.6419071555137634,-0.2501810193061828,0.1177516132593154
1630937512395,0.4350613057613373,-0.647485613822937,-0.2583076655864715,0.1289501190185547
1630937512484,0.4403469562530517,-0.6316570043563843,-0.2700669467449188,0.1395533680915832
1630937512643,0.434316486120224,-0.6065290570259094,-0.2786338031291961,0.1425864845514297
1630937512755,0.419776439666748,-0.5805598497390747,-0.2801368534564972,0.138817012310028
1630937512815,0.4050142765045166,-0.5559770464897156,-0.2769885957241058,0.1327040791511535
1630937512911,0.398685872554779,-0.5321971774101257,-0.2752531766891479,0.1293356716632843
1630937512997,0.4054602682590484,-0.5129019618034363,-0.2833715975284576,0.1299939453601837
1630937513109,0.4178742170333862,-0.5026978254318237,-0.3066763281822204,0.1314073652029037
1630937513243,0.4271221756935119,-0.5036160945892334,-0.345549076795578,0.1313534528017044
1630937513376,0.4226946234703064,-0.5130945444107056,-0.3941229283809662,0.1273803263902664
1630937513430,0.3987267613410949,-0.5237005949020386,-0.4443138241767883,0.1181801632046699
1630937513546,0.3506131768226623,-0.5181863307952881,-0.4945825040340423,0.1067900881171226
1630937513611,0.2803121209144592,-0.473256915807724,-0.5434551239013672,0.1016254872083664
1630937513694,0.2038650661706924,-0.3793199062347412,-0.5823259949684143,0.1077160537242889
1630937513859,0.137847289443016,-0.2667662501335144,-0.5956313610076904,0.1179389953613281
1630937513948,0.0965723544359207,-0.1738623082637787,-0.5798695683479309,0.1278305351734161
1630937514067,0.0845882222056388,-0.1116798669099807,-0.5470793843269348,0.1361726224422454
1630937514123,0.0999779403209686,-0.0729923918843269,-0.5115134716033936,0.1468737572431564
1630937514212,0.1285237520933151,-0.0456103086471557,-0.4802767634391784,0.1580796241760254
1630937514305,0.1576707661151886,-0.0238270945847034,-0.455437958240509,0.1641030460596084
1630937514440,0.1736400425434112,-0.0094520095735788,-0.4353354275226593,0.1629781424999237
1630937514570,0.1644738018512725,-0.0040370454080402,-0.4154430627822876,0.1558225154876709
1630937514642,0.1325549632310867,-0.0056751552037894,-0.3922255039215088,0.1402549296617508
1630937514729,0.0903954654932022,-0.0103483805432915,-0.3644832670688629,0.1110686436295509
1630937514820,0.0704863891005516,-0.0143247609958052,-0.3340104818344116,0.0712805837392807
1630937514954,0.0921953320503234,-0.0164801757782697,-0.2949227094650268,0.0353921130299568
1630937515079,0.1425173282623291,-0.0200460385531187,-0.2425629049539566,0.0155118815600872
1630937515182,0.186982199549675,-0.0334036685526371,-0.1854391247034073,0.0032297354191541
1630937515267,0.2044891119003296,-0.0694913938641548,-0.1412905752658844,-0.0171576645225286
1630937515375,0.202617809176445,-0.1355858147144317,-0.1208539009094238,-0.045005053281784
1630937515448,0.1882807165384292,-0.2229613959789276,-0.1199458017945289,-0.0759813860058784
1630937515532,0.1699950695037841,-0.3089253604412079,-0.1274951249361038,-0.1034377217292785
1630937515738,0.1552730649709701,-0.3728814721107483,-0.1356442123651504,-0.1322405189275741
1630937515808,0.1476822644472122,-0.415617436170578,-0.14186692237854,-0.1636421084403991
1630937515895,0.1564686298370361,-0.4513165652751922,-0.143786072731018,-0.1896137446165084
1630937515957,0.1843417435884475,-0.4822345077991485,-0.139121264219284,-0.198044940829277
1630937516076,0.2204959541559219,-0.4910154938697815,-0.1280410289764404,-0.1897396147251129
1630937516170,0.2492778003215789,-0.4575859308242798,-0.1162179708480835,-0.1712528616189956
1630937516274,0.2666967809200287,-0.3868336677551269,-0.110721930861473,-0.1513073146343231
1630937516389,0.267972320318222,-0.3077340126037597,-0.1148998513817787,-0.1347116082906723
1630937516475,0.2520706355571747,-0.2462290674448013,-0.1324906200170517,-0.128077358007431
1630937516584,0.2174128890037536,-0.2104654461145401,-0.165146067738533,-0.1346019208431244
1630937516671,0.1768260300159454,-0.1953040212392807,-0.20451021194458,-0.1527237445116043
1630937516767,0.1561560332775116,-0.1867676228284835,-0.2174762189388275,-0.1708110719919204
1630937516905,0.1856999695301056,-0.1747765094041824,-0.1754978001117706,-0.1782986968755722
1630937516997,0.2579009532928467,-0.1542733609676361,-0.0980003327131271,-0.1645430028438568
1630937517134,0.2783500254154205,-0.1293891817331314,-0.0780907124280929,-0.1615950167179107
1630937517189,0.2978925704956054,-0.114169918000698,-0.0555865950882434,-0.15786112844944
1630937517271,0.3113686442375183,-0.1031422466039657,-0.0333098024129867,-0.1526257097721099
1630937517369,0.310829758644104,-0.0915688276290893,-0.0121738044545054,-0.1447373479604721
1630937517545,0.2923131883144378,-0.075077086687088,0.0063785500824451,-0.1378592997789383
1630937517612,0.2620940506458282,-0.0574297197163105,0.0207738485187292,-0.1349378228187561
1630937517683,0.2395721673965454,-0.0506967604160308,0.0329055078327655,-0.1361415833234787
1630937517770,0.2398981750011444,-0.0659553632140159,0.0494174547493457,-0.141092374920845
1630937517886,0.2701209187507629,-0.1048028916120529,0.077893242239952,-0.1519195735454559
1630937517978,0.3235454559326172,-0.1530185341835022,0.3799185752868652,-0.1641155183315277
1630937518129,0.3990170955657959,-0.1867121160030365,0.6361130475997925,-0.1722164303064346
1630937518192,0.3990170955657959,-0.1862818002700805,0.8124403953552246,-0.1722164303064346
1630937518304,0.3990170955657959,-0.1862818002700805,0.9101611971855164,-0.1722164303064346
1630937518419,0.3990170955657959,-0.1862818002700805,0.95243102312088,-0.1722164303064346
1630937518513,0.3990170955657959,-0.1862818002700805,1.0112617015838623,-0.1722164303064346
1630937518614,0.3990170955657959,-0.1862818002700805,1.0112617015838623,-0.1722164303064346
1630937518763,0.3990170955657959,-0.1862818002700805,1.0112617015838623,-0.1722164303064346
1630937518849,0.3990170955657959,-0.1862818002700805,1.0112617015838623,-0.1722164303064346
1630937518914,0.3990170955657959,-0.1862818002700805,1.0112617015838623,-0.1722164303064346
1630937519003,0.3990170955657959,-0.1862818002700805,1.0112617015838623,-0.1722164303064346
1630937519086,0.3990170955657959,-0.1862818002700805,1.0112617015838623,-0.1722164303064346
1630937519181,0.3990170955657959,-0.1862818002700805,1.0112617015838623,-0.1722164303064346
1630937519338,0.3990170955657959,-0.1862818002700805,0.9520447850227356,-0.1722164303064346
1630937519421,0.3990170955657959,0.493563562631607,0.8933714628219604,-0.1722164303064346
1630937519539,0.3990170955657959,0.4260625541210174,0.8312551379203796,-0.1722164303064346
1630937519624,0.3990170955657959,0.3729744553565979,0.713053286075592,-0.1722164303064346
1630937519738,0.3990170955657959,0.3437399566173553,0.5548115372657776,-0.1722164303064346
1630937519831,0.3990170955657959,0.3488099575042724,0.4659096300601959,0.7858433127403259
1630937519934,0.9365098476409912,0.2903704345226288,0.5246025323867798,0.9222001433372498
1630937520032,1.0062220096588137,0.3115215897560119,0.6229750514030457,0.9222001433372498
1630937520117,1.017844557762146,0.3402436375617981,0.655349850654602,0.9222001433372498
1630937520232,0.9909690618515016,0.3380339443683624,0.6446395516395569,0.9222001433372498
1630937520320,0.9540416598320008,0.3196180462837219,0.6170556545257568,0.9222001433372498
1630937520449,0.9273238182067872,0.2956088185310364,0.5877296328544617,0.8616107702255249
1630937520541,0.9139861464500428,0.2699640095233917,0.5596933960914612,0.8210286498069763
1630937520629,0.90540611743927,0.2431845068931579,0.5324350595474243,0.7918698191642761
1630937520749,0.8923975229263306,0.2174162417650222,0.5062596797943115,0.7626990675926208
1630937520834,0.8738089799880981,0.1844490319490432,0.4879197776317596,0.7305030822753906
1630937520973,0.8531091809272766,0.167350947856903,0.4826036691665649,0.6977856755256653
1630937521037,0.8327639698982239,0.1582324057817459,0.4830152094364166,0.688159167766571
1630937521165,0.8326379060745239,0.1500627249479293,0.4797771871089935,0.6684457659721375
1630937521235,0.8197399377822876,0.1306541264057159,0.4569104015827179,0.6161239147186279
1630937521352,0.781631588935852,0.082926332950592,0.3898317217826843,0.4862520098686218
1630937521457,0.7120853662490845,-0.0049298810772597,0.2569451928138733,0.1835091263055801
1630937521559,0.627360463142395,-0.1273404657840728,0.0580841787159442,0.1581305265426635
1630937521635,0.5592517852783203,-0.2530010938644409,-0.1558713614940643,0.1488836109638214
1630937521783,0.5330832600593567,-0.323849469423294,-0.265065461397171,0.1685198247432708
1630937521922,0.529222846031189,-0.3167870044708252,-0.2408804148435592,0.2088749855756759
1630937521974,0.5184589624404907,-0.268465518951416,-0.1772429943084716,0.2477219849824905
1630937522037,0.4889237582683563,-0.2236467450857162,-0.1290978342294693,0.2585081160068512
1630937522156,0.4458734095096588,-0.1986143738031387,-0.1067092195153236,0.2414839565753936
1630937522262,0.4045135974884033,-0.192823588848114,-0.1025633588433265,0.2164950370788574
1630937522380,0.3741943538188934,-0.1964120119810104,-0.1063747853040695,0.1968033909797668
1630937522466,0.35135218501091,-0.2047086656093597,-0.1114244386553764,0.1828008294105529
1630937522560,0.3341885805130005,-0.2174416631460189,-0.1128758341073989,0.1735821664333343
1630937522670,0.3210216760635376,-0.2314781248569488,-0.1071601137518882,0.1689279377460479
1630937522776,0.315332680940628,-0.2420049458742141,-0.0957070514559745,0.1719149202108383
1630937522870,0.3158451616764068,-0.2484447658061981,-0.0843615755438804,0.1841738671064376
1630937523002,0.3169013261795044,-0.2546994090080261,-0.0770991146564483,0.2042773365974426
1630937523084,0.313092440366745,-0.2645919919013977,-0.0742326006293296,0.2271490097045898
1630937523208,0.3006515204906463,-0.2811585664749145,-0.0786341279745101,0.2450345158576965
1630937523273,0.2811470627784729,-0.3183278143405914,-0.1032796278595924,0.2485560625791549
1630937523364,0.2637611031532287,-0.3911711871623993,-0.1610931456089019,0.2340080738067627
1630937523472,0.2499579489231109,-0.5010588765144348,-0.2484154552221298,0.2047447711229324
1630937523613,0.2387584745883941,-0.6193055510520935,-0.3372734189033508,0.1741634607315063
1630937523707,0.2294533848762512,-0.6982336640357971,-0.3907907009124756,0.1535831540822982
1630937523789,0.2297083586454391,-0.723524808883667,-0.4052581191062927,0.1507662683725357
1630937523875,0.2407468557357788,-0.7247517704963684,-0.4081267416477203,0.1611811369657516
1630937523963,0.2562865316867828,-0.716498613357544,-0.4190402328968048,0.173681154847145
1630937524105,0.2649748921394348,-0.6981833577156067,-0.4453063607215881,0.1775397062301635
1630937524231,0.2618085443973541,-0.6714676022529602,-0.4867180585861206,0.1730428487062454
1630937524324,0.2467708885669708,-0.6430352926254272,-0.535130500793457,0.1636142283678054
1630937524402,0.2237011194229126,-0.6205809116363525,-0.574332594871521,0.1517579555511474
1630937524479,0.2007255256175995,-0.6097968220710754,-0.5871365666389465,0.1373032182455063
1630937524570,0.183016687631607,-0.6110060811042786,-0.571624755859375,0.1193658709526062
1630937524711,0.1752230077981948,-0.6181275844573975,-0.5406099557876587,0.0997991785407066
1630937524817,0.1729257404804229,-0.6212236881256104,-0.50888991355896,0.0814434140920639
1630937524933,0.1690224856138229,-0.616780698299408,-0.4850826263427734,0.0693539753556251
1630937525000,0.1615822464227676,-0.6065738201141357,-0.4700641334056854,0.0703544542193412
1630937525110,0.1537244468927383,-0.5912652015686035,-0.4607931077480316,0.0813045129179954
1630937525222,0.1487493515014648,-0.5718502402305603,-0.4539285004138946,0.0943945422768592
1630937525306,0.1380633413791656,-0.5542464852333069,-0.4459463953971863,0.0989448800683021
1630937525438,0.1171485260128974,-0.5437847375869751,-0.4357188045978546,0.0956473723053932
1630937525512,0.0941246002912521,-0.541812002658844,-0.423753410577774,0.0925450026988983
1630937525623,0.0807044729590416,-0.5431727766990662,-0.4129197299480438,0.0955694243311882
1630937525737,0.0749918818473815,-0.5451072454452515,-0.4048184156417846,0.1014697328209877
1630937525819,0.0702723935246467,-0.546951174736023,-0.3993825912475586,0.1046061441302299
1630937525884,0.0614514239132404,-0.5482322573661804,-0.3953637778759002,0.1017142683267593
1630937526027,0.0503554828464984,-0.5446804165840149,-0.3949662446975708,0.0940877273678779
1630937526140,0.0408377386629581,-0.5345386266708374,-0.4014434218406677,0.0859556198120117
1630937526220,0.0368039458990097,-0.5208318829536438,-0.4180952906608581,0.0760716572403907
1630937526338,0.0402235947549343,-0.5096960663795471,-0.4431216418743133,0.0581720061600208
1630937526450,0.0421668551862239,-0.5061513781547546,-0.4653176069259643,0.0261906888335943
1630937526520,0.0355964601039886,-0.5115270614624023,-0.4654602706432342,-0.0188099835067987
1630937526655,0.0191328097134828,-0.5221470594406128,-0.4314759075641632,-0.0656479597091674
1630937526740,0.0017016835045069,-0.5299996137619019,-0.3744851946830749,-0.1000337451696395
1630937526836,-0.0028768156189471,-0.5245546698570251,-0.3200139105319977,-0.1196059212088584
1630937526916,0.0068085812963545,-0.5011205673217773,-0.2829095125198364,-0.1331173777580261
1630937527036,0.0172627214342355,-0.4635480642318725,-0.2649391293525696,-0.1471997648477554
1630937527117,0.019715404137969,-0.4238138794898987,-0.2594464719295501,-0.1635757684707641
1630937527270,0.0127918422222137,-0.3914884328842163,-0.2595955431461334,-0.179799348115921
1630937527348,-0.001661024056375,-0.3713743388652801,-0.2611162662506103,-0.1935480684041977
1630937527456,-0.0174465049058198,-0.3627027571201324,-0.2635291218757629,-0.198957934975624
1630937527567,-0.0279317125678062,-0.3626896440982818,-0.2657033205032348,-0.1912179291248321
1630937527664,-0.0300955306738615,-0.3681710362434387,-0.267656147480011,-0.1750015467405319
1630937527736,-0.0329388193786144,-0.3765091598033905,-0.2683629095554352,-0.1609991788864135
1630937527855,-0.0395009256899356,-0.384983092546463,-0.2668356597423553,-0.1562204957008361
1630937527969,-0.0383570976555347,-0.392406165599823,-0.2659080922603607,-0.156667411327362
1630937528078,-0.0229593943804502,-0.3959055542945862,-0.2757676243782043,-0.1554970741271972
1630937528147,0.0007300414727069,-0.3938756287097931,-0.3089738488197326,-0.154788076877594
1630937528238,0.0205114595592021,-0.3857081830501556,-0.3720119297504425,-0.1613406091928482
1630937528330,0.0369337797164917,-0.3749139010906219,-0.455112099647522,-0.173729583621025
1630937528480,0.0559398308396339,-0.3664842247962951,-0.5355169177055359,-0.1859812289476394
1630937528574,0.078506126999855,-0.3688580691814422,-0.5886136889457703,-0.1901115626096725
1630937528662,0.0997310057282447,-0.3868210017681122,-0.6095407009124756,-0.1818798929452896
1630937528775,0.1190863028168678,-0.4175773859024048,-0.6107901334762573,-0.1629820764064788
1630937528863,0.1366898864507675,-0.4506459832191467,-0.606046736240387,-0.1405068337917328
1630937528974,0.1508611440658569,-0.4738155901432037,-0.6010555028915405,-0.1236762851476669
1630937529087,0.1610633134841919,-0.4811492562294006,-0.6003482937812805,-0.1181354373693466
1630937529200,0.1651396751403808,-0.474945604801178,-0.6024157404899597,-0.1247632429003715
1630937529286,0.1636866480112075,-0.463324099779129,-0.6057764887809753,-0.1397385895252227
1630937529376,0.1558033227920532,-0.4545846283435821,-0.6114829182624817,-0.152602881193161
1630937529474,0.1427396684885025,-0.4486738741397857,-0.6226579546928406,-0.1551433950662613
1630937529555,0.1322622448205948,-0.4404035806655884,-0.635787308216095,-0.1443324834108352
1630937529690,0.1355508714914322,-0.4252122342586517,-0.6391162276268005,-0.1184586361050605
1630937529802,0.1589067131280899,-0.3991508781909942,-0.6134704351425171,-0.0787594988942146
1630937529896,0.1912098526954651,-0.3640587925910949,-0.5591236352920532,-0.0323965996503829
1630937529985,0.2214552760124206,-0.3329568803310394,-0.4924901723861694,0.0150452367961406
1630937530079,0.2468778640031814,-0.3126581907272339,-0.4298107624053955,0.0594789907336235
1630937530181,0.272610604763031,-0.2979296445846557,-0.3802954256534576,0.1006138026714325
1630937530313,0.3003408312797546,-0.2790101766586303,-0.3441157639026642,0.1390058845281601
1630937530430,0.3339453041553497,-0.2526943683624267,-0.3181337416172027,0.1790702939033508
1630937530498,0.3699083924293518,-0.2272005230188369,-0.301023930311203,0.2250279188156128
1630937530588,0.4019115567207336,-0.2125496119260788,-0.2917100489139557,0.273232489824295
1630937530677,0.4300188422203064,-0.209176018834114,-0.2927530705928802,0.3132932782173157
1630937530767,0.4566894471645355,-0.2119974493980407,-0.303307443857193,0.336926519870758
1630937530898,0.4799028635025024,-0.2140445858240127,-0.3177809715270996,0.3435976803302765
1630937530986,0.494889497756958,-0.2114120423793792,-0.3268077969551086,0.3394080400466919
1630937531104,0.4991815984249115,-0.1963822096586227,-0.3239067196846008,0.3319461643695831
1630937531236,0.494082510471344,-0.189148798584938,-0.3112773597240448,0.3422881364822387
1630937531297,0.4823346436023712,-0.1974823027849197,-0.2995822727680206,0.3511875867843628
1630937531391,0.4677185416221618,-0.2258686125278473,-0.293048232793808,0.3589125871658325
1630937531529,0.4518261551856994,-0.2673690021038055,-0.2850347459316253,0.359117329120636
1630937531616,0.4358681440353393,-0.306459367275238,-0.2717903554439544,0.3501344621181488
1630937531700,0.4195056855678558,-0.3345630764961242,-0.2590439021587372,0.3352360427379608
1630937531791,0.4046044051647186,-0.3615670800209045,-0.2536747753620147,0.3251740336418152
1630937531905,0.3964942395687103,-0.4093794226646423,-0.2437588572502136,0.3269098997116089
1630937531986,0.3974984586238861,-0.4864538013935089,-0.2086668461561203,0.3309706747531891
1630937532129,0.4046034216880798,-0.5692768692970276,-0.1516648083925247,0.3255021572113037
1630937532245,0.4020032882690429,-0.5692768692970276,-0.0926625579595565,0.3097996711730957
1630937532323,0.3851025700569153,-0.5692768692970276,-0.0469469688832759,0.298252522945404
1630937532401,0.3630815148353576,-0.5692768692970276,-0.0174509808421134,0.3013963401317596
1630937532495,0.3542159795761108,-0.5692768692970276,-0.0020747475791722,0.3130062818527221
1630937532618,0.3627540469169616,-0.2934849858283996,0.000905811029952,0.3201219439506531
1630937532731,0.3771071135997772,-0.2793196737766266,-0.0060912631452083,0.2993886470794678
1630937532829,0.3860662579536438,-0.2673056721687317,-0.0196680575609207,0.2784650921821594
1630937532930,0.3864124119281769,-0.2705778479576111,-0.0390485003590583,0.2596483528614044
1630937533022,0.3810045123100281,-0.2892811894416809,-0.067523255944252,0.2408385127782821
1630937533115,0.3714779019355774,-0.3156541287899017,-0.1043479889631271,0.2282983362674713
1630937533240,0.3584979176521301,-0.3390949666500091,-0.1392401158809662,0.21573506295681
1630937533349,0.3424997627735138,-0.3529414534568786,-0.1587737500667572,0.1923518627882003
1630937533472,0.3178923428058624,-0.3575566709041595,-0.1700806617736816,0.1529875695705413
1630937533579,0.283132940530777,-0.3581700921058655,-0.1970901936292648,0.108038529753685
1630937533663,0.2418008744716644,-0.3593007922172546,-0.2541961371898651,0.0720084384083747
1630937533748,0.2119205892086029,-0.3625809252262115,-0.3379108011722564,0.0506895072758197
1630937533828,0.1971569955348968,-0.3807316720485687,-0.4263069033622741,0.0343754850327968
1630937533987,0.1899437010288238,-0.3875773847103119,-0.4871506989002228,0.0144210653379559
1630937534082,0.1684806644916534,-0.3945404887199402,-0.4960123300552368,-0.006915598642081
1630937534165,0.1309999078512191,-0.4101034104824066,-0.4519828557968139,-0.0201357472687959
1630937534262,0.0880916863679885,-0.4402157068252563,-0.3749344944953918,-0.0196733046323061
1630937534360,0.0509985387325286,-0.4742806255817413,-0.293426513671875,0.0006849357159808
1630937534408,0.020957838743925,-0.487920194864273,-0.2281734347343444,0.0376810580492019
1630937534565,-0.004323546309024,-0.4667249023914337,-0.1811925172805786,0.0818642526865005
1630937534678,-0.0171407889574766,-0.4244617223739624,-0.1494248807430267,0.1230004802346229
1630937534745,-0.0132239637896418,-0.3832767009735107,-0.1323660612106323,0.1512605994939804
1630937534858,-0.0018902521114796,-0.350818008184433,-0.125563383102417,0.1648928076028823
1630937534950,-0.0022264099679887,-0.3203542828559875,-0.1264510750770568,0.1643180847167968
1630937535034,-0.0158987361937761,-0.2797529697418213,-0.1267052590847015,0.1502125859260559
1630937535210,-0.0245073046535253,-0.2287859320640564,-0.118951141834259,0.1277461349964141
1630937535304,-0.0073884418234229,-0.1801183819770813,-0.1036721393465995,0.1072208285331726
1630937535374,0.0307966526597738,-0.146180972456932,-0.088739201426506,0.0966172218322753
1630937535468,0.0638000294566154,-0.12924525141716,-0.0807308703660965,0.0967223867774009
1630937535549,0.0839291214942932,-0.1227722913026809,-0.0824279561638832,0.1019583642482757
1630937535641,0.0927645042538642,-0.1196631789207458,-0.0926181748509407,0.1032507047057151
1630937535804,0.0995747372508049,-0.1177124977111816,-0.1134830191731453,0.0937743633985519
1630937535875,0.1072859615087509,-0.1187008991837501,-0.1459938287734985,0.0679742023348808
1630937535978,0.1189362853765487,-0.1249484792351722,-0.1825304925441742,0.021456578746438
1630937536083,0.1350902020931244,-0.1369910687208175,-0.2143909037113189,-0.0472440272569656
1630937536151,0.1594601422548294,-0.1514907479286193,-0.2362462878227234,-0.1320942193269729
1630937536290,0.188051626086235,-0.1642188429832458,-0.2433408945798874,-0.2084976285696029
1630937536398,0.2122971415519714,-0.1752574890851974,-0.2416637986898422,-0.2528336346149444
1630937536495,0.2251999229192733,-0.1899864375591278,-0.236272856593132,-0.2589315474033355
1630937536582,0.2257657945156097,-0.2175855785608291,-0.2371661365032196,-0.238036572933197
1630937536672,0.2119418382644653,-0.2609014809131622,-0.2516533732414245,-0.2015355080366134
1630937536782,0.1809665411710739,-0.3086234629154205,-0.2762099504470825,-0.164565309882164
1630937536889,0.1390242874622345,-0.3368940651416778,-0.300821453332901,-0.1429289877414703
1630937537007,0.1030046641826629,-0.3333411514759063,-0.3193483054637909,-0.1411005407571792
1630937537094,0.0893404930830001,-0.3098867535591125,-0.3263096511363983,-0.143092080950737
1630937537181,0.1007343679666519,-0.283425897359848,-0.3198188245296478,-0.1170757561922073
1630937537280,0.1368507146835327,-0.2594107091426849,-0.3020522892475128,-0.0539351440966129
1630937537406,0.1987114250659942,-0.2387817054986953,-0.2815436422824859,0.0195973813533782
1630937537498,0.270130306482315,-0.2240369319915771,-0.2684888541698456,0.0740919783711433
1630937537608,0.3292700350284576,-0.2172303199768066,-0.2674919068813324,0.1026782244443893
1630937537701,0.3618992865085602,-0.2160736471414566,-0.2745377719402313,0.1126762777566909
1630937537807,0.3709331750869751,-0.2171666026115417,-0.2853063642978668,0.1147494465112686
1630937537923,0.3732045590877533,-0.2206895500421524,-0.2988688051700592,0.1147857308387756
1630937537988,0.3813554942607879,-0.2291188687086105,-0.3140610754489898,0.1176342815160751
1630937538073,0.3936845064163208,-0.242343783378601,-0.3252694010734558,0.1280574053525924
1630937538229,0.406582772731781,-0.2555577754974365,-0.3225750029087066,0.1455620974302292
1630937538326,0.4175043404102325,-0.2639031410217285,-0.3036713898181915,0.167256474494934
1630937538409,0.4227843284606933,-0.2713495194911957,-0.2747209072113037,0.1912526786327362
1630937538500,0.4216096699237823,-0.285721868276596,-0.2468588799238205,0.2135817408561706
1630937538630,0.4148681163787842,-0.3108237385749817,-0.2313112318515777,0.2299316674470901
1630937538708,0.4024913907051086,-0.3454249203205108,-0.234163224697113,0.240469291806221
1630937538842,0.3793160319328308,-0.382663369178772,-0.2522417306900024,0.2514993250370025
1630937538929,0.3369206190109253,-0.4145611524581909,-0.2747274041175842,0.268756091594696
1630937539033,0.2719186544418335,-0.4367103278636932,-0.290883868932724,0.2926002740859985
1630937539124,0.1932174414396286,-0.4489488899707794,-0.2984714806079864,0.315305233001709
1630937539220,0.1197953596711158,-0.4577069580554962,-0.303313672542572,0.3325031399726867
1630937539304,0.0682861879467964,-0.4655850231647491,-0.3076450228691101,0.3430430889129638
1630937539474,0.0328906141221523,-0.4631950855255127,-0.3119613230228424,0.3467340767383575
1630937539531,0.0018411616329103,-0.4445389211177826,-0.3178149461746216,0.3436576426029205
1630937539641,-0.0267352145165205,-0.4188486635684967,-0.3272660076618194,0.3351879715919494
1630937539734,-0.055841889232397,-0.4039295613765716,-0.341963917016983,0.3229470252990722
1630937539826,-0.0771208330988884,-0.4081282317638397,-0.3592319786548614,0.3102815449237823
1630937539910,-0.0644877403974533,-0.4227654039859772,-0.3738791346549988,0.3022713959217071
1630937540041,-0.0145306997001171,-0.4316079616546631,-0.3781704008579254,0.3030580878257751
1630937540132,0.0566554814577102,-0.4257792830467224,-0.3690217137336731,0.3107363283634186
1630937540248,0.126660406589508,-0.4100594222545624,-0.3533110618591308,0.3161163926124573
1630937540358,0.1794663071632385,-0.3966355621814728,-0.3413869142532348,0.3139739334583282
1630937540424,0.213120624423027,-0.3908251225948334,-0.3378439545631408,0.3097612559795379
1630937540556,0.2341573983430862,-0.3895531892776489,-0.3383749127388,0.3117684721946716
1630937540655,0.2502651810646057,-0.3841844499111175,-0.3316379189491272,0.3229565918445587
1630937540790,0.2700375616550445,-0.3557091951370239,-0.2964579164981842,0.3447440564632416
1630937540875,0.3043930530548095,-0.2902889847755432,-0.2121459543704986,0.3880659937858581
1630937540959,0.3545792400836944,-0.202291339635849,-0.0949799045920372,0.4536178112030029
1630937541028,0.4229553341865539,-0.1203430518507957,0.0161393098533153,0.5219577550888062
1630937541122,0.49867844581604,-0.0618852749466896,0.095353752374649,0.5701759457588196
1630937541276,0.5705837607383728,-0.0226544477045536,0.1389098316431045,0.5941320061683655
1630937541363,0.6308926343917847,0.0173214059323072,0.1578269749879837,0.6039201617240906
1630937541471,0.6730169057846069,0.0716589763760566,0.1649439334869384,0.6192954182624817
1630937541544,0.6891138553619385,0.1338779926300048,0.1669769883155822,0.6354396939277649
1630937541657,0.7012758851051331,0.1861608177423477,0.1671633124351501,0.6527578234672546
1630937541746,0.7120963335037231,0.2178374826908111,0.168023332953453,0.6714065670967102
1630937541879,0.7269120812416077,0.2313470691442489,0.1709551960229873,0.6891205310821533
1630937541968,0.717294454574585,0.2347915023565292,0.1751389056444168,0.7023656368255615
1630937542062,0.7111552953720093,0.234682947397232,0.1778155863285064,0.7128218412399292
1630937542173,0.7076097130775452,0.2317865639925003,0.1768868565559387,0.6849201917648315
1630937542258,0.7036705017089844,0.2231171131134033,0.166726678609848,0.6577587127685547
1630937542372,0.6910637021064758,0.2033911943435669,0.1346096843481063,0.6113760471343994
1630937542484,0.6630025506019592,0.1690065264701843,0.0706821829080581,0.5266320109367371
1630937542574,0.6105446219444275,0.1240474879741668,-0.0216126888990402,0.4004914164543152
1630937542663,0.5310059189796448,0.0791071653366088,-0.1186710968613624,0.2653677761554718
1630937542775,0.4242710769176483,0.0410170033574104,-0.1878695338964462,0.1652640700340271
1630937542858,0.2926998138427734,-0.0018026325851678,-0.2246404290199279,0.0982604920864105
1630937542974,0.1503323018550872,-0.0713544636964798,-0.2466220706701278,0.1015253961086273
1630937543112,0.172900378704071,-0.1829555183649063,-0.264380007982254,0.1039632782340049
1630937543195,0.1966246366500854,-0.3280824720859527,-0.2799039781093597,0.1108011528849601
1630937543314,0.215178444981575,-0.461170494556427,-0.2986502945423126,0.1200698912143707
1630937543373,0.2276166081428527,-0.5235565900802612,-0.3239902257919311,0.1290683299303054
1630937543467,0.2439926862716674,-0.5114944577217102,-0.34835085272789,0.1337256580591201
1630937543579,0.2593407332897186,-0.4716271460056305,-0.3530344069004059,0.1340809166431427
1630937543716,0.2746174335479736,-0.4346485435962677,-0.3318447470664978,0.1325150281190872
1630937543810,0.2865022420883178,-0.4144442975521087,-0.2958962321281433,0.1332128793001175
1630937543911,0.3012669384479522,-0.41288822889328,-0.2618365585803985,0.144579604268074
1630937543988,0.3201538324356079,-0.423154205083847,-0.2400575429201126,0.1610336303710937
1630937544091,0.3378627896308899,-0.4372119307518005,-0.2340380698442459,0.1704907715320587
1630937544153,0.3487689793109894,-0.443231850862503,-0.2421367168426513,0.1699365079402923
1630937544323,0.3513121604919433,-0.4370780885219574,-0.257194459438324,0.1649857312440872
1630937544407,0.3449278771877289,-0.4210132360458374,-0.2681112885475158,0.1638398468494415
1630937544534,0.3496406674385071,-0.3938149213790893,-0.2710680961608886,0.1665626019239425
1630937544614,0.3484208881855011,-0.3478093147277832,-0.2707971632480621,0.1698298156261444
1630937544698,0.3427824676036834,-0.2868580222129822,-0.2714873254299164,0.1694634407758712
1630937544781,0.3367922604084015,-0.2300168871879577,-0.2683289647102356,0.1795185506343841
1630937544924,0.3330791294574737,-0.1968006789684295,-0.2580201327800751,0.1666973382234573
1630937545016,0.3081992566585541,-0.1915569305419922,-0.247380793094635,0.1501686871051788
1630937545124,0.2917088568210602,-0.2050599604845047,-0.2455606162548065,0.1468143761157989
1630937545209,0.2899713814258575,-0.2209792882204055,-0.2535139918327331,0.1603452265262603
1630937545329,0.3059115707874298,-0.2249399125576019,-0.2660189568996429,0.1769369542598724
1630937545438,0.3208979368209839,-0.2131129652261734,-0.2787809371948242,0.1862168759107589
1630937545541,0.3231104910373688,-0.1931934058666229,-0.2905657291412353,0.1951194554567337
1630937545665,0.3215742707252502,-0.1755900382995605,-0.3012203872203827,0.1928737759590149
1630937545729,0.3339340090751648,-0.1671706140041351,-0.3071652054786682,0.1935998201370239
1630937545815,0.3669062852859497,-0.1688015908002853,-0.307626724243164,0.1982917785644531
1630937545904,0.4096974432468414,-0.1765524595975875,-0.3075001537799835,0.1990565061569214
1630937545994,0.4179259836673736,-0.1861078441143036,-0.3120755851268768,0.1855092793703079
1630937546155,0.4184080362319946,-0.1988996565341949,-0.3172169625759125,0.1695150136947631
1630937546247,0.4247698783874511,-0.2077658474445343,-0.3121295273303985,0.1647091060876846
1630937546333,0.4456149935722351,-0.1931564211845398,-0.277629941701889,0.1712325066328048
1630937546443,0.471426397562027,-0.147261768579483,-0.2162565439939499,0.2227747440338134
1630937546558,0.5101842284202576,-0.0911204814910888,-0.1537149101495742,0.285561054944992
1630937546621,0.5338844656944275,-0.0491930767893791,-0.1131087839603424,0.3326366543769836
1630937546764,0.5404806137084961,-0.0309937503188848,-0.101877637207508,0.3574049770832062
1630937546844,0.5382598638534546,-0.0302796680480241,-0.110767550766468,0.3669207990169525
1630937546929,0.5365360379219055,-0.0359744168817997,-0.1244446113705635,0.3697897791862488
1630937547018,0.5402935147285461,-0.0395099557936191,-0.1338373273611068,0.3667769730091095
1630937547112,0.5434427857398987,-0.0367496684193611,-0.1357273906469345,0.3582278788089752
1630937547223,0.5511369705200195,-0.0282702539116144,-0.1329883635044098,0.3516916632652282
1630937547398,0.5554947853088379,-0.0171363987028598,-0.1292657852172851,0.3491734862327575
1630937547466,0.5330660939216614,-0.0074172504246234,-0.1243908181786537,0.356987714767456
1630937547576,0.5168860554695129,-0.0042742853984236,-0.1139800325036048,0.3671391308307647
1630937547648,0.5131047964096069,-0.0097116231918334,-0.0982234328985214,0.3716043531894684
1630937547744,0.5143498778343201,-0.0210486706346273,-0.0847453251481056,0.3679673075675964
1630937547837,0.5165615677833557,-0.0289854276925325,-0.0921960026025772,0.3548576235771179
1630937547984,0.5220150351524353,-0.0235364511609077,-0.1287031322717666,0.333560436964035
1630937548075,0.5294243693351746,-0.0031306166201829,-0.1801691949367523,0.3097026944160461
1630937548166,0.5341813564300537,0.0249604098498821,-0.2175603210926056,0.2903051376342773
1630937548250,0.5341560244560242,0.0509928576648235,-0.2248078733682632,0.2796092927455902
1630937548355,0.5233966112136841,0.067196674644947,-0.2170119732618332,0.27318075299263
1630937548424,0.5017068982124329,0.0710585266351699,-0.2092121541500091,0.2650124430656433
1630937548568,0.4733804166316986,0.0654787421226501,-0.2004311829805374,0.2516781091690063
1630937548663,0.4499106109142303,0.0546307042241096,-0.1885946094989776,0.2385194599628448
1630937548778,0.432369977235794,0.0455373711884021,-0.1732540279626846,0.2367238253355026
1630937548853,0.4208540916442871,0.0437295325100421,-0.156029462814331,0.2512221336364746
1630937548969,0.4298787415027618,0.0517626777291297,-0.1398244798183441,0.278677761554718
1630937549059,0.4352974593639374,0.0668276771903038,-0.1303155720233917,0.3157576322555542
1630937549191,0.4271321892738342,0.0822803080081939,-0.1298913955688476,0.3550252318382263
1630937549276,0.420454204082489,0.0877468362450599,-0.1379632204771042,0.3860462307929992
1630937549399,0.3933115899562835,0.0722511485219001,-0.1487805843353271,0.4011166393756866
1630937549479,0.3401632606983185,0.0400162450969219,-0.1590203493833542,0.4103955030441284
1630937549589,0.2687609493732452,-0.0160864926874637,-0.1648718565702438,0.4137205183506012
1630937549716,0.2036568820476532,-0.0820451006293296,-0.1694615483283996,0.4140268564224243
1630937549818,0.1637718677520752,-0.1339455544948578,-0.1714856624603271,0.4163988530635834
1630937549891,0.1547405868768692,-0.155001163482666,-0.1642387211322784,0.4278522729873657
1630937550007,0.1651375740766525,-0.1462489813566208,-0.1472341567277908,0.4523523151874542
1630937550112,0.1889365017414093,-0.1186643987894058,-0.1274013966321945,0.4911810755729675
1630937550173,0.2196276485919952,-0.0785146728157997,-0.1091410815715789,0.5389271974563599
1630937550292,0.24517822265625,-0.0357556641101837,-0.0948373302817344,0.5810539722442627
1630937550441,0.24517822265625,-0.0009024567552842,-0.0851219221949577,0.6054359674453735
1630937550508,0.24517822265625,0.0144386580213904,-0.0795125067234039,0.6054359674453735
1630937550604,0.24517822265625,0.0144386580213904,-0.0795125067234039,0.6054359674453735
1630937550684,0.24517822265625,0.0144386580213904,-0.0795125067234039,0.6054359674453735
1630937550778,0.24517822265625,0.0144386580213904,-0.0795125067234039,0.6054359674453735
1630937550870,0.24517822265625,0.0144386580213904,-0.0795125067234039,0.6054359674453735
1630937551025,0.24517822265625,0.0144386580213904,-0.0795125067234039,0.6054359674453735
1630937551108,0.24517822265625,0.0144386580213904,-0.0795125067234039,0.6054359674453735
1630937551207,0.24517822265625,0.0144386580213904,-0.0795125067234039,0.6054359674453735
1630937551296,0.24517822265625,0.0144386580213904,-0.0795125067234039,0.6054359674453735
1630937551412,0.24517822265625,0.5505632162094116,0.1999773830175399,0.6054359674453735
1630937551489,0.24517822265625,0.4653777182102203,0.1313380151987075,0.6054359674453735
1630937551652,0.24517822265625,0.3893170654773712,0.0687426179647445,0.983815848827362
1630937551741,0.24517822265625,0.3251338303089142,0.0182855613529682,0.8990666270256042
1630937551829,0.8872772455215454,0.2707943618297577,-0.0227455347776412,0.8276716470718384
1630937551916,0.7928007245063782,0.2241441458463668,-0.0575475804507732,0.7661502361297607
1630937551997,0.7167337536811829,0.1834909915924072,-0.0861079692840576,0.7126761078834534
1630937552122,0.6558538675308228,0.1478405892848968,-0.1070341318845748,0.6658114194869995
1630937552229,0.6089239120483398,0.1159669831395149,-0.1216186583042144,0.6240745782852173
1630937552321,0.5807179808616638,0.0865822732448577,-0.1348753571510315,0.5863242149353027
1630937552431,0.5707058906555176,0.0593113750219345,-0.150596484541893,0.5515139102935791
1630937552522,0.5703502297401428,0.0352580100297927,-0.1679575145244598,0.519063413143158
1630937552621,0.5672428011894226,-0.1047382354736328,-0.2338755428791046,0.4888526201248169
1630937552711,0.5545333027839661,-0.3039258420467376,-0.3250869512557983,0.461844265460968
1630937552861,0.3459301292896271,-0.5120463967323303,-0.4131152629852295,0.1942785233259201
1630937552945,0.1924624890089035,-0.6290087699890137,-0.4674777090549469,-0.0551343970000743
1630937553060,0.1320405304431915,-0.6436914801597595,-0.4903078973293304,-0.1831174939870834
1630937553128,0.1073505505919456,-0.6203697323799133,-0.5049617886543274,-0.1918066143989563
1630937553226,0.0884929746389389,-0.585586667060852,-0.5229076743125916,-0.1420699805021286
1630937553362,0.0978844314813613,-0.5481896996498108,-0.5400664806365967,-0.083640731871128
1630937553477,0.1108546927571296,-0.5174568891525269,-0.5497905611991882,-0.0412621311843395
1630937553556,0.1237538680434227,-0.5002248287200928,-0.5546634793281555,-0.0236585848033428
