timestamp,TP9,AF7,AF8,TP10
1630674781592,0.6867696046829224,0.1169982925057411,0.2378579974174499,0.8123045563697815
1630674781718,0.6867696046829224,0.1123941615223884,0.2373397946357727,0.8123045563697815
1630674781763,0.6867696046829224,0.1108572036027908,0.2395190447568893,0.8085927963256836
1630674781857,0.6867696046829224,0.112350508570671,0.2400159537792205,0.8184154629707336
1630674782029,0.6867696046829224,0.1211060285568237,0.2381259948015213,0.8351366519927979
1630674782114,0.6867696046829224,0.1409550458192825,0.2376188486814499,0.8594011068344116
1630674782203,0.6867696046829224,0.1716648936271667,0.2388955503702163,0.8909270167350769
1630674782285,0.6867696046829224,0.2090946733951568,0.2356185019016266,0.9260317087173462
1630674782377,0.6867696046829224,0.2090946733951568,0.221432626247406,0.9260317087173462
1630674782501,0.6867696046829224,0.2090946733951568,0.221432626247406,0.9260317087173462
1630674782635,0.6867696046829224,0.2090946733951568,0.221432626247406,0.9260317087173462
1630674782719,0.6867696046829224,0.2090946733951568,0.221432626247406,0.9260317087173462
1630674782834,0.6867696046829224,0.2090946733951568,0.221432626247406,0.9260317087173462
1630674782914,0.6867696046829224,0.2090946733951568,0.221432626247406,0.9260317087173462
1630674783025,0.6867696046829224,0.2090946733951568,0.221432626247406,0.9260317087173462
1630674783070,0.6867696046829224,0.2090946733951568,0.221432626247406,0.9260317087173462
1630674783271,0.6867696046829224,0.2090946733951568,0.221432626247406,0.9260317087173462
1630674783320,0.6867696046829224,0.2090946733951568,0.221432626247406,0.9260317087173462
1630674783425,0.6867696046829224,0.2090946733951568,0.221432626247406,0.9260317087173462
1630674783502,0.6867696046829224,0.2090946733951568,0.221432626247406,0.9260317087173462
1630674783603,0.6867696046829224,0.2090946733951568,0.221432626247406,0.9260317087173462
1630674783699,0.6867696046829224,0.2090946733951568,0.221432626247406,0.9260317087173462
1630674783865,0.6867696046829224,0.2090946733951568,0.221432626247406,0.9260317087173462
1630674783929,0.6867696046829224,0.2090946733951568,0.221432626247406,0.9260317087173462
1630674784041,0.6867696046829224,0.2490386813879013,-0.0819387286901474,0.9260317087173462
1630674784119,0.7736779451370239,0.2324515283107757,-0.0939920470118522,0.9260317087173462
1630674784217,0.8319580554962158,0.2117814868688583,-0.1069367155432701,0.62587970495224
1630674784319,0.8701027631759644,0.1930039227008819,-0.1156383603811264,0.62587970495224
1630674784503,0.8862537145614624,0.1789248585700988,-0.1179044768214225,0.62587970495224
1630674784656,0.8742634654045105,0.1763000786304474,-0.1121400520205497,0.626990556716919
1630674784763,0.8613434433937073,0.1808517873287201,-0.1124156415462493,0.6115893721580505
1630674784846,0.850045919418335,0.1800595670938491,-0.1159703284502029,0.5908077955245972
1630674784908,0.8396546840667725,0.1708775609731674,-0.120324045419693,0.5701043009757996
1630674785069,0.8276795148849487,0.1553978770971298,-0.1239618733525276,0.5545298457145691
1630674785148,0.8129701018333435,0.138636440038681,-0.1238593533635139,0.5474555492401123
1630674785244,0.8129701018333435,0.1214340552687645,-0.1244335621595382,0.5474555492401123
1630674785370,0.8256162405014038,0.0991958454251289,-0.1166018992662429,0.5474555492401123
1630674785437,0.836030900478363,0.0774865895509719,-0.1062930226325988,0.539604663848877
1630674785551,0.8383440375328064,0.0622626282274723,-0.0979938730597496,0.5319463610649109
1630674785664,0.8277427554130554,0.0563311055302619,-0.0893193855881691,0.5203269124031067
1630674785760,0.8020510673522949,0.0596601031720638,-0.0760360583662986,0.4860053062438965
1630674785878,0.7645753622055054,0.0743386670947074,-0.0587045140564441,0.4860053062438965
1630674785958,0.7247589826583862,0.0992306321859359,-0.0418372936546802,0.4860053062438965
1630674786071,0.6933973431587219,0.1236706599593162,-0.0304550323635339,0.4860053062438965
1630674786157,0.6745997071266174,0.1359976679086685,-0.0257511567324399,0.4500143229961395
1630674786267,0.6614304780960083,0.1289799809455871,-0.0257502738386392,0.4290103912353515
1630674786438,0.6614304780960083,0.1255515962839126,-0.0270838867872953,0.4290103912353515
1630674786470,0.6614304780960083,0.1318253427743911,-0.0273653343319892,0.4290103912353515
1630674786532,0.6614304780960083,0.1489442288875579,-0.0261452253907918,0.4290103912353515
1630674786660,0.6614304780960083,0.1726665794849395,-0.028450982645154,0.4290103912353515
1630674786737,0.6614304780960083,0.1975159794092178,-0.0387630797922611,0.4290103912353515
1630674786870,0.6614304780960083,0.1984809637069702,-0.0565716922283172,0.4290103912353515
1630674787001,0.6614304780960083,0.1955944746732711,-0.0738705992698669,0.4290103912353515
1630674787086,0.6614304780960083,0.20112144947052,-0.0816065520048141,0.4290103912353515
1630674787171,0.8344598412513733,0.2196212708950042,-0.0792684778571128,0.4290103912353515
1630674787275,0.8729525804519653,0.2438759952783584,-0.074110247194767,0.9813190698623656
1630674787418,0.8729525804519653,0.2613163590431213,-0.0699410662055015,0.9813190698623656
1630674787511,0.8729525804519653,0.2661345899105072,-0.0848436132073402,0.9813190698623656
1630674787619,0.8729525804519653,0.2655644118785858,-0.0991976559162139,0.9813190698623656
1630674787683,0.8729525804519653,0.2711469531059265,-0.1072020530700683,0.9813190698623656
1630674787785,0.8729525804519653,0.2777767479419708,-0.1064853519201278,0.9813190698623656
1630674787896,0.8729525804519653,0.2748389542102813,-0.0993591248989105,0.9813190698623656
1630674787962,0.8729525804519653,0.2651219666004181,-0.0910519436001777,0.9813190698623656
1630674788096,0.8729525804519653,0.2540576159954071,-0.0842927396297454,0.9813190698623656
1630674788198,0.8729525804519653,0.2447993904352188,-0.0735768601298332,0.9813190698623656
1630674788302,0.8729525804519653,0.2374360710382461,-0.0510747209191322,0.9813190698623656
1630674788400,0.9100061655044556,0.2432292103767395,-0.0136710153892636,0.9813190698623656
1630674788486,0.9100061655044556,0.2469087392091751,0.0305359251797199,0.9813190698623656
1630674788602,0.9100061655044556,0.2437803894281387,0.0305359251797199,0.9813190698623656
1630674788702,0.9100061655044556,0.2313748300075531,0.0305359251797199,0.9813190698623656
1630674788803,0.9100061655044556,0.2106707543134689,0.0305359251797199,0.9813190698623656
1630674788974,0.9100061655044556,0.1849189549684524,0.0305359251797199,0.9813190698623656
1630674788984,0.7360609173774719,0.1589801609516143,0.052416156977415,0.6649442315101624
1630674789085,0.7435956001281738,0.1366965621709823,0.0071405619382858,0.6551642417907715
1630674789167,0.7435956001281738,0.1201388388872146,0.0071405619382858,0.6551642417907715
1630674789320,0.7435956001281738,0.1096633970737457,0.0071405619382858,0.6551642417907715
1630674789420,0.7435956001281738,0.106678657233715,0.0071405619382858,0.6551642417907715
1630674789519,0.7435956001281738,0.1144321039319038,0.0071405619382858,0.6551642417907715
1630674789650,0.7435956001281738,0.132557138800621,0.0071405619382858,0.6551642417907715
1630674789733,0.7435956001281738,0.1551182717084884,0.0071405619382858,0.6551642417907715
1630674789798,0.7435956001281738,0.174207717180252,0.0071405619382858,0.6551642417907715
1630674789930,0.7435956001281738,0.1870981454849243,0.0071405619382858,0.6551642417907715
1630674790038,0.7435956001281738,0.1962929219007492,0.0071405619382858,0.6551642417907715
1630674790137,0.7435956001281738,0.2040598839521408,0.0071405619382858,0.6551642417907715
1630674790219,0.7768407464027405,0.2092106789350509,-0.0186165291815996,0.6637128591537476
1630674790316,0.7768407464027405,0.2099077552556991,-0.0186165291815996,0.6637128591537476
1630674790401,0.7768407464027405,0.2062656730413437,-0.0186165291815996,0.6637128591537476
1630674790531,0.7768407464027405,0.1996671259403228,-0.0186165291815996,0.6637128591537476
1630674790619,0.7768407464027405,0.1908705383539199,-0.0186165291815996,0.6637128591537476
1630674790728,0.7768407464027405,0.180922582745552,-0.0186165291815996,0.6637128591537476
1630674790833,0.7768407464027405,0.1708208918571472,-0.0543149188160896,0.7497383952140808
1630674790939,0.5167080163955688,0.1598059982061386,-0.049672894179821,0.8129063844680786
1630674791020,0.5167080163955688,0.1536727100610733,-0.0280033629387617,0.8129063844680786
1630674791151,0.5167080163955688,0.1382377743721008,-0.0280033629387617,0.8129063844680786
1630674791263,0.5167080163955688,0.1117687970399856,-0.0280033629387617,0.8129063844680786
1630674791385,0.5167080163955688,0.0806492269039154,-0.0280033629387617,0.8129063844680786
1630674791434,0.5167080163955688,0.0530288517475128,-0.0280033629387617,0.8129063844680786
1630674791537,0.5167080163955688,0.0292559880763292,-0.0280033629387617,0.8129063844680786
1630674791601,0.5167080163955688,0.0044165831059217,-0.0280033629387617,0.8129063844680786
1630674791767,0.5167080163955688,-0.0185982175171375,-0.0280033629387617,0.8129063844680786
1630674791861,0.5167080163955688,-0.0270964931696653,-0.0280033629387617,0.8129063844680786
1630674791935,0.5167080163955688,-0.0124550471082329,-0.0280033629387617,0.8129063844680786
1630674792103,0.5167080163955688,0.0168990902602672,-0.0476043075323104,0.8602304458618164
1630674792150,0.5167080163955688,0.0168990902602672,-0.0478814542293548,0.8602304458618164
1630674792248,0.5167080163955688,0.0168990902602672,-0.0711307004094123,0.8602304458618164
1630674792387,0.5167080163955688,0.0168990902602672,-0.0922435447573661,0.8602304458618164
1630674792519,0.5167080163955688,0.0168990902602672,-0.1384350359439849,0.8602304458618164
1630674792584,0.5167080163955688,0.1023632660508155,-0.2402298748493194,0.8602304458618164
1630674792661,0.5167080163955688,0.1041346713900566,-0.2541460394859314,0.4616641700267792
1630674792759,0.5867263078689575,0.1062073484063148,-0.269002228975296,0.4724850952625274
1630674792837,0.6121775507926941,0.1136545240879058,-0.2788414359092712,0.48335000872612
1630674792967,0.6543125510215759,0.1302014589309692,-0.2803763449192047,0.492021232843399
1630674793059,0.6966667771339417,0.1504372805356979,-0.2747488617897033,0.4972363710403442
1630674793168,0.7282837629318237,0.1628903746604919,-0.2662468552589416,0.4992472231388092
1630674793268,0.7468553781509399,0.1606171727180481,-0.259533017873764,0.5000195503234863
1630674793404,0.7555074095726013,0.1461225748062133,-0.2567311227321625,0.5030345320701599
1630674793482,0.7577654719352722,0.1278845518827438,-0.2563019096851349,0.51136314868927
1630674793601,0.7548776268959045,0.1136015579104423,-0.2547749280929565,0.51136314868927
1630674793679,0.7474269270896912,0.1049794852733612,-0.2500314712524414,0.51136314868927
1630674793804,0.7371885180473328,0.0992350652813911,-0.2413985878229141,0.51136314868927
1630674793888,0.7261649966239929,0.0932708829641342,-0.2340293079614639,0.5362220406532288
1630674793964,0.7183299660682678,0.086503580212593,-0.2265872508287429,0.5631263852119446
1630674794101,0.7137179374694824,0.0809583663940429,-0.2176206558942794,0.5904579758644104
1630674794219,0.7102908492088318,0.0796823054552078,-0.2063276469707489,0.6169556379318237
1630674794324,0.7040437459945679,0.0831610187888145,-0.1943214833736419,0.6401668190956116
1630674794403,0.6914588809013367,0.0867645516991615,-0.1837264448404312,0.6570910215377808
1630674794498,0.6715401411056519,0.0836421400308609,-0.1765835136175155,0.6655871868133545
1630674794585,0.6477988958358765,0.0711251944303512,-0.1733700782060623,0.6668336987495422
1630674794670,0.626837432384491,0.0546002462506294,-0.1710584610700607,0.6628403663635254
1630674794833,0.6123610734939575,0.0434731766581535,-0.1649570763111114,0.6539604067802429
1630674794893,0.6027672290802002,0.0423876456916332,-0.154412031173706,0.6393707990646362
1630674795036,0.5950343608856201,0.0476419925689697,-0.1442338973283767,0.6188558340072632
1630674795098,0.588687539100647,0.0511314608156681,-0.1396855264902115,0.5989803075790405
1630674795168,0.5846268534660339,0.0475126132369041,-0.1414279788732528,0.583359956741333
1630674795300,0.5823124647140503,0.0373917669057846,-0.145171582698822,0.5709709525108337
1630674795436,0.5856667160987854,0.0254528261721134,-0.146423727273941,0.5576356053352356
1630674795500,0.591284990310669,0.0148836765438318,-0.148344025015831,0.5405977964401245
1630674795604,0.6002876162528992,0.0145294880494475,-0.1500337123870849,0.5173894166946411
1630674795702,0.6128828525543213,0.0078679798170924,-0.1509256660938263,0.4843391180038452
1630674795851,0.6278353333473206,-0.0078410785645246,-0.1509028673171997,0.4403673112392425
1630674795958,0.6433069109916687,-0.0326958075165748,-0.1498246937990188,0.3894399404525757
1630674796069,0.6567466855049133,-0.0639523789286613,-0.1472315490245819,0.3403093218803406
1630674796121,0.6640165448188782,-0.0957981571555137,-0.1426932364702224,0.2994791269302368
1630674796217,0.6604921817779541,-0.1211288273334503,-0.1396827399730682,0.2705482244491577
1630674796305,0.6451549530029297,-0.1365410536527633,-0.1460417658090591,0.2596448063850403
1630674796396,0.6212430000305176,-0.1471491307020187,-0.1663566976785659,0.2714532017707824
1630674796518,0.6212430000305176,-0.1645841300487518,-0.1663566976785659,0.2714532017707824
1630674796635,0.6212430000305176,-0.1684227138757705,-0.1663566976785659,0.2714532017707824
1630674796737,0.6212430000305176,-0.1595019400119781,-0.1663566976785659,0.2714532017707824
1630674796845,0.6212430000305176,-0.1409422308206558,-0.1663566976785659,0.2714532017707824
1630674796943,0.6212430000305176,-0.1189198493957519,-0.1425166875123977,0.2714532017707824
1630674797007,0.7370796799659729,-0.0917587354779243,-0.1591641008853912,0.5078255534172058
1630674797102,0.6959807872772217,-0.0735938549041748,-0.1789294183254242,0.4911476075649261
1630674797254,0.6707102060317993,-0.0500532500445842,-0.202318862080574,0.4639465510845184
1630674797369,0.6549352407455444,-0.0309805236756801,-0.223080575466156,0.4392099380493164
1630674797418,0.6402332782745361,-0.0213007256388664,-0.2333471179008484,0.4261472225189209
1630674797537,0.6230844855308533,-0.0211941320449113,-0.2320554405450821,0.4222277104854584
1630674797638,0.6068047285079956,-0.0262953415513038,-0.2253489792346954,0.4180929958820343
1630674797714,0.5948655605316162,-0.0314614027738571,-0.2209440022706985,0.4072064757347107
1630674797853,0.5864161252975464,-0.0345108360052108,-0.2224630117416381,0.3910949528217315
1630674797951,0.5782700181007385,-0.0362960286438465,-0.2260015606880188,0.3760024905204773
1630674798097,0.5686275362968445,-0.038324050605297,-0.222396895289421,0.3654735088348388
1630674798128,0.5585192441940308,-0.0393132865428924,-0.2181222736835479,0.3575965464115143
1630674798263,0.510776162147522,-0.0432310625910759,-0.2018143832683563,0.3393836617469787
1630674798335,0.4805130958557129,-0.0476174019277095,-0.1853374540805816,0.312307596206665
1630674798470,0.4698470830917358,-0.0498691014945507,-0.1744883060455322,0.2804073989391327
1630674798573,0.4697379469871521,-0.0481304973363876,-0.1652520895004272,0.2566926479339599
1630674798654,0.4694481492042541,-0.0420729666948318,-0.1506730169057846,0.2565389275550842
1630674798787,0.4647766053676605,-0.0336976572871208,-0.13111612200737,0.2824566066265106
1630674798848,0.460323691368103,-0.0255601033568382,-0.1137303411960601,0.3206236958503723
1630674798952,0.4623676240444183,-0.0177869517356157,-0.1053137108683586,0.3524157404899597
1630674799102,0.4731291532516479,-0.0077861044555902,-0.1063431948423385,0.3708360195159912
1630674799184,0.4910854697227478,0.0068117007613182,-0.1115320697426796,0.381238043308258
1630674799286,0.5135514140129089,0.0250079687684774,-0.1139500886201858,0.3940750360488891
1630674799347,0.5378925204277039,0.0439945645630359,-0.109136663377285,0.4147771596908569
1630674799467,0.542579710483551,0.0505614951252937,-0.1022367924451828,0.4292232692241668
1630674799618,0.5507895946502686,0.0584563165903091,-0.0974871143698692,0.4427731931209564
1630674799699,0.5621358156204224,0.0689581260085105,-0.1028641760349273,0.4566175937652588
1630674799773,0.5743756294250488,0.083818107843399,-0.1170094683766365,0.4746342003345489
1630674799851,0.5846177339553833,0.1037393510341644,-0.1313305646181106,0.4988049268722534
1630674799955,0.5926240086555481,0.125790074467659,-0.1393148750066757,0.5267536640167236
1630674800032,0.6018528342247009,0.1434804797172546,-0.1443305313587188,0.5524510145187378
1630674800177,0.6176002025604248,0.1516907066106796,-0.1551279425621032,0.5689061880111694
1630674800304,0.6403415203094482,0.1506525874137878,-0.1739733666181564,0.5702910423278809
1630674800423,0.6654415726661682,0.1470103114843368,-0.193452849984169,0.5534998178482056
1630674800519,0.6907166242599487,0.149126186966896,-0.2013715207576751,0.5251427888870239
1630674800600,0.6907166242599487,0.149126186966896,-0.1919613778591156,0.5251427888870239
1630674800713,0.6907166242599487,0.149126186966896,-0.1570287346839904,0.5251427888870239
1630674800776,0.6907166242599487,0.149126186966896,-0.1200081259012222,0.5251427888870239
1630674800957,0.6907166242599487,0.149126186966896,-0.090855024755001,0.5251427888870239
1630674801024,0.6907166242599487,0.149126186966896,-0.0660394430160522,0.5251427888870239
1630674801085,0.6907166242599487,0.1006127595901489,-0.067482016980648,0.5251427888870239
1630674801185,0.5324424505233765,0.0994263589382171,-0.0723821073770523,0.5251427888870239
1630674801270,0.5157156586647034,0.088838905096054,-0.0718056187033653,0.818856418132782
1630674801402,0.5004361271858215,0.0807753279805183,-0.0614597834646701,0.7829561829566956
1630674801520,0.4848989844322204,0.0805095210671424,-0.0469812676310539,0.7531963586807251
1630674801601,0.4701710939407348,0.084154762327671,-0.0368499085307121,0.7232221364974976
1630674801737,0.4635055959224701,0.0856089815497398,-0.0351362153887748,0.6910280585289001
1630674801836,0.4635055959224701,0.0856089815497398,-0.0351362153887748,0.6910280585289001
1630674801922,0.4635055959224701,0.0856089815497398,-0.0351362153887748,0.6910280585289001
1630674802151,0.4635055959224701,0.0856089815497398,-0.0351362153887748,0.6910280585289001
1630674802200,0.4635055959224701,0.0856089815497398,-0.0276660453528165,0.6910280585289001
1630674802299,0.4635055959224701,0.089917205274105,-0.0232259314507246,0.6910280585289001
1630674802418,0.4480200409889221,0.0907325074076652,-0.0212433841079473,0.6910280585289001
1630674802506,0.4302880465984344,0.0848912671208381,-0.0184168685227632,0.6365971565246582
1630674802585,0.4131272435188293,0.0753105282783508,-0.009907859377563,0.5802260041236877
1630674802718,0.3992042541503906,0.0713375061750412,0.0057131247594952,0.5384801030158997
1630674802818,0.387950986623764,0.0807185992598533,0.0224135555326938,0.5090993046760559
1630674802951,0.387950986623764,0.0807185992598533,0.0224135555326938,0.5090993046760559
1630674803045,0.387950986623764,0.0807185992598533,0.0224135555326938,0.5090993046760559
1630674803111,0.387950986623764,0.0807185992598533,0.0224135555326938,0.5090993046760559
1630674803187,0.387950986623764,0.0807185992598533,0.0224135555326938,0.5090993046760559
1630674803369,0.387950986623764,0.0807185992598533,0.0224135555326938,0.5090993046760559
1630674803444,0.387950986623764,0.0807185992598533,0.0224135555326938,0.5090993046760559
1630674803527,0.387950986623764,0.0807185992598533,0.0224135555326938,0.5090993046760559
1630674803637,0.387950986623764,0.0807185992598533,0.0224135555326938,0.5090993046760559
1630674803732,0.387950986623764,0.0807185992598533,0.0224135555326938,0.5090993046760559
1630674803856,0.387950986623764,0.0807185992598533,0.0224135555326938,0.5090993046760559
1630674803935,0.387950986623764,0.0807185992598533,0.0224135555326938,0.5090993046760559
1630674804033,0.387950986623764,0.0807185992598533,0.0224135555326938,0.5090993046760559
1630674804161,0.387950986623764,0.0807185992598533,0.0224135555326938,0.5090993046760559
1630674804225,0.387950986623764,0.0807185992598533,-0.0784036293625831,0.5090993046760559
1630674804353,0.387950986623764,0.0585411377251148,-0.0883799716830253,0.5090993046760559
1630674804418,0.5732775926589966,0.0384663827717304,-0.0974024534225463,0.5090993046760559
1630674804602,0.5817273855209351,0.0237968005239963,-0.1084904745221138,0.5090993046760559
1630674804665,0.5730013847351074,0.0224534962326288,-0.1185247004032135,0.5090993046760559
1630674804775,0.5557006597518921,0.0328741818666458,-0.1241204217076301,0.405066043138504
1630674804858,0.5440778136253357,0.0443787351250648,-0.1265038251876831,0.3694330155849457
1630674804937,0.5441268086433411,0.0492549650371074,-0.1295835226774215,0.3483743071556091
1630674805053,0.5493528842926025,0.0467517413198947,-0.1352830827236175,0.3316318094730377
1630674805185,0.5515726804733276,0.0398382097482681,-0.1410010159015655,0.3163218200206756
1630674805286,0.5497872829437256,0.0310657490044832,-0.1419815868139267,0.3125998973846435
1630674805402,0.5497872829437256,0.0215553417801857,-0.1365285813808441,0.3125998973846435
1630674805503,0.5497872829437256,0.0144817819818854,-0.1442400068044662,0.3125998973846435
1630674805586,0.5497872829437256,0.012516425922513,-0.151737704873085,0.3125998973846435
1630674805664,0.5519002676010132,0.0314532630145549,-0.1565437614917755,0.289869874715805
1630674805769,0.552971601486206,0.0670099854469299,-0.1597547531127929,0.2540304958820343
1630674805877,0.5487178564071655,0.0712724924087524,-0.1627648770809173,0.2102722823619842
1630674805968,0.5375478863716125,0.0794867873191833,-0.1647191941738128,0.2102722823619842
1630674806046,0.5254433155059814,0.0892014652490615,-0.1626406759023666,0.2102722823619842
1630674806138,0.5252619385719299,0.0869563221931457,-0.1580620110034942,0.2102722823619842
1630674806285,0.5413709878921509,0.0769338607788086,-0.1558319479227066,0.2211815118789672
1630674806418,0.5609859228134155,0.0628953054547309,-0.1573001891374588,0.2291776984930038
1630674806481,0.5609859228134155,0.0478172972798347,-0.1562207639217376,0.2291776984930038
1630674806592,0.5609859228134155,0.0343567878007888,-0.1725540459156036,0.2291776984930038
1630674806690,0.5609859228134155,0.0258204638957977,-0.2128169685602188,0.2291776984930038
1630674806753,0.5609859228134155,0.0264109540730714,-0.2745559513568878,0.2291776984930038
1630674806836,0.5436910390853882,0.0375573299825191,-0.3402132391929626,0.4308531880378723
1630674807003,0.5548045039176941,0.0518991202116012,-0.2584747970104217,0.4810572862625122
1630674807083,0.5505350828170776,0.05219516903162,-0.1625576317310333,0.5152460336685181
1630674807181,0.5394599437713623,0.0233796015381813,-0.0842560082674026,0.5312969088554382
1630674807274,0.5394599437713623,-0.0342646092176437,-0.032051458954811,0.5312969088554382
1630674807398,0.5394599437713623,-0.0342646092176437,-0.032051458954811,0.5312969088554382
1630674807497,0.5394599437713623,-0.0342646092176437,-0.032051458954811,0.5312969088554382
1630674807653,0.5394599437713623,-0.0342646092176437,-0.032051458954811,0.5312969088554382
1630674807738,0.5394599437713623,-0.0358356051146984,-0.032051458954811,0.5312969088554382
1630674807817,0.5394599437713623,-0.0359615460038185,-0.032051458954811,0.5312969088554382
1630674807937,0.5394599437713623,-0.0337865427136421,-0.032051458954811,0.5312969088554382
1630674807986,0.5394599437713623,-0.0228087268769741,-0.032051458954811,0.5312969088554382
1630674808060,0.5575069189071655,0.0001027924590744,-0.0057483436539769,0.5654317140579224
1630674808220,0.5662012100219727,0.0295144543051719,0.0373054519295692,0.5979371070861816
1630674808282,0.5586552619934082,0.0533804446458816,0.0908189341425895,0.622947633266449
1630674808405,0.5586552619934082,0.0533804446458816,0.1463912725448608,0.622947633266449
1630674808497,0.5586552619934082,0.0533804446458816,0.1463912725448608,0.622947633266449
1630674808635,0.5586552619934082,0.0533804446458816,0.1463912725448608,0.622947633266449
1630674808668,0.5586552619934082,0.0533804446458816,0.1463912725448608,0.622947633266449
1630674808827,0.5586552619934082,0.0533804446458816,0.1463912725448608,0.622947633266449
1630674808921,0.5586552619934082,0.0533804446458816,-0.3815658688545227,0.622947633266449
1630674809064,0.8413601517677307,0.1312871128320694,-0.4076102972030639,0.4296362698078155
1630674809146,0.8419942855834961,0.1296698600053787,-0.3965285420417785,0.4501707255840301
1630674809206,0.8326649069786072,0.1265139430761337,-0.3540258109569549,0.4848940074443817
1630674809300,0.8185446262359619,0.1210934743285179,-0.3033666312694549,0.5209782123565674
1630674809471,0.804846465587616,0.1131312921643257,-0.2642539739608764,0.5449727773666382
1630674809517,0.794788658618927,0.1025194376707077,-0.2426024377346038,0.5543615818023682
1630674809610,0.7880355715751648,0.0879277512431144,-0.2339440137147903,0.5546860694885254
1630674809727,0.7830671668052673,0.0697912871837616,-0.231439933180809,0.5522639751434326
1630674809871,0.7797141075134277,0.0516893193125724,-0.2318599075078964,0.549072265625
1630674809917,0.7775310277938843,0.0403781421482563,-0.2314270585775375,0.5437195897102356
1630674810028,0.7775310277938843,0.0403781421482563,-0.2314270585775375,0.5437195897102356
1630674810171,0.7775310277938843,0.0403781421482563,-0.2288744300603866,0.5437195897102356
1630674810269,0.7776692509651184,0.0271856561303138,-0.221783846616745,0.552301824092865
1630674810319,0.772509753704071,0.017102601006627,-0.2067397534847259,0.562970757484436
1630674810432,0.761044979095459,0.006995293777436,-0.183408036828041,0.5744574069976807
1630674810500,0.7458434700965881,-0.0070654111914336,-0.1576121151447296,0.5861667990684509
1630674810635,0.731769323348999,-0.0264712963253259,-0.1389920264482498,0.5933698415756226
1630674810734,0.7239717841148376,-0.0500830188393592,-0.1359271258115768,0.5884870290756226
1630674810869,0.7242058515548706,-0.0778307169675827,-0.1509667038917541,0.5688284635543823
1630674810967,0.729904055595398,-0.1094603538513183,-0.1779486238956451,0.5417068600654602
1630674811044,0.7359951734542847,-0.1441200375556945,-0.2046855092048645,0.518776535987854
1630674811166,0.7359951734542847,-0.1441200375556945,-0.2046855092048645,0.518776535987854
1630674811262,0.7359951734542847,-0.1441200375556945,-0.2046855092048645,0.518776535987854
1630674811354,0.7359951734542847,-0.1441200375556945,-0.2046855092048645,0.518776535987854
1630674811471,0.7359951734542847,-0.1441200375556945,-0.2046855092048645,0.518776535987854
1630674811583,0.4238061308860779,-0.1441200375556945,-0.0171282663941383,0.412786602973938
1630674811622,0.470505028963089,-0.1441200375556945,0.0448840856552124,0.4268550276756286
1630674811719,0.5095590353012085,-0.1441200375556945,0.0860739424824714,0.4508090913295746
1630674811875,0.5095590353012085,-0.1441200375556945,0.0860739424824714,0.4508090913295746
1630674811965,0.5095590353012085,-0.1441200375556945,0.0860739424824714,0.4508090913295746
1630674812082,0.5095590353012085,-0.1441200375556945,0.0860739424824714,0.4508090913295746
1630674812166,0.5095590353012085,-0.1441200375556945,0.0860739424824714,0.4508090913295746
1630674812251,0.5095590353012085,-0.1441200375556945,0.0860739424824714,0.4508090913295746
1630674812334,0.5095590353012085,-0.1441200375556945,0.0860739424824714,0.4508090913295746
1630674812468,0.5095590353012085,-0.1441200375556945,0.0860739424824714,0.4508090913295746
1630674812611,0.5095590353012085,-0.1441200375556945,0.0860739424824714,0.4508090913295746
1630674812718,0.5095590353012085,-0.1441200375556945,0.0860739424824714,0.4508090913295746
1630674812783,0.5240753889083862,-0.1441200375556945,0.1272333115339279,0.4396373033523559
1630674812863,0.5574110746383667,-0.1441200375556945,0.1720306575298309,0.4514417946338653
1630674812947,0.5574110746383667,-0.1441200375556945,0.1720306575298309,0.4514417946338653
1630674813085,0.5574110746383667,-0.1441200375556945,0.1720306575298309,0.4514417946338653
1630674813169,0.5574110746383667,-0.1441200375556945,0.1720306575298309,0.4514417946338653
1630674813246,0.5574110746383667,-0.1441200375556945,0.1720306575298309,0.4514417946338653
1630674813369,0.5574110746383667,-0.1441200375556945,0.1720306575298309,0.4514417946338653
1630674813481,0.5574110746383667,-0.1441200375556945,0.1720306575298309,0.4514417946338653
1630674813567,0.5574110746383667,-0.1441200375556945,0.1720306575298309,0.4514417946338653
1630674813722,0.5574110746383667,-0.1441200375556945,0.1720306575298309,0.4514417946338653
1630674813819,0.5574110746383667,-0.1441200375556945,0.1720306575298309,0.4514417946338653
1630674813935,0.5574110746383667,-0.1441200375556945,0.1720306575298309,0.4514417946338653
1630674813966,0.5574110746383667,-0.1441200375556945,0.1720306575298309,0.4514417946338653
1630674814045,0.5574110746383667,-0.1441200375556945,0.1720306575298309,0.4514417946338653
1630674814159,0.5574110746383667,-0.1441200375556945,0.1720306575298309,0.4514417946338653
1630674814288,0.5574110746383667,0.1364616751670837,0.1720306575298309,0.4514417946338653
1630674814385,0.5574110746383667,0.1364616751670837,0.1720306575298309,0.4514417946338653
1630674814503,0.5574110746383667,0.1364616751670837,0.1720306575298309,0.4514417946338653
1630674814580,0.5574110746383667,0.1364616751670837,0.1720306575298309,0.4514417946338653
1630674814674,0.5574110746383667,0.1364616751670837,0.1720306575298309,0.4514417946338653
1630674814770,0.5574110746383667,0.1364616751670837,0.1720306575298309,0.4514417946338653
1630674814915,0.5574110746383667,0.1364616751670837,0.1720306575298309,0.4514417946338653
1630674815033,0.5574110746383667,0.1364616751670837,0.1720306575298309,0.4514417946338653
1630674815142,0.5574110746383667,0.1364616751670837,0.1720306575298309,0.4514417946338653
1630674815311,0.5574110746383667,0.1364616751670837,0.1720306575298309,0.4514417946338653
1630674815392,0.5574110746383667,0.1364616751670837,0.1720306575298309,0.4514417946338653
1630674815502,0.5574110746383667,0.1364616751670837,0.1720306575298309,0.4514417946338653
1630674815615,0.5574110746383667,0.1364616751670837,0.1720306575298309,0.4514417946338653
1630674815732,0.5574110746383667,0.1364616751670837,0.1720306575298309,0.4514417946338653
1630674815812,0.5574110746383667,0.1364616751670837,0.1720306575298309,0.4514417946338653
1630674815906,0.5574110746383667,0.1364616751670837,0.1720306575298309,0.4514417946338653
1630674816067,0.5574110746383667,0.1555350869894027,-0.0280080009251832,0.7327730059623718
1630674816158,0.7402921319007874,0.1572920829057693,-0.0150890033692121,0.7376247048377991
1630674816265,0.7220048308372498,0.1524569541215896,-0.0009335750364698,0.7331382036209106
1630674816361,0.7049873471260071,0.1393802613019943,0.0158268380910158,0.7214315533638
1630674816420,0.6938592195510864,0.1178059950470924,0.0308996718376874,0.7082972526550293
1630674816514,0.6861509084701538,0.0927191078662872,0.0381665602326393,0.6977963447570801
1630674816601,0.6783110499382019,0.0727965533733367,0.0359615497291088,0.6903943419456482
1630674816726,0.6693781018257141,0.0611707828938961,0.0291180461645126,0.6857930421829224
1630674816825,0.6601035594940186,0.0535909496247768,0.0226645227521657,0.681816041469574
1630674816934,0.6524893045425415,0.0456565245985984,0.0175768435001373,0.6758645176887512
1630674817018,0.6497202515602112,0.0368479341268539,0.0126665122807025,0.6667296290397644
1630674817139,0.6526257395744324,0.0298098642379045,0.0065721729770302,0.6551104784011841
1630674817223,0.6596317887306213,0.0200394913554191,0.0034483287017792,0.6362550258636475
1630674817388,0.6627508997917175,0.0102890459820628,-0.001377815962769,0.620278000831604
1630674817471,0.6740986704826355,0.0021082095336169,-0.0082026254385709,0.6044173836708069
1630674817535,0.6939463019371033,-0.0001337022113148,-0.0178455468267202,0.5848369002342224
1630674817649,0.7195962071418762,0.008743149228394,-0.031919527798891,0.5625709295272827
1630674817745,0.7441540360450745,0.0262198559939861,-0.0504124797880649,0.5417696833610535
1630674817809,0.7621289491653442,0.0442420169711113,-0.0688196271657943,0.5263012051582336
1630674817977,0.7720293998718262,0.057150725275278,-0.0797310024499893,0.5169366002082825
1630674818067,0.7806988954544067,0.0703185275197029,-0.0766970142722129,0.5143219828605652
1630674818155,0.7914276123046875,0.0841008871793747,-0.0586382113397121,0.5215984582901001
1630674818271,0.8051847219467163,0.0951348021626472,-0.0312635228037834,0.5375412702560425
1630674818338,0.8221626877784729,0.1055592074990272,-0.0038084348198026,0.5550432801246643
1630674818451,0.8414885997772217,0.1193056553602218,0.0163621585816144,0.5664986968040466
1630674818569,0.860666036605835,0.1378782093524933,0.0260471571236848,0.5692346692085266
1630674818702,0.8780608773231506,0.158996894955635,0.0275834798812866,0.5773094892501831
1630674818791,0.8938858509063721,0.1797694116830825,0.0252682846039533,0.5883792042732239
1630674818839,0.907262682914734,0.2003088593482971,0.0205278526991605,0.5993069410324097
1630674818937,0.9135861396789552,0.22101591527462,0.0130371069535613,0.6093684434890747
1630674819027,0.8643515110015869,0.2358180731534958,0.0036041182465851,0.6103540658950806
1630674819184,0.790213406085968,0.2004985362291336,-0.0034304899163544,0.6105393767356873
1630674819302,0.738466203212738,0.1585153192281723,-0.0049798646941781,0.6280755996704102
1630674819395,0.738466203212738,0.1274030655622482,0.0034159580245614,0.6489390134811401
1630674819528,0.738466203212738,0.1266628205776214,0.0032634735107421,0.6696088314056396
1630674819558,0.738466203212738,0.1232283115386962,-0.0082669919356703,0.6842142343521118
1630674819682,0.738466203212738,0.1190999820828437,-0.0326479896903038,0.6817060708999634
1630674819802,0.738466203212738,0.1190999820828437,-0.073080264031887,0.6490349769592285
1630674819906,0.738466203212738,0.1190999820828437,-0.1307510882616043,0.6490349769592285
1630674819982,0.738466203212738,0.1190999820828437,-0.1989967375993728,0.6490349769592285
1630674820067,0.738466203212738,0.1190999820828437,-0.2618224620819092,0.6490349769592285
1630674820187,0.738466203212738,0.1190999820828437,-0.3068820238113403,0.6490349769592285
1630674820284,0.738466203212738,0.1190999820828437,-0.3377076685428619,0.6490349769592285
1630674820403,0.738466203212738,0.1190999820828437,-0.3601647913455963,0.6490349769592285
1630674820481,0.738466203212738,0.1190999820828437,-0.3601647913455963,0.6490349769592285
1630674820596,0.738466203212738,0.1228677183389663,-0.3601647913455963,0.6490349769592285
1630674820703,0.738466203212738,0.1280414164066314,-0.3601647913455963,0.6490349769592285
1630674820795,0.738466203212738,0.1253311336040496,-0.3601647913455963,0.6490349769592285
1630674820859,0.738466203212738,0.1197772547602653,-0.3601647913455963,0.6490349769592285
1630674821037,0.738466203212738,0.1197772547602653,-0.3601647913455963,0.6490349769592285
1630674821098,0.738466203212738,0.1197772547602653,-0.3601647913455963,0.6490349769592285
1630674821178,0.738466203212738,0.1197772547602653,-0.3601647913455963,0.6490349769592285
1630674821318,0.738466203212738,0.1197772547602653,-0.3601647913455963,0.6490349769592285
1630674821403,0.738466203212738,0.1197772547602653,-0.3601647913455963,0.6490349769592285
1630674821486,0.738466203212738,0.1197772547602653,-0.3601647913455963,0.6490349769592285
1630674821644,0.738466203212738,0.1197772547602653,-0.3601647913455963,0.6490349769592285
1630674821707,0.738466203212738,0.1197772547602653,-0.3601647913455963,0.6490349769592285
1630674821819,0.738466203212738,0.1197772547602653,-0.3601647913455963,0.6490349769592285
1630674821902,0.738466203212738,0.1197772547602653,-0.3601647913455963,0.6490349769592285
1630674822058,0.738466203212738,0.1197772547602653,-0.3601647913455963,0.6490349769592285
1630674822084,0.738466203212738,0.1197772547602653,-0.3601647913455963,0.6490349769592285
1630674822219,0.738466203212738,0.1197772547602653,-0.3601647913455963,0.6490349769592285
1630674822336,0.738466203212738,0.1197772547602653,-0.3601647913455963,0.6490349769592285
1630674822435,0.738466203212738,0.1197772547602653,-0.3601647913455963,0.6490349769592285
1630674822518,0.738466203212738,0.1197772547602653,-0.3601647913455963,0.6490349769592285
1630674822639,0.738466203212738,0.1197772547602653,-0.3601647913455963,0.6490349769592285
1630674822713,0.738466203212738,0.1197772547602653,-0.3601647913455963,0.6490349769592285
1630674822854,0.738466203212738,0.1197772547602653,-0.3601647913455963,0.6490349769592285
1630674822920,0.738466203212738,0.1197772547602653,-0.0818032473325729,0.6490349769592285
1630674823015,0.738466203212738,0.1655490696430206,-0.0664968714118003,0.6490349769592285
1630674823117,0.738466203212738,0.1717143505811691,-0.0918337032198906,0.6772265434265137
1630674823216,0.6361696124076843,0.1634016633033752,-0.1205442175269126,0.6342365741729736
1630674823319,0.675723135471344,0.1515667289495468,-0.1527442783117294,0.5957075357437134
1630674823454,0.7163692712783813,0.1431464105844497,-0.1833085864782333,0.5658585429191589
1630674823565,0.7456414103507996,0.1368691027164459,-0.2047899961471557,0.5439580082893372
1630674823625,0.7609353065490723,0.1287978887557983,-0.2118167728185653,0.5288257002830505
1630674823713,0.7653291821479797,0.1191564872860908,-0.2054264992475509,0.5196921825408936
1630674823808,0.7639012336730957,0.1108849719166755,-0.1922529488801956,0.5148445963859558
1630674823907,0.7607284784317017,0.1067016646265983,-0.1766332238912582,0.512601375579834
1630674824055,0.7579700946807861,0.1073388308286666,-0.1566613912582397,0.5120420455932617
1630674824145,0.7553724646568298,0.1121833324432373,-0.131567895412445,0.5110492706298828
1630674824244,0.7515090107917786,0.1204538345336914,-0.1188187599182128,0.5065982341766357
1630674824329,0.7446480393409729,0.1239131763577461,-0.103118397295475,0.4677726328372955
1630674824444,0.7387888431549072,0.1176909208297729,-0.0937426090240478,0.4285173118114471
1630674824529,0.7324235439300537,0.104561723768711,-0.0914714112877845,0.3952745795249939
1630674824680,0.7229487299919128,0.0923040658235549,-0.092213749885559,0.3760586678981781
1630674824760,0.7091990113258362,0.0872008502483367,-0.09148870408535,0.3729469180107116
1630674824837,0.6924282312393188,0.0887127369642257,-0.086181417107582,0.3775586485862732
1630674824979,0.6771314740180969,0.0942237973213195,-0.0761638805270195,0.380071222782135
1630674825038,0.6680486798286438,0.1022760272026062,-0.0656904280185699,0.3769840598106384
1630674825157,0.6673746705055237,0.1110286489129066,-0.061270460486412,0.368843674659729
1630674825287,0.6736990809440613,0.1164258569478988,-0.066733568906784,0.3569772243499756
1630674825419,0.6834948658943176,0.1156152486801147,-0.0799279734492302,0.3430913388729095
1630674825465,0.6941389441490173,0.1087240055203437,-0.0964032262563705,0.3287730813026428
1630674825584,0.7039218544960022,0.096942625939846,-0.1158397197723388,0.3135158717632293
1630674825663,0.7109461426734924,0.0803664773702621,-0.1406727284193039,0.2981254160404205
1630674825742,0.7137643098831177,0.0602839738130569,-0.1692661494016647,0.2864167988300323
1630674825869,0.7134381532669067,0.0434070825576782,-0.1939016133546829,0.2847353518009186
1630674825988,0.7137144804000854,0.0380890481173992,-0.2087009996175766,0.2948581278324127
1630674826045,0.7177921533584595,0.0459756702184677,-0.2147822678089141,0.3108984231948852
1630674826214,0.723846971988678,0.0596555098891258,-0.215850755572319,0.3235445320606231
1630674826277,0.7400465607643127,0.0690367817878723,-0.2131711393594741,0.3290019333362579
1630674826353,0.7521253228187561,0.067065954208374,-0.2093025743961334,0.3284482359886169
1630674826504,0.7564494609832764,0.0593295320868492,-0.2085984945297241,0.3249277472496032
1630674826586,0.7525525093078613,0.0460853539407253,-0.211244449019432,0.3196618556976318
1630674826678,0.7416782379150391,0.0319156795740127,-0.2126857340335846,0.3129337430000305
1630674826764,0.7256331443786621,0.0243319366127252,-0.2087291032075882,0.3068654239177704
1630674826869,0.7033172249794006,0.0278018228709697,-0.1999053210020065,0.3058162629604339
1630674826982,0.6872924566268921,0.0400650613009929,-0.1883653998374939,0.3137238621711731
1630674827098,0.6732015013694763,0.0571225583553314,-0.1730105131864547,0.3131565153598785
1630674827218,0.6622533202171326,0.078601948916912,-0.1516755521297454,0.3129023611545563
1630674827296,0.6599196791648865,0.1075325980782508,-0.1254127025604248,0.3146677613258362
1630674827404,0.6636101603507996,0.1417828351259231,-0.0971045866608619,0.317303866147995
1630674827497,0.6785382032394409,0.1417828351259231,-0.0711462348699569,0.3165490627288818
1630674827566,0.6993123292922974,0.1417828351259231,-0.0502159781754016,0.3080504238605499
1630674827721,0.7274160385131836,0.1417828351259231,-0.0392424128949642,0.2915984988212585
1630674827819,0.7274160385131836,0.1417828351259231,-0.0270512327551841,0.2687307298183441
1630674827916,0.7274160385131836,0.1417828351259231,-0.0145446676760911,0.2449344992637634
1630674827996,0.7274160385131836,0.1417828351259231,-0.0007232436910271,0.2297944575548172
1630674828090,0.7274160385131836,0.1417828351259231,0.0153563767671585,0.2362763285636901
1630674828180,0.7274160385131836,0.1417828351259231,0.0340797528624534,0.2362763285636901
1630674828335,0.7274160385131836,0.1417828351259231,0.0559162721037864,0.2362763285636901
1630674828419,0.737202525138855,0.1417828351259231,0.0785641521215438,0.2362763285636901
1630674828516,0.737202525138855,0.1417828351259231,0.098729133605957,0.2362763285636901
1630674828592,0.737202525138855,0.1417828351259231,0.1057937145233154,0.2362763285636901
1630674828687,0.737202525138855,0.1417828351259231,0.0954863727092742,0.2362763285636901
1630674828819,0.737202525138855,0.1417828351259231,0.0732766464352607,0.2362763285636901
1630674828934,0.737202525138855,0.1417828351259231,0.0468151494860649,0.2362763285636901
1630674829036,0.8814196586608887,0.1417828351259231,0.022976690903306,0.4903625249862671
1630674829116,0.8634920120239258,0.045552160590887,0.0063052647747099,0.526533305644989
1630674829200,0.8389825224876404,0.0225826743990182,0.0018889117054641,0.5399649143218994
1630674829321,0.8170889616012573,0.0034118054900318,-0.0003622299991548,0.5383561849594116
1630674829386,0.8048307299613953,-0.0108124446123838,-0.0005555184325203,0.5308295488357544
1630674829587,0.8015193939208984,-0.0230800379067659,-0.0009523759363219,0.5209876894950867
1630674829651,0.8011875748634338,-0.0349871329963207,-0.0053949081338942,0.5071848034858704
1630674829769,0.8003965020179749,-0.0435615442693233,-0.0142938289791345,0.489535242319107
1630674829837,0.7995027303695679,-0.0430235341191291,-0.0241764523088932,0.4702858924865722
1630674829920,0.800187885761261,-0.032444555312395,-0.0350681543350219,0.4519808292388916
1630674830012,0.8032326102256775,-0.0166663229465484,-0.0389986410737037,0.4356718063354492
1630674830138,0.808415412902832,-0.0026092876214534,-0.0338956005871295,0.4211065173149109
1630674830234,0.8111440539360046,0.0069922264665365,-0.0244558304548263,0.4114712178707123
1630674830369,0.8119581341743469,0.0109168170019984,-0.0176881942898035,0.3980414271354675
1630674830437,0.8098706603050232,0.014779495075345,-0.017140669748187,0.3735837042331695
1630674830616,0.8078581094741821,0.0384538099169731,-0.0334698408842086,0.2908054292201996
1630674830862,0.8223817944526672,0.0657298117876052,-0.0687073245644569,0.2148724198341369
1630674830953,0.8303461670875549,0.077049471437931,-0.0899335667490959,0.1979789286851883
1630674831070,0.8383269309997559,0.0898444950580596,-0.1100532338023185,0.2008270621299743
1630674831122,0.847236692905426,0.1056264117360115,-0.1242006346583366,0.2212793081998825
1630674831219,0.8544124364852905,0.1218589097261428,-0.1306338608264923,0.248558685183525
1630674831399,0.8563942313194275,0.1333928257226944,-0.1323302537202835,0.275041252374649
1630674831467,0.8520110249519348,0.1363243162631988,-0.136270672082901,0.2999544441699981
1630674831588,0.8419210314750671,0.1306685805320739,-0.1451727598905563,0.3237642347812652
1630674831665,0.8270033597946167,0.1199339628219604,-0.1555214673280716,0.3436355292797088
1630674831745,0.8087506294250488,0.108297012746334,-0.1631893366575241,0.3572028875350952
1630674831869,0.7906772494316101,0.097276858985424,-0.1688288897275924,0.364235907793045
1630674832002,0.7765648365020752,0.0867302939295768,-0.1743849366903305,0.3679704368114471
1630674832062,0.7666986584663391,0.0763088017702102,-0.1781874299049377,0.3712120354175567
1630674832152,0.7589043974876404,0.0671923980116844,-0.1749768406152725,0.3774251043796539
1630674832250,0.7560041546821594,0.0605023503303527,-0.1636385172605514,0.3902963995933532
1630674832358,0.7517278790473938,0.0599970147013664,-0.1441613882780075,0.4084854125976562
1630674832468,0.7433131337165833,0.0686136782169342,-0.1299539506435394,0.4246408939361572
1630674832604,0.7266796827316284,0.0851625204086303,-0.116394817829132,0.4303747713565826
1630674832706,0.7006826400756836,0.1021738201379776,-0.1037007644772529,0.4237426519393921
1630674832762,0.6714755296707153,0.1131935864686966,-0.0915370285511016,0.4103919267654419
1630674832887,0.6482287049293518,0.1168488934636116,-0.0803068056702613,0.3962935209274292
1630674832954,0.6354795694351196,0.1169462278485298,-0.0724545046687126,0.3894329667091369
1630674833049,0.6327224969863892,0.11757792532444,-0.0725008770823478,0.3811048865318298
1630674833268,0.6389658451080322,0.1208585500717163,-0.0841067731380462,0.3881744146347046
1630674833349,0.6511101126670837,0.1270430535078048,-0.1062629744410514,0.4072659909725189
1630674833420,0.6511101126670837,0.1366764903068542,-0.1370760649442672,0.4353065192699432
1630674833481,0.6511101126670837,0.1479883193969726,-0.1502483636140823,0.4664527475833893
1630674833621,0.6511101126670837,0.1574127376079559,-0.1525972485542297,0.4961264431476593
1630674833676,0.6511101126670837,0.1619592010974884,-0.151708498597145,0.5198392868041992
1630674833803,0.4774523973464966,0.1622165590524673,-0.1451930701732635,0.53386390209198
1630674833911,0.496793657541275,0.1561574935913086,-0.1398076266050338,0.5377323031425476
1630674833993,0.5151776671409607,0.1402021795511245,-0.11952555924654,0.5339462757110596
1630674834121,0.5336489081382751,0.1128797531127929,-0.1059278845787048,0.5280246138572693
1630674834195,0.5475228428840637,0.0794204100966453,-0.1000397950410842,0.5262708067893982
1630674834285,0.5520774126052856,0.0485606417059898,-0.1005811393260955,0.5327590703964233
1630674834439,0.5494357943534851,0.0255921762436628,-0.1057760640978813,0.5467116236686707
1630674834519,0.5470618009567261,0.0087600508704781,-0.1124098747968673,0.547216534614563
1630674834627,0.5485109686851501,-0.0061102076433598,-0.1173787862062454,0.5443161129951477
1630674834701,0.549689531326294,-0.0204709973186254,-0.1194227337837219,0.5365288853645325
1630674834792,0.5452243089675903,-0.0350420735776424,-0.119393266737461,0.5201501250267029
1630674834902,0.5353564023971558,-0.052351925522089,-0.1152881011366844,0.4996057152748108
1630674835046,0.534437358379364,-0.0733917206525802,-0.1131668835878372,0.4782050251960754
1630674835121,0.5392208099365234,-0.0955764725804328,-0.1128430441021919,0.4588024616241455
1630674835214,0.5519691705703735,-0.1159973368048667,-0.116111047565937,0.4434954524040222
1630674835292,0.5682739019393921,-0.132973700761795,-0.1243718937039375,0.4320724308490753
1630674835370,0.5810285806655884,-0.1441402286291122,-0.1346311867237091,0.4234868586063385
1630674835512,0.5848057270050049,-0.1430733501911163,-0.1405893117189407,0.4186314344406128
1630674835671,0.5792111754417419,-0.1257195621728897,-0.1392166316509246,0.4187221825122833
1630674835733,0.5683594346046448,-0.0981003940105438,-0.13406603038311,0.4211467802524566
1630674835827,0.5670050382614136,-0.0710360705852508,-0.1288725435733795,0.4183077812194824
1630674835937,0.5700803399085999,-0.0501869432628154,-0.1266358792781829,0.4086745977401733
1630674836036,0.5738138556480408,-0.0323237851262092,-0.1219292357563972,0.3940808475017547
1630674836118,0.5746825933456421,-0.0106141399592161,-0.1172852665185928,0.3828538656234741
1630674836252,0.5757766366004944,0.0159199852496385,-0.1146898195147514,0.382443368434906
1630674836361,0.5849986672401428,0.0422438569366931,-0.1142630353569984,0.3919870853424072
1630674836422,0.6059296727180481,0.0628430619835853,-0.1147091537714004,0.4056236743927002
1630674836531,0.6309752464294434,0.0766854211688041,-0.1136590242385864,0.419028103351593
1630674836653,0.645667314529419,0.0875750556588172,-0.1064381748437881,0.4290086925029754
1630674836720,0.6390328407287598,0.0998366698622703,-0.0880606174468994,0.4341476857662201
1630674836831,0.6081357002258301,0.1128389909863472,-0.0597036071121692,0.4374889731407165
1630674836936,0.6081357002258301,0.121472418308258,-0.0302381999790668,0.4374889731407165
1630674837033,0.6081357002258301,0.1198182553052902,-0.0302381999790668,0.4374889731407165
1630674837117,0.6081357002258301,0.1066459268331527,-0.0302381999790668,0.4374889731407165
1630674837243,0.6081357002258301,0.0889612287282943,-0.0302381999790668,0.4374889731407165
1630674837330,0.6081357002258301,0.0794231072068214,-0.0302381999790668,0.4374889731407165
1630674837502,0.5810240507125854,0.0843575373291969,-0.0100983008742332,0.3218594491481781
1630674837588,0.5403770804405212,0.0961889624595642,-0.0393142849206924,0.3711327910423279
1630674837642,0.5110407471656799,0.1014520972967147,-0.0685510784387588,0.4031869769096374
1630674837774,0.5009467601776123,0.0954733714461326,-0.0933888703584671,0.4114850461483001
1630674837888,0.5082196593284607,0.0841305330395698,-0.1099235638976097,0.4007389843463897
1630674837939,0.5215080380439758,0.0746335834264755,-0.1169251650571823,0.378777265548706
1630674838085,0.529586136341095,0.0674635246396064,-0.1178748607635498,0.3531346023082733
1630674838161,0.5292685627937317,0.057639580219984,-0.1201255321502685,0.3293277621269226
1630674838268,0.5238363742828369,0.0427689738571643,-0.1289213597774505,0.3122439682483673
1630674838361,0.520753026008606,0.0278775170445442,-0.1439875215291977,0.3050546944141388
1630674838440,0.5255621075630188,0.0222972463816404,-0.1607592105865478,0.3077787160873413
1630674838552,0.5366737842559814,0.0303841847926378,-0.1752360314130783,0.3166812658309936
1630674838667,0.5382871031761169,0.0454645752906799,-0.2097170352935791,0.3305530250072479
1630674838802,0.5350201725959778,0.0549016818404197,-0.2361307889223098,0.3424785435199737
1630674838863,0.5333903431892395,0.0514631606638431,-0.2520183324813843,0.3440001308917999
1630674838985,0.5405840277671814,0.0386520214378833,-0.2599568963050842,0.3358356058597564
1630674839083,0.5545701384544373,0.0172777026891708,-0.2661875784397125,0.3154590725898742
1630674839162,0.5705187320709229,-0.0013221215922385,-0.2671053409576416,0.2886192500591278
1630674839289,0.5820141434669495,-0.0111357131972908,-0.2658399641513824,0.2673625349998474
1630674839385,0.5848127603530884,-0.0170789826661348,-0.2675385773181915,0.2614800930023193
1630674839486,0.5808460712432861,-0.0252380687743425,-0.2776714265346527,0.2739768326282501
1630674839585,0.5786029696464539,-0.033263225108385,-0.2982392907142639,0.3014377653598785
1630674839658,0.5867708325386047,-0.0327442735433578,-0.3221588730812073,0.3385004103183746
1630674839775,0.6083468794822693,-0.0188436284661293,-0.3353376984596252,0.37784343957901
1630674839904,0.6349349021911621,0.0027487850748002,-0.3278402984142303,0.4116392433643341
1630674840022,0.6349349021911621,0.018406469374895,-0.3039444386959076,0.4116392433643341
1630674840090,0.6349349021911621,0.018406469374895,-0.1634867638349533,0.4116392433643341
1630674840166,0.6349349021911621,0.018406469374895,-0.08125651627779,0.4116392433643341
1630674840246,0.6349349021911621,0.018406469374895,-0.037599429488182,0.4116392433643341
1630674840407,0.6349349021911621,0.018406469374895,-0.0167263001203537,0.4116392433643341
1630674840514,0.6349349021911621,0.0890294909477233,0.0015258576022461,0.4116392433643341
1630674840610,0.6411367654800415,0.073169469833374,-0.0071387481875717,0.2020706385374069
1630674840703,0.6229639649391174,0.0702685862779617,-0.0150611577555537,0.2157045900821685
1630674840819,0.6046373248100281,0.0751431658864021,-0.0284661147743463,0.2221160680055618
1630674840898,0.5962924361228943,0.0849480107426643,-0.0487261041998863,0.2283318191766739
1630674840968,0.6042882204055786,0.1005497351288795,-0.0736620351672172,0.2426078617572784
1630674841136,0.6239622831344604,0.1197954714298248,-0.0993482246994972,0.2642500102519989
1630674841236,0.6472611427307129,0.1392156183719635,-0.1222211197018623,0.2849414646625519
1630674841332,0.6696844696998596,0.154733344912529,-0.1410531550645828,0.302717000246048
1630674841402,0.6906183958053589,0.1640937626361847,-0.1561478227376938,0.3259083330631256
1630674841486,0.708700954914093,0.1679667234420776,-0.168297603726387,0.3587606549263
1630674841567,0.7202888131141663,0.1675405353307724,-0.2070808857679367,0.3587606549263
1630674841790,0.7228156924247742,0.1587620377540588,-0.2404611557722091,0.3587606549263
1630674841828,0.7183786034584045,0.1543617099523544,-0.2664648592472076,0.3741853535175323
1630674841909,0.7232689261436462,0.154035747051239,-0.2874027490615845,0.3878163993358612
1630674842003,0.7304713129997253,0.1553367972373962,-0.3044184148311615,0.4006248712539673
1630674842131,0.7285410761833191,0.1573837846517563,-0.3149246275424957,0.4136078655719757
1630674842212,0.7352085709571838,0.16081602871418,-0.315136194229126,0.428947240114212
1630674842353,0.7478727698326111,0.1649950742721557,-0.3018564879894256,0.4641002118587494
1630674842442,0.757590115070343,0.1660665571689605,-0.2747674882411957,0.4909693598747253
1630674842525,0.7559514045715332,0.1583937257528305,-0.2390013188123703,0.4992906451225281
1630674842631,0.7407397031784058,0.1403654813766479,-0.2037748992443084,0.4882674515247345
1630674842754,0.7155331969261169,0.1148951724171638,-0.1766820549964904,0.4658995270729065
1630674842860,0.685308575630188,0.0877160131931305,-0.1597070693969726,0.4373608529567718
1630674843014,0.6527019143104553,0.0630607306957244,-0.1506067067384719,0.3954936861991882
1630674843064,0.618624210357666,0.0419774278998374,-0.1467250734567642,0.3263129889965057
1630674843128,0.5861308574676514,0.0246741436421871,-0.145454928278923,0.3091621696949005
1630674843250,0.5616626739501953,0.0120213767513632,-0.1431160718202591,0.2955995500087738
1630674843315,0.5524192452430725,0.0043804473243653,-0.1350244730710983,0.2847822904586792
1630674843434,0.5570893883705139,8.004633855307475e-06,-0.1203175112605094,0.2767829000949859
1630674843554,0.5705245137214661,-0.0032063827384263,-0.1051990091800689,0.2715544104576111
1630674843672,0.5916601419448853,-0.0086933448910713,-0.0970347970724105,0.2674633860588074
1630674843751,0.609220564365387,-0.0173047017306089,-0.0990577861666679,0.262550801038742
1630674843858,0.6196804046630859,-0.0272095073014497,-0.1100156903266906,0.2269738316535949
1630674843937,0.6243965029716492,-0.0333835780620574,-0.1288628429174423,0.1925704330205917
1630674844026,0.6273624897003174,-0.0335598587989807,-0.1547365188598632,0.169444665312767
1630674844186,0.6322258114814758,-0.0316838063299655,-0.1847308725118637,0.1597905606031417
1630674844269,0.6383600831031799,-0.0335532538592815,-0.2131773829460144,0.1581835746765136
1630674844351,0.6430172920227051,-0.0408370830118656,-0.2339248359203338,0.1577423065900802
1630674844442,0.6467812657356262,-0.0489989966154098,-0.2443666607141494,0.1540047824382782
1630674844538,0.6540704965591431,-0.0527154020965099,-0.2444568127393722,0.1493538469076156
1630674844655,0.6671448945999146,-0.0506694503128528,-0.2373914271593094,0.1547515839338302
1630674844785,0.6823651790618896,-0.0458812192082405,-0.2297736257314682,0.1790861189365387
1630674844904,0.6938335299491882,-0.0394292026758194,-0.2293616235256195,0.2172190696001052
1630674844964,0.6992903351783752,-0.0289611853659153,-0.2389754503965377,0.2538754343986511
1630674845043,0.6990405917167664,-0.0144242392852902,-0.2501870393753052,0.2771573066711426
1630674845132,0.6901648044586182,-0.0018558843294158,-0.2709881961345672,0.2815522253513336
1630674845253,0.675789475440979,3.499805097817443e-05,-0.2877763509750366,0.2880266010761261
1630674845379,0.6602906584739685,-0.0123668080195784,-0.2979674935340881,0.2972449958324432
1630674845490,0.6494344472885132,-0.035593532025814,-0.300810843706131,0.3087754845619201
1630674845569,0.647231936454773,-0.0612503737211227,-0.295116126537323,0.3218972384929657
1630674845670,0.6534464955329895,-0.0804788172245025,-0.2795908451080322,0.3369562327861786
1630674845768,0.666479766368866,-0.0883541107177734,-0.2557528913021087,0.3554088473320007
1630674845847,0.6854503154754639,-0.0867428481578826,-0.2289985865354538,0.3810026049613952
1630674846020,0.7056567072868347,-0.0818754360079765,-0.2050009965896606,0.417715311050415
1630674846099,0.7182323336601257,-0.0793065279722213,-0.1884489506483078,0.4645997285842895
1630674846204,0.7183351516723633,-0.080869048833847,-0.1806337982416153,0.5094708800315857
1630674846302,0.7183351516723633,-0.0852318108081817,-0.1806337982416153,0.5094708800315857
1630674846388,0.7183351516723633,-0.0932832211256027,-0.1806337982416153,0.5094708800315857
1630674846487,0.7183351516723633,-0.1079930439591407,-0.1806337982416153,0.5094708800315857
1630674846632,0.7183351516723633,-0.1285050362348556,-0.1806337982416153,0.5094708800315857
1630674846693,0.7183351516723633,-0.1463650614023208,-0.2798778712749481,0.3554556965827942
1630674846820,0.5139410495758057,-0.15084008872509,-0.2133896201848983,0.3354313373565674
1630674846884,0.5101158618927002,-0.1409595757722854,-0.1530936360359192,0.3362721800804138
1630674846969,0.5147931575775146,-0.1246682256460189,-0.1051438152790069,0.355898767709732
1630674847066,0.5205143094062805,-0.1090224683284759,-0.0658154860138893,0.3790584504604339
1630674847222,0.5211390256881714,-0.0938933193683624,-0.0313056968152523,0.3954268991947174
1630674847300,0.5161749124526978,-0.0783846825361251,-0.0035631591454148,0.402162492275238
1630674847396,0.5161749124526978,-0.0648052841424942,0.0126191573217511,0.402162492275238
1630674847497,0.5161749124526978,-0.0577227585017681,0.0126191573217511,0.402162492275238
1630674847609,0.5161749124526978,-0.0583488643169403,0.0126191573217511,0.402162492275238
1630674847705,0.5161749124526978,-0.0610459558665752,0.0126191573217511,0.402162492275238
1630674847819,0.5161749124526978,-0.0578902401030063,0.0126191573217511,0.402162492275238
1630674847919,0.5161749124526978,-0.0476700998842716,0.0361953414976596,0.4001273810863495
1630674848011,0.50410395860672,-0.0380829349160194,0.0647091194987297,0.4017883539199829
1630674848119,0.5018126368522644,-0.0376216806471347,0.0941681265830993,0.410453736782074
1630674848202,0.5084083080291748,-0.0486453026533126,0.1198444291949272,0.4307242631912231
1630674848299,0.5179538130760193,-0.0668247863650322,0.1391076892614364,0.4599926173686981
1630674848434,0.5236318111419678,-0.08399398624897,0.1527033448219299,0.4853619039058685
1630674848543,0.5236318111419678,-0.0920364707708358,0.1635700464248657,0.4853619039058685
1630674848606,0.5236318111419678,-0.0875208377838134,0.1094369813799858,0.4853619039058685
1630674848721,0.5236318111419678,-0.0750669986009597,0.022069638594985,0.4853619039058685
1630674848803,0.5236318111419678,-0.0591025091707706,-0.0957346856594085,0.4853619039058685
1630674848901,0.7418037056922913,-0.0390845462679863,-0.2201986759901046,0.4914360642433166
1630674849052,0.7109717130661011,-0.0144756129011511,-0.2082831412553787,0.4652021527290344
1630674849155,0.6933718323707581,0.0087298844009637,-0.1965919584035873,0.4527479112148285
1630674849236,0.6940604448318481,0.0210130382329225,-0.1894188374280929,0.4483388364315033
1630674849318,0.7086731195449829,0.0179122202098369,-0.1834269315004348,0.4427404403686523
1630674849419,0.7289062142372131,0.0050246175378561,-0.1752525717020034,0.431047111749649
1630674849496,0.7462706565856934,-0.0068423734046518,-0.1660356670618057,0.4147407412528991
1630674849654,0.7462706565856934,-0.0096958987414836,-0.1660356670618057,0.4147407412528991
1630674849770,0.7462706565856934,-0.0026499875821173,-0.1660356670618057,0.4147407412528991
1630674849869,0.7462706565856934,0.0091385580599308,-0.1660356670618057,0.4147407412528991
1630674849987,0.7462706565856934,0.0199696719646453,-0.1660356670618057,0.4147407412528991
1630674850039,0.7462706565856934,0.0257570743560791,-0.1660356670618057,0.4147407412528991
1630674850154,0.7450583577156067,0.0247378908097744,-0.1670805215835571,0.3965954780578613
1630674850263,0.7378518581390381,0.0168087687343359,-0.1576605290174484,0.373493492603302
1630674850371,0.7356232404708862,0.0004813798004761,-0.1443790644407272,0.3575679361820221
1630674850466,0.7492232918739319,-0.0254010446369647,-0.1333493590354919,0.3548749387264251
1630674850531,0.7789149284362793,-0.0561968572437763,-0.1275360733270645,0.3576357066631317
1630674850636,0.8152046799659729,-0.080622561275959,-0.1238893344998359,0.3506571054458618
1630674850738,0.8152046799659729,-0.0898810848593711,-0.1238893344998359,0.3506571054458618
1630674850871,0.8152046799659729,-0.086001232266426,-0.1238893344998359,0.3506571054458618
1630674850948,0.8152046799659729,-0.0790330171585083,-0.1238893344998359,0.3506571054458618
1630674851061,0.8152046799659729,-0.0750513896346092,-0.1238893344998359,0.3506571054458618
1630674851171,0.8152046799659729,-0.0726940706372261,-0.2930468320846557,0.3506571054458618
1630674851251,0.8152046799659729,-0.0678426697850227,-0.2856901288032532,0.3506571054458618
1630674851329,0.7322308421134949,-0.0580214336514472,-0.2842330634593963,0.1671404987573623
1630674851463,0.7138846516609192,-0.046011097729206,-0.2845693230628967,0.1328554153442382
1630674851555,0.7138846516609192,-0.0375908799469471,-0.2845693230628967,0.1328554153442382
1630674851666,0.7138846516609192,-0.0382099598646163,-0.2845693230628967,0.1328554153442382
1630674851801,0.7138846516609192,-0.0388161912560462,-0.2845693230628967,0.1328554153442382
1630674851849,0.7138846516609192,-0.0363775268197059,-0.2845693230628967,0.1328554153442382
1630674851951,0.7138846516609192,-0.0293614827096462,-0.2845693230628967,0.1328554153442382
1630674852065,0.7138846516609192,-0.0207200720906257,-0.2845693230628967,0.1328554153442382
1630674852188,0.7138846516609192,-0.0148360254243016,-0.2845693230628967,0.1328554153442382
1630674852269,0.7138846516609192,-0.0121311461552977,-0.2845693230628967,0.1328554153442382
1630674852386,0.7138846516609192,-0.0086134066805243,-0.2854461967945099,0.1328554153442382
1630674852467,0.7138846516609192,0.0016554556787014,-0.2791110575199127,0.1328554153442382
1630674852553,0.6801007986068726,0.0216014124453067,-0.2733280956745147,0.1154994517564773
1630674852707,0.6801007986068726,0.0472719706594944,-0.2733280956745147,0.1154994517564773
1630674852784,0.6801007986068726,0.0438118614256382,-0.2733280956745147,0.1154994517564773
1630674852901,0.6801007986068726,0.0261390693485736,-0.2733280956745147,0.1154994517564773
1630674852983,0.6801007986068726,0.0020074085332453,-0.2733280956745147,0.1154994517564773
1630674853087,0.6801007986068726,-0.0095174908638,-0.0630103424191474,0.1154994517564773
1630674853165,0.6801007986068726,-0.0013158614747226,-0.0541419349610805,0.1154994517564773
1630674853320,0.6801007986068726,-0.0034475028514862,-0.060830570757389,0.1154994517564773
1630674853417,0.6801007986068726,-0.0172211602330207,-0.0772803649306297,0.1154994517564773
1630674853492,0.6801007986068726,-0.0362791568040847,-0.0946756303310394,0.1154994517564773
1630674853574,0.6801007986068726,-0.0541702918708324,-0.1052616238594055,0.1154994517564773
1630674853684,0.6801007986068726,-0.0688991546630859,-0.1071321815252304,0.1154994517564773
1630674853767,0.6801007986068726,-0.0790483430027961,-0.0994687303900718,0.1154994517564773
1630674853930,0.6801007986068726,-0.0802943110466003,-0.0808110758662223,0.1154994517564773
1630674854039,0.6801007986068726,-0.0718861892819404,-0.0541631504893302,0.1154994517564773
1630674854116,0.6801007986068726,-0.0583936087787151,-0.0541631504893302,0.1154994517564773
1630674854190,0.6801007986068726,-0.0583936087787151,-0.0541631504893302,0.1154994517564773
1630674854303,0.6801007986068726,-0.0594052895903587,-0.0489425808191299,0.1154994517564773
1630674854401,0.6801007986068726,-0.0627078041434288,-0.0446345135569572,0.1154994517564773
1630674854531,0.6801007986068726,-0.0689695701003074,-0.0450764261186122,0.1154994517564773
1630674854656,0.6801007986068726,-0.0795958563685417,-0.0502881854772567,0.1154994517564773
1630674854718,0.6801007986068726,-0.0936768054962158,-0.0541764125227928,0.1154994517564773
1630674854803,0.6801007986068726,-0.104707583785057,-0.0485285744071006,0.1154994517564773
1630674854919,0.6801007986068726,-0.1038820743560791,-0.0286618750542402,0.1154994517564773
1630674854998,0.6801007986068726,-0.0897482708096504,0.0036944109015166,0.1154994517564773
1630674855187,0.6801007986068726,-0.0661006420850753,0.0426603630185127,0.1154994517564773
1630674855249,0.6801007986068726,-0.0331905037164688,0.0426603630185127,0.1154994517564773
1630674855328,0.6801007986068726,0.003464728128165,0.0426603630185127,0.1154994517564773
1630674855419,0.6801007986068726,0.0188478641211986,0.0426603630185127,0.1154994517564773
1630674855523,0.6801007986068726,0.0155938500538468,0.0426603630185127,0.1154994517564773
1630674855598,0.6801007986068726,0.0124301183968782,-0.1616847962141037,0.1154994517564773
1630674855712,0.6801007986068726,0.0471884347498416,-0.1721924841403961,0.1154994517564773
1630674855834,0.9374767541885376,0.0803114846348762,-0.1847677230834961,0.1154994517564773
1630674855935,0.9072916507720948,0.1006936505436897,-0.1933083534240722,0.1154994517564773
1630674856039,0.879559338092804,0.1050605252385139,-0.197984829545021,0.1154994517564773
1630674856121,0.861659049987793,0.0968978926539421,-0.2009903341531753,0.1154994517564773
1630674856238,0.856381893157959,0.0819914937019348,-0.1975242644548416,0.2194659560918808
1630674856351,0.8594143986701965,0.066882237792015,-0.1819843202829361,0.2086031436920166
1630674856446,0.8621417880058289,0.0573239997029304,-0.1565776020288467,0.2159713953733444
1630674856557,0.8574844598770142,0.0554116293787956,-0.1304017901420593,0.2377191632986068
1630674856637,0.8437214493751526,0.0575605183839798,-0.11072538793087,0.2648847103118896
1630674856751,0.8437214493751526,0.0586250014603138,-0.0981000512838363,0.2648847103118896
1630674856816,0.8437214493751526,0.0625773817300796,-0.0935507118701934,0.2648847103118896
1630674856954,0.8277727365493774,0.0717357099056243,-0.0882907211780548,0.2648847103118896
1630674857065,0.8077446222305298,0.0901308804750442,-0.0837341099977493,0.2648847103118896
1630674857152,0.8077446222305298,0.1111922115087509,-0.0771069377660751,0.2648847103118896
1630674857277,0.7945395112037659,0.1238656789064407,-0.0653111711144447,0.2648847103118896
1630674857344,0.7879689335823059,0.1233247146010398,-0.0486471951007843,0.2648847103118896
1630674857447,0.7918439507484436,0.1167501956224441,-0.0290791522711515,0.2545987367630005
1630674857585,0.804658055305481,0.1153576970100402,-0.0064990175887942,0.2558030784130096
1630674857664,0.8172950148582458,0.1116519793868064,0.0212914030998945,0.2744142413139343
1630674857776,0.8172363638877869,0.1140406355261802,0.0508836358785629,0.3060000538825989
1630674857868,0.8172363638877869,0.1183213666081428,0.0730458199977874,0.3060000538825989
1630674857933,0.8172363638877869,0.1206679120659828,0.0231660325080156,0.3060000538825989
1630674858046,0.8172363638877869,0.1201029792428016,-0.0538414195179939,0.3060000538825989
1630674858288,0.4833865761756897,0.1171753257513046,-0.2257797569036483,0.3558062016963959
1630674858393,0.4962089359760284,0.1157316043972969,-0.1995829641819,0.3738612830638885
1630674858472,0.5267127156257629,0.108244314789772,-0.1613601893186569,0.4064139723777771
1630674858579,0.5627332925796509,0.0894022285938263,-0.1221528947353363,0.4385115802288055
1630674858684,0.5954151749610901,0.0620082393288612,-0.0904621332883834,0.4590601623058319
1630674858781,0.6266404986381531,0.0374996848404407,-0.0703797563910484,0.4689022898674011
1630674858899,0.6603599190711975,0.0284372940659523,-0.0620102733373642,0.474976122379303
1630674858961,0.6951408982276917,0.0393425337970256,-0.0615085400640964,0.4815991520881653
1630674859067,0.7264626622200012,0.049567837268114,-0.062571108341217,0.486777663230896
1630674859167,0.753981351852417,0.0625539422035217,-0.0616081245243549,0.4895680844783783
1630674859284,0.7777743935585022,0.0724042877554893,-0.0584119036793708,0.4935258626937866
1630674859406,0.7945167422294617,0.0802807658910751,-0.052653394639492,0.5010738372802734
1630674859504,0.8156719207763672,0.087784469127655,-0.0321394503116607,0.5199011564254761
1630674859587,0.8269900679588318,0.0963702350854873,-0.002657197182998,0.5337042808532715
1630674859695,0.8345806002616882,0.1059049814939498,0.0282936654984951,0.5409549474716187
1630674859760,0.8434725403785706,0.1142438128590583,0.0491192154586315,0.5508455038070679
1630674859884,0.8521862626075745,0.1172320693731308,0.0549865551292896,0.5583416819572449
1630674860006,0.8559310436248779,0.1126617863774299,0.0503439530730247,0.5598121881484985
1630674860101,0.852554976940155,0.1024182513356208,0.042030856013298,0.556658148765564
1630674860202,0.8428650498390198,0.0904756113886833,0.0328466072678566,0.5514191389083862
1630674860304,0.8274455070495605,0.0784211307764053,0.0230854321271181,0.5470237731933594
1630674860385,0.8061100840568542,0.064570628106594,0.0150487413629889,0.5377440452575684
1630674860466,0.7804141044616699,0.0471574664115905,0.0114366989582777,0.5207750797271729
1630674860635,0.7545946836471558,0.0273783579468727,0.0117956791073083,0.4989355504512787
1630674860703,0.7311044931411743,0.008881302550435,0.0134566910564899,0.4755520522594452
1630674860802,0.7095766663551331,-0.0048998156562447,0.0142043102532625,0.4496883749961853
1630674860920,0.6904268264770508,-0.0146279772743582,0.0113808279857039,0.4197742342948913
1630674861004,0.676504373550415,-0.0251972842961549,-0.0006360075203701,0.3887501060962677
1630674861090,0.6679164171218872,-0.0431893281638622,-0.0264274142682552,0.3629965782165527
1630674861221,0.6603763699531555,-0.0687109306454658,-0.0612834580242633,0.3460181355476379
1630674861314,0.6499053239822388,-0.0921083912253379,-0.0914308726787567,0.3396848440170288
1630674861417,0.6365509033203125,-0.1010462045669555,-0.1072172001004219,0.3275389373302459
1630674861503,0.6244602203369141,-0.0936056971549987,-0.1133314296603202,0.314001977443695
1630674861619,0.6188907623291016,-0.0794292241334915,-0.1190022453665733,0.3032085001468658
1630674861735,0.6209883689880371,-0.0681590512394905,-0.1261123120784759,0.2751965224742889
1630674861833,0.6273754835128784,-0.0619699507951736,-0.1323932260274887,0.2530574798583984
1630674861919,0.6376623511314392,-0.057778924703598,-0.1394537091255188,0.2399028241634369
1630674861999,0.6459363698959351,-0.0513059794902801,-0.1485954076051712,0.2341256588697433
1630674862117,0.6479208469390869,-0.0358946695923805,-0.1549746543169021,0.2348984330892563
1630674862232,0.6396484971046448,-0.0104595441371202,-0.1670741736888885,0.2397432327270507
1630674862316,0.6204902529716492,0.0174132082611322,-0.1835183352231979,0.2435988634824752
1630674862471,0.5962327122688293,0.0388038419187068,-0.2015620619058609,0.2402687817811966
1630674862559,0.5766393542289734,0.0436952263116836,-0.2165609002113342,0.2257687896490097
1630674862637,0.5682212710380554,0.0514816083014011,-0.2231613546609878,0.200157031416893
1630674862736,0.5694164633750916,0.0621790438890457,-0.2208439111709594,0.1698768138885498
1630674862829,0.5739246010780334,0.0729644522070884,-0.2142314016819,0.1485543251037597
1630674862903,0.5784743428230286,0.0585398450493812,-0.2099243551492691,0.1489773541688919
1630674863066,0.5784743428230286,0.0533898547291755,-0.1836652755737304,0.1489773541688919
1630674863152,0.5784743428230286,0.0693159475922584,-0.1550922989845276,0.1489773541688919
1630674863233,0.5784743428230286,0.1031553000211715,-0.1217635497450828,0.1489773541688919
1630674863321,0.5784743428230286,0.1393952816724777,-0.0799703896045684,0.1489773541688919
1630674863442,0.7954418659210205,0.1648536473512649,-0.0271751191467046,0.4255324304103851
1630674863550,0.7954418659210205,0.1794835776090622,0.0307205449789762,0.4255324304103851
1630674863684,0.7954418659210205,0.1886008232831955,0.0307205449789762,0.4255324304103851
1630674863782,0.7954418659210205,0.1868565529584884,0.0307205449789762,0.4255324304103851
1630674863845,0.7954418659210205,0.1756947338581085,0.0307205449789762,0.4255324304103851
1630674863971,0.7954418659210205,0.1656090170145034,0.0307205449789762,0.4255324304103851
1630674864050,0.7954418659210205,0.1656090170145034,0.0307205449789762,0.4255324304103851
1630674864127,0.7954418659210205,0.1656090170145034,0.0307205449789762,0.4255324304103851
1630674864287,0.7954418659210205,0.1656090170145034,0.0307205449789762,0.4255324304103851
1630674864406,0.7954418659210205,0.1656090170145034,0.0307205449789762,0.4255324304103851
1630674864472,0.7954418659210205,0.2179895639419555,0.0307205449789762,0.4255324304103851
1630674864554,0.7954418659210205,0.2659259140491485,0.0471829585731029,0.4255324304103851
1630674864650,0.7954418659210205,0.2659259140491485,0.0635181665420532,0.4255324304103851
1630674864737,0.7954418659210205,0.2659259140491485,0.0635181665420532,0.4255324304103851
1630674864885,0.7954418659210205,0.2659259140491485,0.0635181665420532,0.4255324304103851
1630674865003,0.7954418659210205,0.2659259140491485,0.0635181665420532,0.4255324304103851
1630674865064,0.7954418659210205,0.2659259140491485,0.0635181665420532,0.4255324304103851
1630674865157,0.7954418659210205,0.2659259140491485,-0.2017363160848617,0.4255324304103851
1630674865285,0.7954418659210205,-0.1248365938663482,-0.2110383957624435,0.4255324304103851
1630674865335,0.9063981175422668,-0.1160382702946662,-0.2111565619707107,0.4675757884979248
1630674865527,0.9090535640716552,-0.0850256457924842,-0.2065296173095703,0.4819535911083221
1630674865622,0.8990627527236938,-0.0581218637526035,-0.1994085311889648,0.4799323976039886
1630674865703,0.8850163817405701,-0.047474093735218,-0.1928423345088958,0.46214160323143
1630674865801,0.8703826665878296,-0.0487547516822814,-0.1907429993152618,0.4367118179798126
1630674865877,0.8557864427566528,-0.051361184567213,-0.1935289055109024,0.4144853353500366
1630674865984,0.8426057696342468,-0.0493974536657333,-0.197148710489273,0.4024033546447754
1630674866094,0.8314244747161865,-0.0438866652548313,-0.1957536041736602,0.4000913202762604
1630674866192,0.8209626078605652,-0.0371623635292053,-0.1867336928844452,0.4010079503059387
1630674866284,0.8096989393234253,-0.028198329731822,-0.1727464497089386,0.4010079503059387
1630674866408,0.8096989393234253,-0.028198329731822,-0.1644742786884308,0.4010079503059387
1630674866482,0.8096989393234253,-0.0332806818187236,-0.1527846902608871,0.4010079503059387
1630674866570,0.8145593404769897,-0.027607524767518,-0.1456138640642166,0.399956077337265
1630674866754,0.8068283200263977,-0.0120883183553814,-0.1366619169712066,0.3965370953083038
1630674866833,0.7860247492790222,0.005144874099642,-0.1284037381410598,0.385768324136734
1630674866906,0.7586781978607178,0.0138774206861853,-0.1215637996792793,0.3634603917598724
1630674867022,0.7336369156837463,0.0100194541737437,-0.1161513179540634,0.3322895765304565
1630674867104,0.7150471210479736,-0.0002043373388005,-0.1122855693101883,0.3044828772544861
1630674867166,0.7012737393379211,-0.0037599944043904,-0.1085245460271835,0.2977454960346222
1630674867332,0.6905467510223389,0.0065160640515387,-0.1001336872577667,0.3193685114383697
1630674867419,0.6836585402488708,0.024819690734148,-0.0827246233820915,0.3193685114383697
1630674867520,0.6836585402488708,0.024819690734148,-0.0572252012789249,0.3193685114383697
1630674867626,0.6836585402488708,0.024819690734148,-0.057862251996994,0.3193685114383697
1630674867687,0.6836585402488708,0.024819690734148,-0.067796304821968,0.3193685114383697
1630674867801,0.6836585402488708,0.024819690734148,-0.082570195198059,0.3193685114383697
1630674867936,0.6836585402488708,0.024819690734148,-0.082570195198059,0.3193685114383697
1630674868014,0.6836585402488708,0.024819690734148,-0.082570195198059,0.3193685114383697
1630674868137,0.6836585402488708,0.024819690734148,-0.082570195198059,0.3193685114383697
1630674868219,0.6836585402488708,0.024819690734148,-0.082570195198059,0.3193685114383697
1630674868338,0.6836585402488708,0.024819690734148,-0.082570195198059,0.3193685114383697
1630674868430,0.6836585402488708,0.024819690734148,-0.082570195198059,0.3193685114383697
1630674868561,0.6836585402488708,0.024819690734148,-0.082570195198059,0.3193685114383697
1630674868659,0.6836585402488708,0.024819690734148,-0.082570195198059,0.3193685114383697
1630674868738,0.6836585402488708,0.024819690734148,-0.082570195198059,0.3193685114383697
1630674868819,0.6836585402488708,0.024819690734148,-0.082570195198059,0.3193685114383697
1630674868919,0.6836585402488708,0.024819690734148,-0.082570195198059,0.3193685114383697
1630674868997,0.6836585402488708,0.024819690734148,-0.2070348411798477,0.3193685114383697
1630674869142,0.6836585402488708,0.024819690734148,-0.2436575442552566,0.3193685114383697
1630674869221,0.7320624589920044,-0.0276996530592441,-0.2896628975868225,0.2682951092720032
1630674869318,0.7467018961906433,-0.030439767986536,-0.288718968629837,0.2827021479606628
1630674869420,0.7596679925918579,-0.0131311314180493,-0.2915084064006805,0.2903947234153747
1630674869516,0.7689351439476013,0.0089893518015742,-0.296117216348648,0.2924472093582153
1630674869652,0.7717908620834351,0.0262050163000822,-0.2952606379985809,0.2929768860340118
1630674869768,0.7673831582069397,0.0359685383737087,-0.2851060330867767,0.2940512895584106
1630674869853,0.7575920224189758,0.0392576344311237,-0.2697162926197052,0.2942009270191192
1630674869946,0.7445180416107178,0.0373647175729274,-0.2548456788063049,0.2898936867713928
1630674870062,0.7290825247764587,0.0326544269919395,-0.243181437253952,0.280314177274704
1630674870142,0.7290825247764587,0.0326544269919395,-0.2360055744647979,0.280314177274704
1630674870203,0.7290825247764587,0.0326544269919395,-0.2314492613077163,0.280314177274704
1630674870350,0.7290825247764587,0.0326544269919395,-0.2314492613077163,0.280314177274704
1630674870452,0.7253532409667969,0.0252774506807327,-0.2329738587141037,0.2822072803974151
1630674870553,0.7298575043678284,0.0284845791757106,-0.2270847409963607,0.2867922484874725
1630674870669,0.7320849895477295,0.0421729236841201,-0.2179652750492096,0.2892785370349884
1630674870757,0.7275848984718323,0.0599522851407527,-0.210186094045639,0.2862012386322021
1630674870836,0.7160447835922241,0.0726969167590141,-0.202619731426239,0.2786004245281219
1630674870967,0.6961787939071655,0.0740700736641883,-0.1912955939769745,0.2699941098690033
1630674871084,0.6663253307342529,0.0637581497430801,-0.1751743257045745,0.2627375423908233
1630674871178,0.6285338997840881,0.0452728383243083,-0.1587599962949752,0.2538242638111114
1630674871241,0.6285338997840881,0.0452728383243083,-0.1489513516426086,0.2538242638111114
1630674871366,0.6285338997840881,0.0452728383243083,-0.1212659701704979,0.2538242638111114
1630674871447,0.6285338997840881,0.0452728383243083,-0.1036055237054824,0.2538242638111114
1630674871588,0.6285338997840881,0.0452728383243083,-0.0975628197193145,0.2538242638111114
1630674871704,0.7946194410324097,0.1729432195425033,-0.0952834412455558,0.2538242638111114
1630674871754,0.7626594305038452,0.1891862452030182,-0.0818622037768364,0.3897867500782013
1630674871897,0.7310348153114319,0.1791099160909652,-0.0668255388736724,0.3777346312999725
1630674871988,0.7065577507019043,0.154645025730133,-0.0448440685868263,0.3818053007125854
1630674872067,0.6930189728736877,0.1277540177106857,-0.0308423284441232,0.4032616019248962
1630674872188,0.6878078579902649,0.1061046868562698,-0.0316195972263813,0.4296171963214874
1630674872301,0.6840237975120544,0.090952917933464,-0.0443585142493248,0.4482711851596832
1630674872398,0.6759182214736938,0.0801823511719703,-0.0627322047948837,0.4555828273296356
1630674872467,0.6622828841209412,0.0709070488810539,-0.0813824608922004,0.4574676752090454
1630674872567,0.646231472492218,0.0610004179179668,-0.0983443185687065,0.46535724401474
1630674872683,0.6331642270088196,0.0507944002747535,-0.1133225932717323,0.485260546207428
1630674872816,0.628262996673584,0.0434905290603637,-0.1276361942291259,0.5107724666595459
1630674872930,0.6145742535591125,0.0441242568194866,-0.1504932641983032,0.5305483937263489
1630674873022,0.6111505031585693,0.0396295748651027,-0.1715601533651352,0.5460860133171082
1630674873069,0.6146665215492249,0.0226722843945026,-0.1832843273878097,0.5516719818115234
1630674873214,0.6217384934425354,-0.0039508743211627,-0.1845312267541885,0.5548096299171448
1630674873275,0.631404459476471,-0.024710826575756,-0.183982565999031,0.5598236918449402
1630674873386,0.6436788439750671,-0.0248633865267038,-0.1921240091323852,0.5639351010322571
1630674873526,0.6512523293495178,-0.0244350340217351,-0.2122789770364761,0.5735034942626953
1630674873614,0.6560062766075134,-0.0173077043145895,-0.2396736890077591,0.5777872204780579
1630674873702,0.6570160388946533,-0.0096084587275981,-0.2598950266838074,0.5776438117027283
1630674873791,0.6577911972999573,-0.0040287035517394,-0.2672884166240692,0.57795649766922
1630674873870,0.6644197702407837,-0.0001007786413538,-0.2637290954589844,0.5836602449417114
1630674874009,0.6811758279800415,0.0047938805073499,-0.2545864284038543,0.5941381454467773
1630674874118,0.7072080969810486,0.0142959374934434,-0.2425978481769561,0.6000365614891052
1630674874210,0.7366846203804016,0.0294489935040473,-0.2283071428537368,0.5886939167976379
1630674874313,0.7609454393386841,0.0445559099316597,-0.2082651853561401,0.5543968081474304
1630674874404,0.7718106508255005,0.0510272532701492,-0.1796538531780243,0.5051050186157227
1630674874551,0.7655729055404663,0.04999440908432,-0.1463838815689087,0.462816447019577
1630674874680,0.7655729055404663,0.04999440908432,-0.1183984726667404,0.462816447019577
1630674874765,0.7655729055404663,0.04999440908432,-0.1151010394096374,0.462816447019577
1630674874826,0.7655729055404663,0.04999440908432,-0.1373180598020553,0.462816447019577
1630674874956,0.7655729055404663,0.04999440908432,-0.1622264236211776,0.462816447019577
1630674875004,0.7655729055404663,0.04999440908432,-0.1604900658130645,0.462816447019577
1630674875106,0.6219586133956909,0.0594735629856586,-0.1394735276699066,0.462816447019577
1630674875212,0.6219586133956909,0.0503810569643974,-0.1394735276699066,0.462816447019577
1630674875348,0.6219586133956909,0.0519999675452709,-0.1394735276699066,0.462816447019577
1630674875422,0.6219586133956909,0.0519999675452709,-0.1394735276699066,0.462816447019577
1630674875546,0.6219586133956909,0.0519999675452709,-0.1394735276699066,0.462816447019577
1630674875625,0.6219586133956909,0.0519999675452709,-0.1394735276699066,0.462816447019577
1630674875714,0.6219586133956909,0.0519999675452709,-0.1394735276699066,0.462816447019577
1630674875847,0.6219586133956909,0.0519999675452709,-0.1394735276699066,0.462816447019577
1630674875939,0.6219586133956909,0.0519999675452709,-0.1394735276699066,0.462816447019577
1630674876055,0.6219586133956909,0.0519999675452709,-0.1394735276699066,0.462816447019577
1630674876169,0.6219586133956909,0.0519999675452709,-0.1394735276699066,0.462816447019577
1630674876200,0.6219586133956909,0.0519999675452709,-0.1373347640037536,0.462816447019577
1630674876334,0.6219586133956909,0.0566705167293548,-0.1373347640037536,0.462816447019577
1630674876472,0.6219586133956909,0.0140871312469244,-0.1373347640037536,0.462816447019577
1630674876587,0.6219586133956909,-0.0271255653351545,-0.1373347640037536,0.462816447019577
1630674876664,0.6219586133956909,-0.0433438047766685,-0.1373347640037536,0.462816447019577
1630674876736,0.6219586133956909,-0.02668540738523,-0.2449543625116348,0.462816447019577
1630674876834,0.7483749985694885,-0.0073297647759318,-0.2100499123334884,0.460666298866272
1630674876917,0.7403351664543152,0.0185313150286674,-0.1774319410324096,0.4563845098018646
1630674877086,0.7265682816505432,0.0239796414971351,-0.1654474735260009,0.4486181735992431
1630674877164,0.7132315635681152,0.0132001619786024,-0.174977645277977,0.4368805587291717
1630674877306,0.703952431678772,-0.0041072680614888,-0.1933103799819946,0.4257633984088897
1630674877386,0.6991225481033325,-0.0175642576068639,-0.2056223303079605,0.4209738373756408
1630674877437,0.6958184838294983,-0.0222146138548851,-0.2052955031394958,0.4228768050670624
1630674877519,0.6918780207633972,-0.0175813045352697,-0.1956855505704879,0.4265093505382538
1630674877663,0.6867337822914124,-0.0058434437960386,-0.1847709119319915,0.4262149930000305
1630674877775,0.6795530319213867,0.0089550502598285,-0.1777560263872146,0.4192538559436798
1630674877855,0.6697794795036316,0.0232662446796894,-0.1742474436759948,0.4064534604549408
1630674877967,0.6590837836265564,0.0467985086143016,-0.1674352884292602,0.3914689421653747
1630674878070,0.6555898189544678,0.0655153319239616,-0.1545799970626831,0.3871754705905914
1630674878170,0.6471666097640991,0.0778338089585304,-0.1467161625623703,0.3795250952243805
1630674878318,0.6345146894454956,0.0825921595096588,-0.1423394083976745,0.3713932633399963
1630674878383,0.6214509010314941,0.0795198008418083,-0.1467022001743316,0.3632964789867401
1630674878467,0.6119406819343567,0.0711687877774238,-0.1574444472789764,0.3549680411815643
1630674878577,0.6074602007865906,0.064049556851387,-0.1636585742235183,0.348711609840393
1630674878672,0.6054438948631287,0.0648148357868194,-0.1551986038684845,0.3474219739437103
1630674878789,0.6013955473899841,0.074159488081932,-0.1340110599994659,0.348642349243164
1630674878884,0.5911188125610352,0.0862155482172966,-0.1115550994873046,0.3430747091770172
1630674878986,0.5747313499450684,0.0947817042469978,-0.0981505736708641,0.3208893835544586
1630674879102,0.5535669922828674,0.0964344888925552,-0.0973832532763481,0.2773521244525909
1630674879219,0.5535669922828674,0.0902423784136772,-0.1040876880288124,0.2773521244525909
1630674879280,0.5535669922828674,0.0776752233505249,-0.1042824760079383,0.2773521244525909
1630674879360,0.5535669922828674,0.0606187134981155,-0.105319008231163,0.2773521244525909
1630674879504,0.5535669922828674,0.0430687926709651,-0.1152233034372329,0.2773521244525909
1630674879603,0.5535669922828674,0.0290678646415472,-0.1463480442762375,0.2773521244525909
1630674879703,0.6305407881736755,0.0200140345841646,-0.1546768397092819,0.3651086688041687
1630674879819,0.6490912437438965,0.015243811532855,-0.1507200449705124,0.3514621555805206
1630674879885,0.6534603238105774,0.0147488098591566,-0.1350725293159485,0.3229695856571197
1630674879979,0.6379207372665405,0.0194806531071662,-0.113771729171276,0.2910179495811462
1630674880120,0.6105079054832458,0.0281557701528072,-0.0951241105794906,0.2646032869815826
1630674880221,0.5850791931152344,0.0366837382316589,-0.0849635004997253,0.2502978444099426
1630674880294,0.5726360082626343,0.040923535823822,-0.0824128240346908,0.2514877915382385
1630674880426,0.5752381086349487,0.0397403016686439,-0.0823692753911018,0.2642533183097839
1630674880518,0.5872495770454407,0.0335755348205566,-0.0793713852763176,0.281344324350357
1630674880609,0.6007195115089417,0.0245094671845436,-0.0713212937116622,0.3010485470294952
1630674880740,0.6095530390739441,0.0168881732970476,-0.0583732463419437,0.3265833258628845
1630674880820,0.611360490322113,0.0146123794838786,-0.0403356030583381,0.3594632148742676
1630674880895,0.6024607419967651,0.0180707033723592,-0.0215804316103458,0.40080526471138
1630674881012,0.5999507308006287,0.0242644548416137,-0.0078783389180898,0.4328328967094421
1630674881102,0.6011685132980347,0.0306995119899511,-0.0016305999597534,0.4490596354007721
1630674881204,0.5998501777648926,0.0382440388202667,-0.0014079237589612,0.4524306952953338
1630674881346,0.5942312479019165,0.0489521771669387,-0.0035848941188305,0.4521574676036834
1630674881453,0.5893913507461548,0.0614196173846721,-0.004446702543646,0.4560546576976776
1630674881519,0.5917037725448608,0.0701120495796203,-0.0035134609788656,0.4654852747917175
1630674881615,0.6014758944511414,0.0703599974513053,-0.0028389221988618,0.4767262935638428
1630674881697,0.6127225160598755,0.0612705238163471,-0.0042817848734557,0.4860027730464935
1630674881790,0.6189958453178406,0.0458416491746902,-0.0090566435828804,0.4913921356201172
1630674881971,0.6173175573348999,0.0297753233462572,-0.0180433765053749,0.4928251802921295
1630674882053,0.6086167693138123,0.0196520276367664,-0.0318651311099529,0.4902423024177551
1630674882152,0.5961299538612366,0.0180368069559335,-0.0508653223514556,0.4815259575843811
1630674882239,0.5840874910354614,0.0217816922813653,-0.0765341073274612,0.4638762474060058
1630674882312,0.5754620432853699,0.0250875614583492,-0.1093038171529769,0.434900164604187
1630674882382,0.5694230794906616,0.0245631355792284,-0.1466107815504074,0.3960774540901184
1630674882550,0.5625426173210144,0.0180851370096206,-0.178293839097023,0.3576672375202179
1630674882641,0.5599744915962219,0.003386283526197,-0.1871831715106964,0.3378446102142334
1630674882747,0.5526896119117737,-0.020791295915842,-0.1873851120471954,0.3287874460220337
1630674882843,0.5438261032104492,-0.0521327964961528,-0.1881943792104721,0.3318989276885986
1630674882960,0.5372666120529175,-0.0859389826655387,-0.2012021839618683,0.3774685859680176
1630674883023,0.5339738130569458,-0.1156457215547561,-0.2319510281085968,0.3832669854164123
1630674883207,0.5321070551872253,-0.134726881980896,-0.276131808757782,0.3871114552021026
1630674883259,0.5295798778533936,-0.1379626095294952,-0.3208557069301605,0.390040636062622
1630674883342,0.5246093273162842,-0.1258367300033569,-0.3525729179382324,0.3910831212997436
1630674883454,0.5159189701080322,-0.1058485880494117,-0.3663588166236877,0.3896965980529785
1630674883563,0.502120852470398,-0.0872085615992546,-0.3705812394618988,0.3898722231388092
1630674883618,0.4830934405326843,-0.0751177296042442,-0.3778969347476959,0.3989462256431579
1630674883758,0.4830934405326843,-0.0707058161497116,-0.3778969347476959,0.3981174528598785
1630674883835,0.4830934405326843,-0.0718234553933143,-0.3778969347476959,0.403431624174118
1630674883987,0.4830934405326843,-0.0737131983041763,-0.3778969347476959,0.4126599133014679
1630674884084,0.4830934405326843,-0.071950189769268,-0.3778969347476959,0.4116534888744354
1630674884134,0.6296600699424744,-0.0666152909398078,-0.070285715162754,0.3770081698894501
1630674884219,0.6382396817207336,-0.0597379282116889,-0.1112594380974769,0.3355378806591034
1630674884398,0.6402840614318848,-0.0512575060129165,-0.1476340293884277,0.2936778366565704
1630674884503,0.6323441863059998,-0.0385221466422081,-0.1794644147157669,0.1556489169597625
1630674884586,0.6152622699737549,-0.0222183354198932,-0.2055164873600006,0.1320604085922241
1630674884670,0.5922468304634094,-0.0082597509026527,-0.2214969992637634,0.1208038330078125
1630674884787,0.5677865147590637,-0.0019425833597779,-0.2249475717544555,0.1215709745883941
1630674884868,0.5477656126022339,-0.0023109363391995,-0.21945621073246,0.1317279636859893
1630674884986,0.5376380085945129,-0.0058546927757561,-0.2120711356401443,0.1481596082448959
1630674885072,0.5366194248199463,-0.0115060042589902,-0.2082290351390838,0.1683661788702011
1630674885185,0.5381579399108887,-0.0204349979758262,-0.2098576128482818,0.1891315728425979
1630674885278,0.5370250940322876,-0.0309875775128602,-0.2162248492240905,0.2030177116394043
1630674885371,0.5306971669197083,-0.0384100712835788,-0.2508346736431122,0.2141486555337906
1630674885453,0.5259727835655212,-0.0400697737932205,-0.2807161211967468,0.224547192454338
1630674885593,0.5267659425735474,-0.0370596274733543,-0.2975020706653595,0.218790516257286
1630674885682,0.5154417753219604,-0.0341674052178859,-0.3025259971618652,0.2231753170490265
1630674885771,0.5008132457733154,-0.0298925209790468,-0.3004794418811798,0.2403275519609451
1630674885888,0.4856750965118408,-0.0286794751882553,-0.2933274805545807,0.2660117447376251
1630674885985,0.4758294522762298,-0.0359166637063026,-0.2819000482559204,0.2948452234268188
1630674886087,0.4762003719806671,-0.0509038418531417,-0.2680653929710388,0.3237571120262146
1630674886186,0.4886837303638458,-0.0650857388973236,-0.2575483918190002,0.3511789739131927
1630674886319,0.5112067461013794,-0.0717845484614372,-0.2575791478157043,0.3753257393836975
1630674886421,0.5368285775184631,-0.0756984800100326,-0.2720195651054382,0.3954240679740906
1630674886481,0.5551232099533081,-0.0849671959877014,-0.2989641726016998,0.4109494686126709
1630674886571,0.5610510110855103,-0.0970010533928871,-0.3316600322723388,0.4206026494503021
1630674886721,0.5618902444839478,-0.096979796886444,-0.3607423305511474,0.4206026494503021
1630674886805,0.5618902444839478,-0.096979796886444,-0.3607423305511474,0.4206026494503021
1630674886914,0.5618902444839478,-0.096979796886444,-0.3607423305511474,0.4206026494503021
1630674886990,0.5618902444839478,-0.096979796886444,-0.3607423305511474,0.4206026494503021
1630674887102,0.5618902444839478,-0.096979796886444,-0.3607423305511474,0.4206026494503021
1630674887221,0.5618902444839478,0.1432318836450576,-0.0687502399086952,0.4206026494503021
1630674887313,0.9524179697036744,0.1779420375823974,-0.0706687048077583,0.5767319202423096
1630674887450,0.9453749656677246,0.197505310177803,-0.0742936506867408,0.5746034383773804
1630674887515,0.931017816066742,0.2064062356948852,-0.0701583549380302,0.5808772444725037
1630674887652,0.9188857078552246,0.2060062885284423,-0.0610735639929771,0.5997064709663391
1630674887719,0.909591794013977,0.1964966803789138,-0.0525194853544235,0.6176518797874451
1630674887838,0.909591794013977,0.1964966803789138,-0.0525194853544235,0.6176518797874451
1630674887915,0.909591794013977,0.1964966803789138,-0.0525194853544235,0.6176518797874451
1630674888026,0.909591794013977,0.1964966803789138,-0.0525194853544235,0.6176518797874451
1630674888147,0.909591794013977,0.1964966803789138,-0.0525194853544235,0.6176518797874451
1630674888214,0.909591794013977,0.1964966803789138,-0.0525194853544235,0.6176518797874451
1630674888299,0.909591794013977,0.1964966803789138,-0.0525194853544235,0.6176518797874451
1630674888404,0.909591794013977,0.2173367887735366,-0.0413063950836658,0.6176518797874451
1630674888504,0.9207414388656616,0.235020250082016,-0.0361079424619674,0.6351945996284485
1630674888654,0.914465069770813,0.2412592619657516,-0.0383538454771041,0.6429896354675293
1630674888752,0.8911442756652832,0.2348541617393493,-0.0399579554796218,0.6450983285903931
1630674888836,0.8620758652687073,0.2186279147863388,-0.0308501720428466,0.6550461053848267
1630674888943,0.8620758652687073,0.2186279147863388,-0.0308501720428466,0.6550461053848267
1630674889021,0.8620758652687073,0.2186279147863388,-0.0308501720428466,0.6550461053848267
1630674889098,0.8620758652687073,0.2186279147863388,-0.0308501720428466,0.6550461053848267
1630674889286,0.8620758652687073,0.2186279147863388,-0.0308501720428466,0.6550461053848267
1630674889369,0.8620758652687073,0.2186279147863388,-0.0308501720428466,0.6550461053848267
1630674889485,0.8620758652687073,0.2186279147863388,-0.0942714214324951,0.6550461053848267
1630674889531,0.7192840576171875,-0.1953037530183792,-0.0808122381567955,0.6550461053848267
1630674889654,0.729773998260498,-0.1620418727397918,-0.0609239898622036,0.5954556465148926
1630674889730,0.7613288164138794,-0.1254142522811889,-0.047580387443304,0.6432917714118958
1630674889871,0.7879458069801331,-0.0965294167399406,-0.0468995235860347,0.6701035499572754
1630674889952,0.7962326407432556,-0.0762673169374466,-0.0565168932080268,0.6742640733718872
1630674890040,0.7882287502288818,-0.0608838349580764,-0.0684045776724815,0.6627893447875977
1630674890170,0.7724732160568237,-0.0492849797010421,-0.0737593472003936,0.6451309323310852
1630674890251,0.7559472918510437,-0.0434313751757144,-0.0694333687424659,0.6275275349617004
1630674890320,0.7559472918510437,-0.0440747626125812,-0.0694333687424659,0.6275275349617004
1630674890503,0.7559472918510437,-0.0440747626125812,-0.0694333687424659,0.6275275349617004
1630674890565,0.7559472918510437,-0.0440747626125812,-0.0694333687424659,0.6275275349617004
1630674890652,0.7559472918510437,-0.0440747626125812,-0.0670487508177757,0.6275275349617004
1630674890750,0.7442130446434021,-0.0319779925048351,-0.0655028149485588,0.6275275349617004
1630674890853,0.744819700717926,-0.0173652991652488,-0.061471939086914,0.6428684592247009
1630674890952,0.7591803669929504,-0.0001235609524883,-0.0575275048613548,0.656254231929779
1630674891070,0.7755869030952454,0.0154990227892994,-0.0614843554794788,0.6608670949935913
1630674891152,0.7766144871711731,0.0240748468786478,-0.0781128257513046,0.6476642489433289
1630674891268,0.7494001984596252,0.0244070924818515,-0.1020015478134155,0.6111694574356079
1630674891363,0.6935616135597229,0.0201140120625495,-0.1183444336056709,0.5546401739120483
1630674891466,0.6935616135597229,0.0139299724251031,-0.1183444336056709,0.5546401739120483
1630674891538,0.6935616135597229,0.023214066401124,-0.1183444336056709,0.5546401739120483
1630674891739,0.6935616135597229,0.0391792692244052,-0.1183444336056709,0.5546401739120483
1630674891783,0.6935616135597229,0.0706740319728851,-0.1183444336056709,0.5546401739120483
1630674891867,0.6935616135597229,0.1160282418131828,-0.1183444336056709,0.5546401739120483
1630674892002,1.063096046447754,0.1208591908216476,-0.1888550519943237,0.5417003631591797
1630674892067,1.0310431718826294,0.1191314533352851,-0.2000122666358947,0.5586860179901123
1630674892170,0.9982072114944458,0.1150247454643249,-0.2097568809986114,0.5561548471450806
1630674892307,0.965023636817932,0.1135037392377853,-0.2174786925315857,0.5411369800567627
1630674892386,0.965023636817932,0.1171059012413024,-0.2184666097164154,0.5411369800567627
1630674892509,0.965023636817932,0.1234445348381996,-0.2118358463048935,0.5411369800567627
1630674892590,0.965023636817932,0.1299671381711959,-0.1990737318992614,0.5411369800567627
1630674892685,0.965023636817932,0.1355598717927932,-0.1990737318992614,0.5411369800567627
1630674892777,0.965023636817932,0.1389293074607849,-0.1990737318992614,0.5411369800567627
1630674892909,0.965023636817932,0.1382231563329696,-0.1990737318992614,0.5411369800567627
1630674893020,0.965023636817932,0.1326667070388794,-0.1990737318992614,0.5411369800567627
1630674893081,0.965023636817932,0.1262768656015396,-0.1990737318992614,0.5411369800567627
1630674893167,0.9283078908920288,0.1280125826597213,-0.2104909569025039,0.5587956309318542
1630674893293,0.8816084265708923,0.1127303391695022,-0.2136223167181015,0.5703740119934082
1630674893372,0.8334060907363892,0.0953151509165763,-0.21094611287117,0.566398561000824
1630674893534,0.8334060907363892,0.0786865949630737,-0.1918307691812515,0.566398561000824
1630674893621,0.8334060907363892,0.0653346180915832,-0.1753673404455185,0.566398561000824
1630674893700,0.8334060907363892,0.0527818910777568,-0.1673477739095688,0.566398561000824
1630674893820,0.8334060907363892,0.0358676500618457,-0.1648939847946167,0.566398561000824
1630674893896,0.5444300174713135,0.0100946854799985,-0.1609330028295517,0.3349708914756775
1630674893973,0.5491566061973572,-0.0239553432911634,-0.1519975513219833,0.3193032145500183
1630674894152,0.5588690638542175,-0.0620192550122737,-0.1453103870153427,0.3015961349010467
1630674894223,0.5699697732925415,-0.0995373129844665,-0.136386290192604,0.2889321446418762
1630674894368,0.5699697732925415,-0.1318529397249221,-0.131903737783432,0.2889321446418762
1630674894400,0.5699697732925415,-0.1548638939857483,-0.131903737783432,0.2889321446418762
1630674894494,0.5699697732925415,-0.164758875966072,-0.131903737783432,0.2889321446418762
1630674894603,0.5699697732925415,-0.1755738407373428,-0.131903737783432,0.2889321446418762
1630674894750,0.5699697732925415,-0.1755738407373428,-0.131903737783432,0.2889321446418762
1630674894866,0.5699697732925415,-0.1776256710290908,-0.131903737783432,0.2889321446418762
1630674894913,0.5699697732925415,-0.1793641448020935,-0.131903737783432,0.2889321446418762
1630674895006,0.5699697732925415,-0.1834975779056549,-0.1340338289737701,0.2889321446418762
1630674895120,0.5675086379051208,-0.1928710043430328,-0.1344302594661712,0.253649353981018
1630674895192,0.5728970170021057,-0.2034895271062851,-0.1247030645608902,0.2379610240459442
1630674895377,0.5853133797645569,-0.2071732282638549,-0.1040661856532096,0.2310595065355301
1630674895421,0.5853133797645569,-0.1955861747264862,-0.0841117203235626,0.2310595065355301
1630674895572,0.5853133797645569,-0.1317037940025329,-0.0841117203235626,0.2310595065355301
1630674895631,0.5853133797645569,-0.0704763308167457,-0.0841117203235626,0.2310595065355301
1630674895733,0.5853133797645569,-0.0219132602214813,-0.0841117203235626,0.2310595065355301
1630674895825,0.5853133797645569,0.0135502060875296,-0.0841117203235626,0.2310595065355301
1630674895970,0.5853133797645569,0.0373945087194442,-0.0841117203235626,0.2310595065355301
1630674896052,0.5853133797645569,0.0496226102113723,-0.0841117203235626,0.2310595065355301
1630674896158,0.5853133797645569,0.0419290997087955,-0.0841117203235626,0.2310595065355301
1630674896236,0.5853133797645569,0.0346273034811019,-0.0841117203235626,0.2310595065355301
1630674896335,0.5853133797645569,0.0225843451917171,-0.0841117203235626,0.2310595065355301
1630674896441,0.5853133797645569,0.0225843451917171,-0.0841117203235626,0.2310595065355301
1630674896575,0.5853133797645569,0.0225843451917171,-0.0841117203235626,0.2310595065355301
1630674896652,0.5853133797645569,0.0225843451917171,-0.0841117203235626,0.2310595065355301
1630674896724,0.5853133797645569,0.0225843451917171,-0.0841117203235626,0.2310595065355301
1630674896871,0.5853133797645569,0.0225843451917171,-0.0841117203235626,0.2310595065355301
1630674896963,0.5853133797645569,0.0225843451917171,-0.0841117203235626,0.2310595065355301
1630674897040,0.5853133797645569,0.0239151827991008,-0.0841117203235626,0.2310595065355301
1630674897185,0.5853133797645569,0.0208304151892662,-0.0841117203235626,0.2310595065355301
1630674897266,0.5853133797645569,0.01327396184206,-0.0841117203235626,0.2310595065355301
1630674897370,0.5853133797645569,-0.0004836022853851,-0.0841117203235626,0.2310595065355301
1630674897471,0.5853133797645569,-0.0185546875,-0.0841117203235626,0.2310595065355301
1630674897586,0.5853133797645569,0.0315461717545986,-0.0841117203235626,0.2310595065355301
1630674897663,0.5853133797645569,0.0760654211044311,-0.0841117203235626,0.2310595065355301
1630674897803,0.5853133797645569,0.1033237800002098,-0.0700955539941787,0.2310595065355301
1630674897902,0.9074497818946838,0.1224073991179466,-0.0690649226307869,0.5028249621391296
1630674897950,0.9074497818946838,0.1224073991179466,-0.0725145414471626,0.5028249621391296
1630674898049,0.9074497818946838,0.1224073991179466,-0.0854236036539077,0.5028249621391296
1630674898168,0.9074497818946838,0.1224073991179466,-0.0854236036539077,0.5028249621391296
1630674898259,0.9074497818946838,0.1224073991179466,-0.0854236036539077,0.5028249621391296
1630674898421,0.9074497818946838,0.1224073991179466,-0.0854236036539077,0.5028249621391296
1630674898512,0.9074497818946838,0.1224073991179466,-0.0854236036539077,0.5028249621391296
1630674898574,0.9074497818946838,0.1224073991179466,-0.0854236036539077,0.5028249621391296
1630674898670,0.9074497818946838,0.1224073991179466,-0.0854236036539077,0.5028249621391296
1630674898791,0.9074497818946838,0.1224073991179466,-0.0854236036539077,0.5028249621391296
1630674898864,0.9074497818946838,0.1224073991179466,-0.0854236036539077,0.5028249621391296
1630674899017,0.9074497818946838,0.1224073991179466,-0.0847279354929924,0.5028249621391296
1630674899100,0.9074497818946838,0.1224073991179466,-0.0896583274006843,0.5028249621391296
1630674899207,0.9074497818946838,0.1224073991179466,-0.1222854480147361,0.5028249621391296
1630674899273,0.9074497818946838,0.1224073991179466,-0.1608932316303253,0.5028249621391296
1630674899381,0.9074497818946838,0.1224073991179466,-0.1949281990528106,0.5028249621391296
1630674899480,0.9074497818946838,0.1224073991179466,-0.2062525004148483,0.5028249621391296
1630674899595,0.9074497818946838,0.1224073991179466,-0.179278165102005,0.5606242418289185
1630674899719,0.7138583660125732,0.1224073991179466,-0.1477209776639938,0.5663919448852539
1630674899786,0.7232711911201477,0.1529032886028289,-0.126900166273117,0.5519512891769409
1630674899932,0.7157593965530396,0.1451211422681808,-0.1200323030352592,0.5287464261054993
1630674900013,0.7157593965530396,0.1503040939569473,-0.1200323030352592,0.5287464261054993
1630674900075,0.7157593965530396,0.1503040939569473,-0.1200323030352592,0.5287464261054993
1630674900251,0.7157593965530396,0.1503040939569473,-0.1200323030352592,0.5287464261054993
1630674900316,0.7157593965530396,0.1503040939569473,-0.1200323030352592,0.5287464261054993
1630674900394,0.7157593965530396,0.1503040939569473,-0.1200323030352592,0.5287464261054993
1630674900520,0.7157593965530396,0.1503040939569473,-0.1200323030352592,0.5287464261054993
1630674900608,0.7157593965530396,0.1503040939569473,-0.1200323030352592,0.5287464261054993
1630674900684,0.7157593965530396,0.1503040939569473,-0.1050900667905807,0.5287464261054993
1630674900819,0.7157593965530396,0.1503040939569473,-0.0824589878320694,0.5419366359710693
1630674900902,0.7173891663551331,0.1503040939569473,-0.0593293085694313,0.5452301502227783
1630674901045,0.7265607118606567,0.1390146315097808,-0.0420076586306095,0.5271579623222351
1630674901203,0.7265607118606567,0.1273866593837738,-0.0420076586306095,0.5271579623222351
1630674901322,0.7265607118606567,0.1273866593837738,-0.0420076586306095,0.5271579623222351
1630674901438,0.7265607118606567,0.1273866593837738,-0.0420076586306095,0.5271579623222351
1630674901552,0.7265607118606567,0.1273866593837738,-0.0420076586306095,0.5271579623222351
1630674901608,0.7265607118606567,0.1273866593837738,-0.0420076586306095,0.5271579623222351
1630674901769,0.7265607118606567,0.2497034668922424,-0.0420076586306095,0.5271579623222351
1630674901833,0.8173785209655762,0.2256715893745422,-0.0403180569410324,0.6008452773094177
1630674901884,0.7792593836784363,0.1942388117313385,-0.0145747093483805,0.5708895325660706
1630674902048,0.7440549731254578,0.1635762155055999,-0.0023938927333801,0.537371039390564
1630674902152,0.7187648415565491,0.135888859629631,-0.0041349562816321,0.5051581263542175
1630674902236,0.7060537338256836,0.1128314882516861,-0.0146604878827929,0.4758846759796142
1630674902334,0.7052403688430786,0.0992236956954002,-0.0297796875238418,0.4503222107887268
1630674902434,0.7124432325363159,0.0948253870010376,-0.0488534681499004,0.4273101985454559
1630674902543,0.7124432325363159,0.0938131138682365,-0.0488534681499004,0.4273101985454559
1630674902705,0.7124432325363159,0.0889665186405181,-0.0488534681499004,0.4273101985454559
1630674902794,0.7124432325363159,0.0889665186405181,-0.0488534681499004,0.4273101985454559
1630674902858,0.7124432325363159,0.0889665186405181,-0.0488534681499004,0.4273101985454559
1630674902928,0.7124432325363159,0.0826461613178253,-0.0488534681499004,0.4273101985454559
1630674903053,0.6949023008346558,0.059926837682724,-0.0481587424874305,0.3986425995826721
1630674903149,0.6670452952384949,0.0253700651228427,-0.0429528504610061,0.3555749356746673
1630674903289,0.6388840079307556,-0.0074358214624226,-0.0414651669561862,0.3046844601631164
1630674903368,0.6250856518745422,-0.0252310950309038,-0.0546383894979953,0.2550252377986908
1630674903485,0.6334448456764221,-0.0274378079921007,-0.0860714986920356,0.2113508731126785
1630674903568,0.6602421402931213,-0.0182010494172573,-0.1294423043727874,0.1811650097370147
1630674903647,0.6602421402931213,0.0014263864140957,-0.1294423043727874,0.1811650097370147
1630674903726,0.6602421402931213,0.0299309082329273,-0.1294423043727874,0.1811650097370147
1630674903934,0.6602421402931213,0.0299309082329273,-0.1294423043727874,0.1811650097370147
1630674904004,0.6602421402931213,0.0299309082329273,-0.1294423043727874,0.1811650097370147
1630674904071,0.6602421402931213,0.0299309082329273,0.2122521549463272,0.1811650097370147
1630674904157,0.6602421402931213,0.0299309082329273,0.286737710237503,0.1811650097370147
1630674904251,0.998856782913208,0.0299309082329273,0.3524119257926941,0.1811650097370147
1630674904352,0.9757147431373596,0.0299309082329273,0.393347293138504,0.1811650097370147
1630674904488,0.9410561323165894,0.0299309082329273,0.4038548469543457,0.1811650097370147
1630674904601,0.9043774604797364,0.0299309082329273,0.3899299800395965,0.1811650097370147
1630674904672,0.8693513870239258,0.0299309082329273,0.3641953766345978,0.1811650097370147
1630674904788,0.8374300003051758,0.0299309082329273,0.3388139009475708,0.1811650097370147
1630674904871,0.8111907839775085,0.0299309082329273,0.3191864788532257,0.1811650097370147
1630674904969,0.7938880920410156,0.0299309082329273,0.3045307993888855,0.1811650097370147
1630674905084,0.7860937118530273,0.0299309082329273,0.2923146784305572,0.1811650097370147
1630674905204,0.7850110530853271,0.0299309082329273,0.2804329097270965,0.1811650097370147
1630674905266,0.7855470180511475,0.0299309082329273,0.27982097864151,0.1811650097370147
1630674905401,0.783293604850769,0.0299309082329273,0.2735161483287811,0.1811650097370147
1630674905465,0.7630558609962463,0.0299309082329273,0.2605633437633514,0.1811650097370147
1630674905578,0.72540682554245,0.0299309082329273,0.2392030954360962,0.1811650097370147
1630674905705,0.6758902072906494,0.0299309082329273,0.2041790038347244,0.1811650097370147
1630674905785,0.6259583830833435,0.0299309082329273,0.1519929766654968,0.1811650097370147
1630674905903,0.5875827074050903,0.0299309082329273,0.0889614671468734,0.1811650097370147
1630674905994,0.5648512244224548,0.0299309082329273,0.0334396809339523,0.1811650097370147
1630674906085,0.5540759563446045,0.0299309082329273,0.0031086467206478,0.1811650097370147
1630674906179,0.5523426532745361,0.0299309082329273,-0.0027572168037295,0.1811650097370147
1630674906316,0.5566758513450623,0.0299309082329273,-0.0006786587764509,0.1811650097370147
1630674906502,0.5598199367523193,0.0299309082329273,-0.004415784496814,0.3657869696617126
1630674906601,0.552509605884552,0.0299309082329273,0.0017605542670935,0.4057736098766327
1630674906722,0.5424652099609375,0.0299309082329273,0.0192113388329744,0.4494830667972564
1630674906768,0.5338438153266907,0.0299309082329273,0.0399811007082462,0.4728934168815613
1630674906955,0.5294927358627319,0.0299309082329273,0.055453784763813,0.4728934168815613
1630674907018,0.5197378396987915,0.0299309082329273,0.0609915070235729,0.4728934168815613
1630674907123,0.5204992890357971,0.0299309082329273,0.0644511505961418,0.4728934168815613
1630674907186,0.5297856330871582,0.0299309082329273,0.065094955265522,0.4728934168815613
1630674907290,0.544634222984314,0.0299309082329273,0.06674275547266,0.4728934168815613
1630674907401,0.5625978112220764,0.0299309082329273,0.0753312557935714,0.4728934168815613
1630674907536,0.582072913646698,0.0299309082329273,0.0928418859839439,0.4728934168815613
1630674907636,0.6013695597648621,0.0299309082329273,0.1149187386035919,0.4728934168815613
1630674907712,0.6189904808998108,0.0299309082329273,0.1364412754774093,0.4860887229442596
1630674907822,0.6350718140602112,0.0299309082329273,0.1585452109575271,0.5089329481124878
1630674907919,0.6532744765281677,0.0299309082329273,0.1858083754777908,0.5449841618537903
1630674908010,0.6758872270584106,0.0299309082329273,0.2149278223514557,0.5449841618537903
1630674908159,0.7213177680969238,0.0299309082329273,0.2149278223514557,0.5449841618537903
1630674908243,0.7333119511604309,0.0299309082329273,0.2149278223514557,0.5449841618537903
1630674908337,0.7333119511604309,0.0299309082329273,0.2149278223514557,0.5449841618537903
1630674908418,0.7333119511604309,0.0299309082329273,0.2149278223514557,0.5449841618537903
1630674908552,0.7333119511604309,0.0299309082329273,0.2149278223514557,0.5449841618537903
1630674908599,0.7333119511604309,0.0299309082329273,0.2149278223514557,0.5449841618537903
1630674908755,0.7333119511604309,0.0299309082329273,0.2149278223514557,0.5449841618537903
1630674908853,0.7333119511604309,0.0299309082329273,0.2149278223514557,0.5449841618537903
1630674908946,0.7333119511604309,0.0299309082329273,0.2149278223514557,0.5449841618537903
1630674909024,0.7333119511604309,0.0299309082329273,0.2149278223514557,0.5449841618537903
1630674909118,0.7333119511604309,0.0299309082329273,0.2149278223514557,0.5449841618537903
1630674909203,0.7333119511604309,0.0299309082329273,0.2149278223514557,0.5449841618537903
1630674909341,0.7333119511604309,0.0299309082329273,0.2149278223514557,0.5449841618537903
1630674909470,0.7333119511604309,0.0299309082329273,0.2149278223514557,0.5449841618537903
1630674909536,0.7333119511604309,0.0299309082329273,0.2149278223514557,0.5449841618537903
1630674909637,0.7333119511604309,0.0299309082329273,0.2149278223514557,0.5449841618537903
1630674909771,0.7333119511604309,0.0299309082329273,0.2149278223514557,0.5449841618537903
1630674909836,0.7333119511604309,0.0299309082329273,0.2149278223514557,0.5449841618537903
1630674909972,0.9760146737098694,-0.1186002492904663,0.0956484526395797,0.5449841618537903
1630674910054,1.0038810968399048,-0.0906959697604179,0.1572101265192031,0.3823012709617615
1630674910153,1.041566252708435,-0.0604980215430259,0.2027423083782196,0.4356667995452881
1630674910243,1.041566252708435,-0.0604980215430259,0.2027423083782196,0.4356667995452881
1630674910355,1.041566252708435,-0.0604980215430259,0.2027423083782196,0.4356667995452881
1630674910435,1.041566252708435,-0.0604980215430259,0.2027423083782196,0.4356667995452881
1630674910589,1.041566252708435,-0.0604980215430259,0.2027423083782196,0.4356667995452881
1630674910686,1.041566252708435,-0.0604980215430259,0.2027423083782196,0.4356667995452881
1630674910768,1.041566252708435,-0.0604980215430259,0.2027423083782196,0.4356667995452881
1630674910877,1.041566252708435,-0.0604980215430259,0.2027423083782196,0.4356667995452881
1630674910946,1.041566252708435,-0.0604980215430259,0.2027423083782196,0.4356667995452881
1630674911040,1.041566252708435,-0.0604980215430259,0.2027423083782196,0.4356667995452881
1630674911196,1.0475682020187378,-0.0579246021807193,0.2329215407371521,0.4356667995452881
1630674911338,1.0695555210113523,-0.0330852232873439,0.2746274471282959,0.4622443318367004
1630674911406,1.0695555210113523,-0.0330852232873439,0.2746274471282959,0.4622443318367004
1630674911486,1.0695555210113523,-0.0330852232873439,0.2746274471282959,0.4622443318367004
1630674911583,1.0695555210113523,-0.0330852232873439,0.2746274471282959,0.4622443318367004
1630674911673,1.0695555210113523,-0.0330852232873439,0.2746274471282959,0.4622443318367004
1630674911821,1.0695555210113523,-0.0330852232873439,0.2746274471282959,0.4622443318367004
1630674911895,1.0695555210113523,-0.0330852232873439,0.2746274471282959,0.4622443318367004
1630674912010,1.0695555210113523,-0.0330852232873439,0.2746274471282959,0.4622443318367004
1630674912121,1.0695555210113523,-0.0330852232873439,0.2746274471282959,0.4622443318367004
1630674912167,1.0695555210113523,-0.0330852232873439,0.2746274471282959,0.4622443318367004
1630674912302,1.0695555210113523,-0.0330852232873439,0.2746274471282959,0.4622443318367004
1630674912401,1.0695555210113523,-0.0330852232873439,0.2746274471282959,0.4622443318367004
1630674912519,1.0695555210113523,-0.0330852232873439,0.2746274471282959,0.4622443318367004
1630674912604,1.0695555210113523,-0.0330852232873439,0.2746274471282959,0.4622443318367004
1630674912682,1.0695555210113523,-0.0330852232873439,0.2746274471282959,0.4622443318367004
1630674912791,1.0695555210113523,-0.0330852232873439,0.2746274471282959,0.4622443318367004
1630674912883,1.0695555210113523,-0.0330852232873439,0.2746274471282959,0.4622443318367004
1630674913010,1.0695555210113523,-0.0330852232873439,0.2746274471282959,0.4622443318367004
1630674913138,1.0695555210113523,0.2750084996223449,0.0234490651637315,0.4622443318367004
1630674913250,0.8510334491729736,0.2660219967365265,0.0395830534398555,0.3596416711807251
1630674913282,0.8510334491729736,0.2634815871715545,0.0395830534398555,0.3596416711807251
1630674913387,0.8510334491729736,0.2634815871715545,0.0395830534398555,0.3596416711807251
1630674913468,0.8510334491729736,0.2634815871715545,0.0395830534398555,0.3596416711807251
1630674913650,0.8510334491729736,0.2634815871715545,0.0395830534398555,0.3596416711807251
1630674913831,0.8510334491729736,0.2634815871715545,0.0395830534398555,0.3596416711807251
1630674914004,0.8510334491729736,0.2634815871715545,0.0395830534398555,0.3596416711807251
1630674914103,0.8510334491729736,0.2634815871715545,0.0395830534398555,0.3596416711807251
1630674914235,0.8510334491729736,0.2634815871715545,0.0395830534398555,0.3596416711807251
1630674914352,0.8510334491729736,0.2673332095146179,0.0615568421781063,0.3596416711807251
1630674914438,0.8510334491729736,0.2569131553173065,0.0615568421781063,0.3596416711807251
1630674914517,0.8510334491729736,0.2115533053874969,0.0615568421781063,0.3596416711807251
1630674914638,0.8510334491729736,0.1815005987882614,0.0615568421781063,0.3596416711807251
1630674914715,0.8510334491729736,0.158785805106163,0.0615568421781063,0.3596416711807251
1630674914837,0.8510334491729736,0.1355397999286651,-0.2096133381128311,0.3596416711807251
1630674914940,0.6136128306388855,0.1505208760499954,-0.2145277261734008,0.3596416711807251
1630674915037,0.6440334916114807,0.1601873189210891,-0.2196744382381439,0.4763644635677337
1630674915153,0.6474438905715942,0.1572426557540893,-0.2244526445865631,0.4950852394104004
1630674915239,0.6352419853210449,0.1572426557540893,-0.228788673877716,0.5110654830932617
1630674915332,0.6267973184585571,0.1572426557540893,-0.2298507094383239,0.5335173606872559
1630674915470,0.6324924230575562,0.1572426557540893,-0.223405584692955,0.567513108253479
1630674915577,0.6476896405220032,0.1572426557540893,-0.2075457870960235,0.6041048765182495
1630674915668,0.6646403074264526,0.1572426557540893,-0.1881403475999832,0.6299049854278564
1630674915753,0.6806643009185791,0.1572426557540893,-0.1734142452478408,0.6383057832717896
1630674915871,0.696115255355835,0.1572426557540893,-0.1660981178283691,0.6326767802238464
1630674915935,0.696115255355835,0.1572426557540893,-0.1660981178283691,0.6326767802238464
1630674916087,0.696115255355835,0.1657712459564209,-0.1640027165412902,0.6326767802238464
1630674916169,0.7111407518386841,0.1731968820095062,-0.1601136475801468,0.6326767802238464
1630674916269,0.7242799401283264,0.1810546666383743,-0.1556617021560669,0.6475370526313782
1630674916360,0.7302263379096985,0.1810546666383743,-0.1498436480760574,0.6628758311271667
1630674916419,0.7282888889312744,0.1810546666383743,-0.1413569897413253,0.6784226298332214
1630674916514,0.7257554531097412,0.1810546666383743,-0.1298511326313018,0.6938028931617737
1630674916692,0.7338894009590149,0.1810546666383743,-0.1146637871861457,0.7096642851829529
1630674916788,0.7577877044677734,0.1810546666383743,-0.0945030003786087,0.7275779843330383
1630674916870,0.7881473302841187,0.1810546666383743,-0.0706660002470016,0.741845428943634
1630674916936,0.8122616410255432,0.1810546666383743,-0.0491419993340969,0.7394322752952576
