timestamp,TP9,AF7,AF8,TP10
1630674781592,0.4247647523880005,0.026056358590722,0.3687975704669952,0.6713911890983582
1630674781726,0.4247647523880005,0.0108301267027854,0.3601099252700805,0.6713911890983582
1630674781763,0.4247647523880005,-0.0180099830031394,0.3601099252700805,0.6527234315872192
1630674781857,0.4247647523880005,-0.0409167967736721,0.3601099252700805,0.6527234315872192
1630674782027,0.4247647523880005,-0.0469660684466362,0.3601099252700805,0.6474200487136841
1630674782114,0.4247647523880005,-0.0485008731484413,0.3571815192699432,0.638552188873291
1630674782206,0.4247647523880005,-0.0491291508078575,0.3413684964179992,0.6156187653541565
1630674782285,0.4247647523880005,-0.051135815680027,0.309161514043808,0.5737063884735107
1630674782385,0.4247647523880005,-0.051135815680027,0.2412886023521423,0.5737063884735107
1630674782486,0.4247647523880005,-0.051135815680027,0.2412886023521423,0.5737063884735107
1630674782635,0.4247647523880005,-0.051135815680027,0.2412886023521423,0.5737063884735107
1630674782718,0.4247647523880005,-0.051135815680027,0.2412886023521423,0.5737063884735107
1630674782835,0.4247647523880005,-0.051135815680027,0.2412886023521423,0.5737063884735107
1630674782914,0.4247647523880005,-0.051135815680027,0.2412886023521423,0.5737063884735107
1630674783026,0.4247647523880005,-0.051135815680027,0.2412886023521423,0.5737063884735107
1630674783070,0.4247647523880005,-0.051135815680027,0.2412886023521423,0.5737063884735107
1630674783270,0.4247647523880005,-0.051135815680027,0.2412886023521423,0.5737063884735107
1630674783317,0.4247647523880005,-0.051135815680027,0.2412886023521423,0.5737063884735107
1630674783429,0.4247647523880005,-0.051135815680027,0.2412886023521423,0.5737063884735107
1630674783503,0.4247647523880005,-0.051135815680027,0.2412886023521423,0.5737063884735107
1630674783603,0.4247647523880005,-0.051135815680027,0.2412886023521423,0.5737063884735107
1630674783698,0.4247647523880005,-0.051135815680027,0.2412886023521423,0.5737063884735107
1630674783868,0.4247647523880005,-0.051135815680027,0.2412886023521423,0.5737063884735107
1630674783929,0.4247647523880005,-0.051135815680027,0.2412886023521423,0.5737063884735107
1630674784041,0.4247647523880005,0.6320067048072815,0.1264618635177612,0.5737063884735107
1630674784120,1.089635968208313,0.6538097858428955,0.1275112181901931,0.5737063884735107
1630674784218,1.095353603363037,0.6847255229949951,0.1369255036115646,1.083043336868286
1630674784333,1.095353603363037,0.7002357244491577,0.157887801527977,1.083043336868286
1630674784504,1.095353603363037,0.7004473209381104,0.1876535713672638,1.083043336868286
1630674784656,1.095353603363037,0.7004473209381104,0.2001610398292541,1.083043336868286
1630674784763,1.095353603363037,0.7004473209381104,0.2052818089723587,1.083043336868286
1630674784846,1.095353603363037,0.7004473209381104,0.2285490185022354,1.083043336868286
1630674784908,1.095353603363037,0.7004473209381104,0.2671662271022796,1.083043336868286
1630674785070,1.0992307662963867,0.7004473209381104,0.2971648871898651,1.083043336868286
1630674785147,1.1034270524978638,0.7004473209381104,0.3229678273200989,1.083043336868286
1630674785247,1.1034270524978638,0.6996629238128662,0.3380168080329895,1.083043336868286
1630674785371,1.047398328781128,0.6692711114883423,0.3319214284420013,1.083043336868286
1630674785437,1.0183231830596924,0.6179126501083374,0.3163446187973022,0.9933046698570251
1630674785550,1.0086193084716797,0.5812540650367737,0.3074561357498169,0.8900230526924133
1630674785664,0.994345486164093,0.555496096611023,0.3074561357498169,0.8425021171569824
1630674785762,0.9549726247787476,0.5332741141319275,0.3074561357498169,0.7034927010536194
1630674785878,0.8461586236953735,0.5363683700561523,0.3051484823226928,0.7034927010536194
1630674785958,0.6901945471763611,0.5853797197341919,0.3021246492862701,0.7034927010536194
1630674786071,0.5365725755691528,0.7078913450241089,0.2935037910938263,0.7034927010536194
1630674786155,0.4434836208820343,0.7323606610298157,0.2945824861526489,0.5965991616249084
1630674786267,0.4214634001255035,0.7323606610298157,0.2962852418422699,0.4968184530735016
1630674786440,0.4214634001255035,0.7323606610298157,0.2954050302505493,0.4968184530735016
1630674786469,0.4214634001255035,0.7323606610298157,0.291638433933258,0.4968184530735016
1630674786532,0.4214634001255035,0.7323606610298157,0.2816915810108185,0.4968184530735016
1630674786660,0.4214634001255035,0.7323606610298157,0.247904747724533,0.4968184530735016
1630674786737,0.4214634001255035,0.7323606610298157,0.2271489948034286,0.4968184530735016
1630674786867,0.4214634001255035,0.7361802458763123,0.139423593878746,0.4968184530735016
1630674787001,0.4214634001255035,0.7361802458763123,0.0440112277865409,0.4968184530735016
1630674787086,0.4214634001255035,0.7361802458763123,0.0050577549263834,0.4968184530735016
1630674787170,1.004552721977234,0.7361802458763123,-0.0020971223711967,0.4968184530735016
1630674787275,1.004552721977234,0.7361802458763123,-0.0028582015074789,1.1362205743789673
1630674787420,1.004552721977234,0.7361802458763123,0.0804438441991806,1.1362205743789673
1630674787511,1.004552721977234,0.7361802458763123,0.0804438441991806,1.1362205743789673
1630674787619,1.004552721977234,0.7198732495307922,0.0781028196215629,1.1362205743789673
1630674787699,1.004552721977234,0.5017141699790955,0.0763311460614204,1.1362205743789673
1630674787785,1.004552721977234,0.5620668530464172,0.0711874663829803,1.1362205743789673
1630674787896,1.004552721977234,0.5891261100769043,0.0686416625976562,1.1362205743789673
1630674787963,1.004552721977234,0.5891261100769043,0.0682598799467086,1.1362205743789673
1630674788096,1.004552721977234,0.5891261100769043,0.0682598799467086,1.1362205743789673
1630674788198,1.004552721977234,0.5891261100769043,0.0651191845536232,1.1362205743789673
1630674788300,1.004552721977234,0.5891261100769043,0.0651191845536232,1.1362205743789673
1630674788400,1.0015610456466677,0.5399029850959778,0.0651191845536232,1.1362205743789673
1630674788484,1.0015610456466677,0.5251283645629883,0.0651191845536232,1.1362205743789673
1630674788601,1.0015610456466677,0.521728515625,0.0651191845536232,1.1362205743789673
1630674788703,1.0015610456466677,0.5143921375274658,0.0651191845536232,1.1362205743789673
1630674788803,1.0015610456466677,0.5065925717353821,0.0651191845536232,1.1362205743789673
1630674788951,1.0015610456466677,0.4946660101413727,0.0651191845536232,1.1362205743789673
1630674788984,0.665354311466217,0.504452645778656,-0.6596521139144897,0.2260729074478149
1630674789085,0.6657537221908569,0.5285400748252869,-0.6527561545372009,0.2741934955120086
1630674789173,0.6657537221908569,0.5519230365753174,-0.6527561545372009,0.2741934955120086
1630674789321,0.6657537221908569,0.5545353889465332,-0.6527561545372009,0.2741934955120086
1630674789419,0.6657537221908569,0.5167899131774902,-0.6527561545372009,0.2741934955120086
1630674789519,0.6657537221908569,0.5428244471549988,-0.6527561545372009,0.2741934955120086
1630674789636,0.6657537221908569,0.6697873473167419,-0.6527561545372009,0.2741934955120086
1630674789748,0.6657537221908569,0.7314112782478333,-0.6527561545372009,0.2741934955120086
1630674789798,0.6657537221908569,0.734573483467102,-0.6527561545372009,0.2741934955120086
1630674789930,0.6657537221908569,0.734573483467102,-0.6527561545372009,0.2741934955120086
1630674790027,0.6657537221908569,0.734573483467102,-0.6527561545372009,0.2741934955120086
1630674790137,0.6657537221908569,0.734573483467102,-0.6527561545372009,0.2741934955120086
1630674790219,0.5902448892593384,0.734573483467102,-0.8165308237075806,0.2453784048557281
1630674790315,0.5902448892593384,0.734573483467102,-0.8165308237075806,0.2453784048557281
1630674790401,0.5902448892593384,0.734573483467102,-0.8165308237075806,0.2453784048557281
1630674790531,0.5902448892593384,0.734573483467102,-0.8165308237075806,0.2453784048557281
1630674790618,0.5902448892593384,0.734573483467102,-0.8165308237075806,0.2453784048557281
1630674790729,0.5902448892593384,0.7339147925376892,-0.8165308237075806,0.2453784048557281
1630674790833,0.5902448892593384,0.7272771596908569,-0.0138875357806682,0.4074935913085937
1630674790939,0.2053847461938858,0.7212120890617371,0.0010198230156674,0.4103252589702606
1630674791021,0.2053847461938858,0.7133811116218567,0.0755532756447792,0.4103252589702606
1630674791152,0.2053847461938858,0.7008850574493408,0.0755532756447792,0.4103252589702606
1630674791252,0.2053847461938858,0.6222966909408569,0.0755532756447792,0.4103252589702606
1630674791385,0.2053847461938858,0.4277186989784241,0.0755532756447792,0.4103252589702606
1630674791433,0.2053847461938858,0.2080559283494949,0.0755532756447792,0.4103252589702606
1630674791530,0.2053847461938858,0.0302986800670623,0.0755532756447792,0.4103252589702606
1630674791600,0.2053847461938858,-0.0095906499773263,0.0755532756447792,0.4103252589702606
1630674791765,0.2053847461938858,-0.0238365549594163,0.0755532756447792,0.4103252589702606
1630674791860,0.2053847461938858,-0.0303450524806976,0.0755532756447792,0.4103252589702606
1630674791935,0.2053847461938858,-0.0303450524806976,0.0755532756447792,0.4103252589702606
1630674792103,0.2053847461938858,-0.0303450524806976,0.069723293185234,0.3829464018344879
1630674792153,0.2053847461938858,-0.0303450524806976,0.0410877950489521,0.3829464018344879
1630674792248,0.2053847461938858,-0.0303450524806976,0.1101947724819183,0.3829464018344879
1630674792388,0.2053847461938858,-0.0303450524806976,0.1594025194644928,0.3829464018344879
1630674792519,0.2053847461938858,-0.0303450524806976,0.1586228907108307,0.3829464018344879
1630674792587,0.2053847461938858,-0.0854422822594642,0.0634830519556999,0.3829464018344879
1630674792661,0.2053847461938858,-0.077887587249279,0.0653028488159179,0.6052757501602173
1630674792760,0.3580477833747864,-0.077887587249279,0.0790798813104629,0.6538301110267639
1630674792836,0.4090808033943176,-0.077887587249279,0.0915089696645736,0.7284500002861023
1630674792967,0.5133137702941895,-0.077887587249279,0.0930265113711357,0.8256562352180481
1630674793058,0.5998696684837341,-0.077887587249279,0.0930265113711357,0.8974107503890991
1630674793168,0.6278836131095886,-0.0628201439976692,0.0930265113711357,0.9042678475379944
1630674793268,0.6323180794715881,-0.0406325720250606,0.0930265113711357,0.908482789993286
1630674793404,0.6337451934814453,-0.0232417564839124,0.0930265113711357,0.9093078374862672
1630674793481,0.6495983004570007,-0.0202489588409662,0.0930265113711357,0.9098862409591676
1630674793599,0.6581337451934814,-0.0199293289333581,0.0930265113711357,0.9098862409591676
1630674793679,0.6581337451934814,-0.0199293289333581,0.0930265113711357,0.9098862409591676
1630674793803,0.6581337451934814,-0.0224864091724157,0.0453577674925327,0.9098862409591676
1630674793888,0.6581337451934814,-0.0215340219438076,0.0063727246597409,0.8967105150222778
1630674793964,0.6581337451934814,-0.0227413401007652,-0.0628917664289474,0.8856227993965149
1630674794099,0.6581337451934814,-0.0603285767138004,-0.1299042999744415,0.8855664134025574
1630674794219,0.6581337451934814,-0.1138862073421478,-0.105062149465084,0.886020839214325
1630674794324,0.6581337451934814,-0.1371189951896667,-0.0757572948932647,0.8869955539703369
1630674794403,0.6581337451934814,-0.126493364572525,-0.0485748648643493,0.8844478726387024
1630674794484,0.6581337451934814,-0.100170649588108,-0.0632853209972381,0.8707785606384277
1630674794586,0.6297740340232849,-0.0808549299836158,-0.0645371228456497,0.80953449010849
1630674794669,0.5815984606742859,-0.0333381332457065,-0.0655968785285949,0.6245343089103699
1630674794832,0.5058456659317017,0.0408399663865566,-0.0655968785285949,0.412297785282135
1630674794895,0.4185441136360168,0.0780020207166671,-0.0655968785285949,0.3376490473747253
1630674795018,0.3433529734611511,0.0957144871354103,-0.0655968785285949,0.2841775417327881
1630674795098,0.2965402603149414,0.1004908084869384,-0.0732096135616302,0.2841775417327881
1630674795185,0.2387424111366272,0.0951207876205444,-0.077200748026371,0.2854914963245392
1630674795300,0.2182890921831131,0.0899296402931213,-0.0844644010066986,0.2948679327964782
1630674795437,0.1860581934452057,0.1192183643579483,-0.1055886596441268,0.2948679327964782
1630674795498,0.1746413260698318,0.1831305176019668,-0.1301114112138748,0.2948679327964782
1630674795603,0.1707853376865387,0.1824701726436615,-0.1403963416814804,0.2948679327964782
1630674795702,0.1669987887144088,0.1730756759643554,-0.1404548287391662,0.2948679327964782
1630674795851,0.1669987887144088,0.1516239643096923,-0.1404548287391662,0.2866534292697906
1630674795959,0.1669987887144088,0.1271514296531677,-0.1481853872537613,0.2310246527194976
1630674796069,0.1485838294029235,0.1259659528732299,-0.1896322816610336,0.1067443266510963
1630674796119,0.1186965927481651,0.1259659528732299,-0.2612035870552063,-0.0106277260929346
1630674796217,0.0867858454585075,0.1259659528732299,-0.3343708217144012,-0.0555673092603683
1630674796305,0.035283874720335,0.1259659528732299,-0.4487934708595276,-0.0617343299090862
1630674796396,-0.0192571133375167,0.1176982000470161,-0.5617455840110779,-0.0617343299090862
1630674796518,-0.0192571133375167,0.103368304669857,-0.5617455840110779,-0.0617343299090862
1630674796635,-0.0192571133375167,0.07365083694458,-0.5617455840110779,-0.0617343299090862
1630674796738,-0.0192571133375167,0.0234503429383039,-0.5617455840110779,-0.0617343299090862
1630674796848,-0.0192571133375167,0.0304996464401483,-0.5617455840110779,-0.0617343299090862
1630674796943,-0.0192571133375167,0.134327694773674,0.3647109568119049,-0.0617343299090862
1630674797007,0.810638964176178,0.2114885002374649,0.3974309265613556,0.9540649056434632
1630674797103,0.9332645535469056,0.2609167098999023,0.4016484022140503,0.9614193439483644
1630674797254,0.9959624409675598,0.2986524701118469,0.4016484022140503,0.9743961691856384
1630674797370,1.026942253112793,0.3149330019950866,0.4016484022140503,0.984163463115692
1630674797417,1.0444962978363037,0.3230593800544739,0.4016484022140503,0.9894562363624572
1630674797537,1.052225112915039,0.3359614908695221,0.4094520509243011,0.991055190563202
1630674797643,1.054013967514038,0.3709732890129089,0.4094520509243011,0.992171585559845
1630674797713,1.0570430755615234,0.4294801354408264,0.4094520509243011,0.992183804512024
1630674797853,1.0704747438430786,0.4822450578212738,0.4094520509243011,0.992183804512024
1630674797952,1.083573341369629,0.503587007522583,0.4094520509243011,0.992183804512024
1630674798096,1.09104323387146,0.5078197717666626,0.409870982170105,0.992183804512024
1630674798130,1.0984591245651243,0.5078197717666626,0.4060997664928436,0.992183804512024
1630674798265,1.1079461574554443,0.5078197717666626,0.4033028483390808,0.9898605346679688
1630674798336,1.111169934272766,0.5078197717666626,0.3861670792102813,0.9861281514167786
1630674798471,1.11260187625885,0.5078197717666626,0.3403901159763336,0.9305574893951416
1630674798573,1.11260187625885,0.5078197717666626,0.2465490400791168,0.8067850470542908
1630674798667,1.11260187625885,0.4826747477054596,0.1468276381492614,0.7161741256713867
1630674798784,1.0854154825210571,0.4464957118034363,0.0441805310547351,0.6797052025794983
1630674798848,1.0114272832870483,0.4244251251220703,-0.0246689263731241,0.667744517326355
1630674798935,0.937590718269348,0.4127554297447204,0.0452702529728412,0.6874931454658508
1630674799102,0.906079113483429,0.4240135848522186,0.1691305786371231,0.7344055771827698
1630674799184,0.8924359083175659,0.5434492826461792,0.2866769433021545,0.7934640645980835
1630674799286,0.914802074432373,0.6750385761260986,0.3971630036830902,0.8376733660697937
1630674799347,0.9677351117134094,0.7848939299583435,0.4447928071022033,0.8699353337287903
1630674799468,0.9677351117134094,0.784503698348999,0.476304680109024,0.8699353337287903
1630674799618,0.9677351117134094,0.7811876535415649,0.476304680109024,0.8699353337287903
1630674799700,0.9677351117134094,0.7771931290626526,0.476304680109024,0.8699353337287903
1630674799773,0.9667292833328248,0.7718707919120789,0.476304680109024,0.8699353337287903
1630674799871,0.958394467830658,0.7637163400650024,0.476304680109024,0.8699353337287903
1630674799951,0.93451189994812,0.7599175572395325,0.476304680109024,0.8699353337287903
1630674800033,0.8987545967102051,0.7599175572395325,0.476304680109024,0.8699353337287903
1630674800177,0.859642505645752,0.7599175572395325,0.4732240736484527,0.8699353337287903
1630674800304,0.8282222747802734,0.7599175572395325,0.4696075022220611,0.8699353337287903
1630674800423,0.8164764642715454,0.7599175572395325,0.467941552400589,0.8699353337287903
1630674800533,0.8114219903945923,0.7599175572395325,0.4660562574863434,0.8561781048774719
1630674800602,0.8114219903945923,0.7599175572395325,0.4655210077762604,0.8561781048774719
1630674800713,0.8114219903945923,0.7599175572395325,0.4842985570430755,0.8561781048774719
1630674800776,0.8114219903945923,0.7599175572395325,0.4840172529220581,0.8561781048774719
1630674800957,0.8114219903945923,0.7599175572395325,0.4334737062454223,0.8561781048774719
1630674801024,0.8114219903945923,0.7599175572395325,-0.0781932473182678,0.8561781048774719
1630674801086,0.8114219903945923,0.8330762982368469,-0.0569045878946781,0.8561781048774719
1630674801183,0.3114627301692962,0.8330762982368469,-0.0287126321345567,0.8561781048774719
1630674801270,0.3700173497200012,0.8330762982368469,0.0260763745754957,0.6492094397544861
1630674801401,0.3824449479579925,0.8330762982368469,0.0568498037755489,0.696269154548645
1630674801520,0.3968088328838348,0.8330762982368469,0.0568498037755489,0.7168837189674377
1630674801600,0.3973982334136963,0.8330762982368469,0.0568498037755489,0.7168837189674377
1630674801737,0.3984704315662384,0.8330762982368469,0.0568498037755489,0.7168837189674377
1630674801836,0.3984704315662384,0.8330762982368469,0.0568498037755489,0.7168837189674377
1630674801915,0.3984704315662384,0.8330762982368469,0.0568498037755489,0.7168837189674377
1630674801973,0.3984704315662384,0.8330762982368469,0.0568498037755489,0.7168837189674377
1630674802152,0.3984704315662384,0.8330762982368469,0.0568498037755489,0.7168837189674377
1630674802200,0.3984704315662384,0.8330762982368469,0.0101699130609631,0.7168837189674377
1630674802300,0.3984704315662384,0.8330762982368469,-0.0134127335622906,0.7168837189674377
1630674802418,0.3973135650157928,0.8330762982368469,-0.0572153739631176,0.7168837189674377
1630674802502,0.384581059217453,0.8179812431335449,-0.0912288874387741,0.6526751518249512
1630674802585,0.3751431703567505,0.669185221195221,-0.1133099049329757,0.6035012006759644
1630674802717,0.3618436753749847,0.35639688372612,-0.1677773296833038,0.5729306936264038
1630674802817,0.3226630985736847,-0.0992025211453437,-0.2212041616439819,0.5405734181404114
1630674802951,0.3226630985736847,-0.0992025211453437,-0.2212041616439819,0.5405734181404114
1630674803044,0.3226630985736847,-0.0992025211453437,-0.2212041616439819,0.5405734181404114
1630674803111,0.3226630985736847,-0.0992025211453437,-0.2212041616439819,0.5405734181404114
1630674803186,0.3226630985736847,-0.0992025211453437,-0.2212041616439819,0.5405734181404114
1630674803367,0.3226630985736847,-0.0992025211453437,-0.2212041616439819,0.5405734181404114
1630674803444,0.3226630985736847,-0.0992025211453437,-0.2212041616439819,0.5405734181404114
1630674803527,0.3226630985736847,-0.0992025211453437,-0.2212041616439819,0.5405734181404114
1630674803637,0.3226630985736847,-0.0992025211453437,-0.2212041616439819,0.5405734181404114
1630674803732,0.3226630985736847,-0.0992025211453437,-0.2212041616439819,0.5405734181404114
1630674803855,0.3226630985736847,-0.0992025211453437,-0.2212041616439819,0.5405734181404114
1630674803934,0.3226630985736847,-0.0992025211453437,-0.2212041616439819,0.5405734181404114
1630674804032,0.3226630985736847,-0.0992025211453437,-0.2212041616439819,0.5405734181404114
1630674804161,0.3226630985736847,-0.0992025211453437,-0.2212041616439819,0.5405734181404114
1630674804226,0.3226630985736847,-0.0992025211453437,0.0395417436957359,0.5405734181404114
1630674804353,0.3226630985736847,0.1345395147800445,0.0395417436957359,0.5405734181404114
1630674804418,0.2438555657863617,0.1345395147800445,0.0395417436957359,0.5405734181404114
1630674804602,0.2638516426086426,0.1345395147800445,0.0455035082995891,0.5405734181404114
1630674804665,0.2888300716876983,0.1348881870508194,0.0525592938065528,0.5405734181404114
1630674804775,0.3251261413097381,0.1363057047128677,0.0529663898050785,0.5185148119926453
1630674804858,0.3699337840080261,0.1365493685007095,0.0529663898050785,0.5901674628257751
1630674804936,0.4460398256778717,0.1366373151540756,0.0542760863900184,0.6259146928787231
1630674805053,0.5072302222251892,0.1366373151540756,0.0542760863900184,0.6259202361106873
1630674805185,0.5380327105522156,0.1366373151540756,0.0542760863900184,0.6259202361106873
1630674805286,0.5626893043518066,0.1434455066919326,0.0547823645174503,0.6259202361106873
1630674805418,0.5626893043518066,0.1671499758958816,0.1004287302494049,0.6259202361106873
1630674805503,0.5626893043518066,0.2245939821004867,0.1004287302494049,0.6259202361106873
1630674805586,0.5626893043518066,0.4393857717514038,0.0877266749739646,0.6259202361106873
1630674805662,0.5626893043518066,0.7557081580162048,0.030762568116188,0.6259202361106873
1630674805771,0.5626893043518066,0.913506269454956,-0.053768865764141,0.6255773305892944
1630674805877,0.5626893043518066,0.913506269454956,-0.1034188792109489,0.5688527226448059
1630674805968,0.5514912605285645,0.913506269454956,-0.1061140298843383,0.5688527226448059
1630674806046,0.5249514579772949,0.913506269454956,-0.1061140298843383,0.5688527226448059
1630674806139,0.5028906464576721,0.913506269454956,-0.1153134554624557,0.5688527226448059
1630674806283,0.4832993149757385,0.913506269454956,-0.131138876080513,0.5627034306526184
1630674806418,0.4738839864730835,0.913506269454956,-0.1374146044254303,0.5350277423858643
1630674806482,0.4738839864730835,0.913506269454956,-0.143041044473648,0.5350277423858643
1630674806592,0.4738839864730835,0.913506269454956,-0.1297424882650375,0.5350277423858643
1630674806690,0.4738839864730835,0.913506269454956,-0.1297424882650375,0.5350277423858643
1630674806751,0.4738839864730835,0.913506269454956,-0.1460645198822021,0.5350277423858643
1630674806836,0.5516088008880615,0.913506269454956,-0.3418780863285064,0.5546722412109375
1630674806984,0.5947735905647278,0.913506269454956,-0.335377961397171,0.5593692064285278
1630674807083,0.6246301531791687,0.913506269454956,-0.3140532672405243,0.5593692064285278
1630674807168,0.6302801370620728,0.913506269454956,-0.2700087130069732,0.5593692064285278
1630674807264,0.6302801370620728,-0.0055999713949859,-0.1925831288099289,0.5593692064285278
1630674807399,0.6302801370620728,-0.0055999713949859,-0.1925831288099289,0.5593692064285278
1630674807498,0.6302801370620728,-0.0055999713949859,-0.1925831288099289,0.5593692064285278
1630674807654,0.6302801370620728,-0.0055999713949859,-0.1925831288099289,0.5593692064285278
1630674807738,0.6302801370620728,-0.1470724791288375,-0.1925831288099289,0.5593692064285278
1630674807817,0.6302801370620728,-0.173746719956398,-0.1925831288099289,0.5593692064285278
1630674807938,0.6302801370620728,-0.1863235831260681,-0.1925831288099289,0.5593692064285278
1630674807985,0.6302801370620728,-0.2102156579494476,-0.1925831288099289,0.5593692064285278
1630674808060,0.6302801370620728,-0.2367858290672302,-0.2405822873115539,0.5353420376777649
1630674808226,0.6271933317184448,-0.2740750312805176,-0.2586904168128967,0.4949263632297516
1630674808281,0.6016558408737183,-0.2993141710758209,-0.2684161961078644,0.4481604695320129
1630674808404,0.6016558408737183,-0.2993141710758209,-0.2997281849384308,0.4481604695320129
1630674808496,0.6016558408737183,-0.2993141710758209,-0.2997281849384308,0.4481604695320129
1630674808635,0.6016558408737183,-0.2993141710758209,-0.2997281849384308,0.4481604695320129
1630674808678,0.6016558408737183,-0.2993141710758209,-0.2997281849384308,0.4481604695320129
1630674808828,0.6016558408737183,-0.2993141710758209,-0.2997281849384308,0.4481604695320129
1630674808921,0.6016558408737183,-0.2993141710758209,-0.2226393818855285,0.4481604695320129
1630674809080,0.8278151750564575,0.7501986622810364,-0.1291072070598602,0.701130747795105
1630674809146,0.8383078575134277,0.7501986622810364,-0.069705918431282,0.7085145711898804
1630674809206,0.838698148727417,0.7501986622810364,-0.0291771031916141,0.7173115611076355
1630674809301,0.838698148727417,0.7501986622810364,0.0001220467529492,0.727913498878479
1630674809485,0.8391064405441284,0.7501986622810364,0.0154686411842703,0.7770055532455444
1630674809517,0.8815393447875977,0.7501986622810364,0.0208154954016208,0.8567332625389099
1630674809609,0.948810875415802,0.7501986622810364,0.0208154954016208,0.9600189924240112
1630674809727,0.9761079549789428,0.7501986622810364,0.0208154954016208,1.0352754592895508
1630674809868,0.9787419438362122,0.7501986622810364,0.0208154954016208,1.0384715795516968
1630674809915,0.9787419438362122,0.7501986622810364,0.0208154954016208,1.0384715795516968
1630674810054,0.9787419438362122,0.7501986622810364,0.0208154954016208,1.0384715795516968
1630674810170,0.9787419438362122,0.7501986622810364,0.0208154954016208,1.0384715795516968
1630674810269,0.9787419438362122,0.7501986622810364,0.0208154954016208,1.0384715795516968
1630674810317,0.9682794809341432,0.7501016855239868,0.0124925877898931,1.0384715795516968
1630674810432,0.9492923021316528,0.7499510049819946,0.0020459238439798,1.0384715795516968
1630674810500,0.904299020767212,0.6880903244018555,-0.0102171087637543,1.0384715795516968
1630674810635,0.8522680997848511,0.4676350057125091,-0.0375527665019035,1.0384715795516968
1630674810733,0.829057514667511,0.0893768742680549,-0.0749935582280159,1.0384715795516968
1630674810870,0.8277544975280762,-0.2389160841703415,-0.1139707118272781,1.0384715795516968
1630674810968,0.8258721232414246,-0.2713800370693207,-0.1528794765472412,1.0367517471313477
1630674811044,0.8223581910133362,-0.3024173676967621,-0.2218429744243621,1.0315961837768557
1630674811172,0.8223581910133362,-0.3024173676967621,-0.2218429744243621,1.0315961837768557
1630674811262,0.8223581910133362,-0.3024173676967621,-0.2218429744243621,1.0315961837768557
1630674811354,0.8223581910133362,-0.3024173676967621,-0.2218429744243621,1.0315961837768557
1630674811471,0.8223581910133362,-0.3024173676967621,-0.2218429744243621,1.0315961837768557
1630674811582,0.7006500959396362,-0.3024173676967621,-0.288821280002594,0.6667107939720154
1630674811622,0.7243416905403137,-0.3024173676967621,-0.2773576378822326,0.7771704792976379
1630674811720,0.7326073050498962,-0.3024173676967621,-0.2516686022281647,0.8295290470123291
1630674811875,0.7326073050498962,-0.3024173676967621,-0.2516686022281647,0.8295290470123291
1630674811964,0.7326073050498962,-0.3024173676967621,-0.2516686022281647,0.8295290470123291
1630674812079,0.7326073050498962,-0.3024173676967621,-0.2516686022281647,0.8295290470123291
1630674812167,0.7326073050498962,-0.3024173676967621,-0.2516686022281647,0.8295290470123291
1630674812250,0.7326073050498962,-0.3024173676967621,-0.2516686022281647,0.8295290470123291
1630674812353,0.7326073050498962,-0.3024173676967621,-0.2516686022281647,0.8295290470123291
1630674812467,0.7326073050498962,-0.3024173676967621,-0.2516686022281647,0.8295290470123291
1630674812611,0.7326073050498962,-0.3024173676967621,-0.2516686022281647,0.8295290470123291
1630674812718,0.7326073050498962,-0.3024173676967621,-0.2516686022281647,0.8295290470123291
1630674812784,0.6943023800849915,-0.3024173676967621,-0.2547110915184021,0.8063163757324219
1630674812846,0.6679545640945435,-0.3024173676967621,-0.2781329452991485,0.7794250249862671
1630674812947,0.6679545640945435,-0.3024173676967621,-0.2781329452991485,0.7794250249862671
1630674813085,0.6679545640945435,-0.3024173676967621,-0.2781329452991485,0.7794250249862671
1630674813169,0.6679545640945435,-0.3024173676967621,-0.2781329452991485,0.7794250249862671
1630674813247,0.6679545640945435,-0.3024173676967621,-0.2781329452991485,0.7794250249862671
1630674813369,0.6679545640945435,-0.3024173676967621,-0.2781329452991485,0.7794250249862671
1630674813480,0.6679545640945435,-0.3024173676967621,-0.2781329452991485,0.7794250249862671
1630674813570,0.6679545640945435,-0.3024173676967621,-0.2781329452991485,0.7794250249862671
1630674813723,0.6679545640945435,-0.3024173676967621,-0.2781329452991485,0.7794250249862671
1630674813819,0.6679545640945435,-0.3024173676967621,-0.2781329452991485,0.7794250249862671
1630674813935,0.6679545640945435,-0.3024173676967621,-0.2781329452991485,0.7794250249862671
1630674813966,0.6679545640945435,-0.3024173676967621,-0.2781329452991485,0.7794250249862671
1630674814044,0.6679545640945435,-0.3024173676967621,-0.2781329452991485,0.7794250249862671
1630674814158,0.6679545640945435,-0.3024173676967621,-0.2781329452991485,0.7794250249862671
1630674814289,0.6679545640945435,0.3530480563640594,-0.2781329452991485,0.7794250249862671
1630674814385,0.6679545640945435,0.3530480563640594,-0.2781329452991485,0.7794250249862671
1630674814502,0.6679545640945435,0.3530480563640594,-0.2781329452991485,0.7794250249862671
1630674814614,0.6679545640945435,0.3530480563640594,-0.2781329452991485,0.7794250249862671
1630674814672,0.6679545640945435,0.3530480563640594,-0.2781329452991485,0.7794250249862671
1630674814770,0.6679545640945435,0.3530480563640594,-0.2781329452991485,0.7794250249862671
1630674814915,0.6679545640945435,0.3530480563640594,-0.2781329452991485,0.7794250249862671
1630674815024,0.6679545640945435,0.3530480563640594,-0.2781329452991485,0.7794250249862671
1630674815152,0.6679545640945435,0.3530480563640594,-0.2781329452991485,0.7794250249862671
1630674815218,0.6679545640945435,0.3530480563640594,-0.2781329452991485,0.7794250249862671
1630674815311,0.6679545640945435,0.3530480563640594,-0.2781329452991485,0.7794250249862671
1630674815387,0.6679545640945435,0.3530480563640594,-0.2781329452991485,0.7794250249862671
1630674815501,0.6679545640945435,0.3530480563640594,-0.2781329452991485,0.7794250249862671
1630674815614,0.6679545640945435,0.3530480563640594,-0.2781329452991485,0.7794250249862671
1630674815733,0.6679545640945435,0.3530480563640594,-0.2781329452991485,0.7794250249862671
1630674815813,0.6679545640945435,0.3530480563640594,-0.2781329452991485,0.7794250249862671
1630674815906,0.6679545640945435,0.3530480563640594,-0.2781329452991485,0.7794250249862671
1630674816067,0.6679545640945435,0.2868650257587433,-0.1040956154465675,0.4268780648708343
1630674816154,0.5404185652732849,0.300936758518219,-0.1040956154465675,0.4689499139785766
1630674816265,0.5404185652732849,0.3029358386993408,-0.1040956154465675,0.536950409412384
1630674816360,0.5404185652732849,0.3029358386993408,-0.0786562114953994,0.5685089230537415
1630674816420,0.5404185652732849,0.3029358386993408,-0.0425367578864097,0.573674738407135
1630674816515,0.5470640659332275,0.3033232688903808,-0.0053439307957887,0.5797987580299377
1630674816600,0.5470640659332275,0.3033232688903808,0.0406305231153965,0.588233232498169
1630674816726,0.5470640659332275,0.3033232688903808,0.1087627932429313,0.6029559373855591
1630674816825,0.5495671033859253,0.3033232688903808,0.1397318542003631,0.6265205144882202
1630674816941,0.5717200040817261,0.3033232688903808,0.1427398175001144,0.6265205144882202
1630674817018,0.6173300743103027,0.3033232688903808,0.1427398175001144,0.6277247667312622
1630674817154,0.762267529964447,0.3033232688903808,0.1487797349691391,0.6524292826652527
1630674817223,0.8957579731941223,0.036918606609106,0.1873458623886108,0.8057297468185425
1630674817388,0.965806484222412,0.0531224384903907,0.2455310672521591,1.0407302379608154
1630674817465,0.9810258746147156,0.0766011103987693,0.2924859821796417,1.189496994018555
1630674817535,0.9832853078842164,0.0738214775919914,0.3077212870121002,1.224244475364685
1630674817647,0.9795979857444764,0.0738214775919914,0.3076801896095276,1.224244475364685
1630674817745,0.9675511717796326,0.0611929632723331,0.3046522140502929,1.2229994535446167
1630674817810,0.9639726877212524,0.0330699495971202,0.3030067980289459,1.222751498222351
1630674817979,0.9639726877212524,-0.017550054937601,0.3030067980289459,1.2219957113265991
1630674818070,0.9639726877212524,-0.0467716082930564,0.2998169064521789,1.2219957113265991
1630674818155,0.9639726877212524,-0.0515342690050601,0.2828649580478668,1.2219957113265991
1630674818271,0.9639726877212524,-0.0533240623772144,0.2760662138462066,1.221477508544922
1630674818338,0.9639726877212524,-0.062757208943367,0.2731291651725769,1.2133469581604004
1630674818449,0.9560895562171936,-0.062757208943367,0.2715722024440765,1.2019835710525513
1630674818570,0.946763813495636,-0.062757208943367,0.2754161059856415,1.2019835710525513
1630674818702,0.9378238916397096,-0.062757208943367,0.276079922914505,1.2019835710525513
1630674818791,0.9195246696472168,-0.062757208943367,0.2753251791000366,1.2019835710525513
1630674818839,0.892463207244873,-0.0698979198932647,0.2701704800128937,1.2019835710525513
1630674818937,0.8073522448539734,-0.119443878531456,0.2551395297050476,1.1989266872406006
1630674819027,0.7402171492576599,-0.2388409227132797,0.2706463038921356,1.1045488119125366
1630674819184,0.6839131116867065,0.0449401512742042,0.3532302975654602,0.9792655110359192
1630674819302,0.6636418700218201,0.1188177764415741,0.4124473631381988,0.9048316478729248
1630674819396,0.6636418700218201,0.2671853303909302,0.4124473631381988,0.8755351305007935
1630674819527,0.6636418700218201,0.524836540222168,0.4124473631381988,0.8711612224578857
1630674819558,0.6636418700218201,0.7402632236480713,0.4124276041984558,0.8711612224578857
1630674819667,0.6636418700218201,0.8474900126457214,0.4112478196620941,0.8711612224578857
1630674819804,0.6636418700218201,0.8474900126457214,0.4112478196620941,0.8711612224578857
1630674819906,0.6636418700218201,0.8474900126457214,0.4106880128383636,0.8711612224578857
1630674819984,0.6636418700218201,0.8474900126457214,0.4094651341438293,0.8711612224578857
1630674820067,0.6636418700218201,0.8474900126457214,0.3953573703765869,0.8711612224578857
1630674820187,0.6636418700218201,0.8474900126457214,0.367409199476242,0.8711612224578857
1630674820286,0.6636418700218201,0.8474900126457214,0.3433155119419098,0.8711612224578857
1630674820403,0.6636418700218201,0.8474900126457214,0.3407870531082153,0.8711612224578857
1630674820496,0.6636418700218201,0.8474900126457214,0.3407870531082153,0.8711612224578857
1630674820597,0.6636418700218201,0.9252938628196716,0.3407870531082153,0.8711612224578857
1630674820703,0.6636418700218201,0.9252938628196716,0.3407870531082153,0.8711612224578857
1630674820795,0.6636418700218201,0.9239262342453004,0.3407870531082153,0.8711612224578857
1630674820859,0.6636418700218201,0.922776699066162,0.3407870531082153,0.8711612224578857
1630674821035,0.6636418700218201,0.922776699066162,0.3407870531082153,0.8711612224578857
1630674821098,0.6636418700218201,0.922776699066162,0.3407870531082153,0.8711612224578857
1630674821178,0.6636418700218201,0.922776699066162,0.3407870531082153,0.8711612224578857
1630674821321,0.6636418700218201,0.922776699066162,0.3407870531082153,0.8711612224578857
1630674821404,0.6636418700218201,0.922776699066162,0.3407870531082153,0.8711612224578857
1630674821487,0.6636418700218201,0.922776699066162,0.3407870531082153,0.8711612224578857
1630674821644,0.6636418700218201,0.922776699066162,0.3407870531082153,0.8711612224578857
1630674821720,0.6636418700218201,0.922776699066162,0.3407870531082153,0.8711612224578857
1630674821819,0.6636418700218201,0.922776699066162,0.3407870531082153,0.8711612224578857
1630674821902,0.6636418700218201,0.922776699066162,0.3407870531082153,0.8711612224578857
1630674822053,0.6636418700218201,0.922776699066162,0.3407870531082153,0.8711612224578857
1630674822084,0.6636418700218201,0.922776699066162,0.3407870531082153,0.8711612224578857
1630674822219,0.6636418700218201,0.922776699066162,0.3407870531082153,0.8711612224578857
1630674822335,0.6636418700218201,0.922776699066162,0.3407870531082153,0.8711612224578857
1630674822435,0.6636418700218201,0.922776699066162,0.3407870531082153,0.8711612224578857
1630674822519,0.6636418700218201,0.922776699066162,0.3407870531082153,0.8711612224578857
1630674822634,0.6636418700218201,0.922776699066162,0.3407870531082153,0.8711612224578857
1630674822713,0.6636418700218201,0.922776699066162,0.3407870531082153,0.8711612224578857
1630674822855,0.6636418700218201,0.922776699066162,0.3407870531082153,0.8711612224578857
1630674822920,0.6636418700218201,0.922776699066162,0.4096207916736603,0.8711612224578857
1630674823015,0.6636418700218201,-0.0117264445871114,0.399036169052124,0.8711612224578857
1630674823117,0.6636418700218201,0.0441923961043357,0.400093674659729,0.4739011824131012
1630674823217,0.6437307000160217,0.101156935095787,0.4062240719795227,0.526250958442688
1630674823319,0.7177228331565857,0.1353621184825897,0.4258473813533783,0.5687145590782166
1630674823453,0.771936297416687,0.1556140184402465,0.4535119235515594,0.612070620059967
1630674823565,0.8021333813667297,0.1556140184402465,0.4684627950191498,0.6375752091407776
1630674823625,0.8037102818489075,0.1562184542417526,0.4694748818874359,0.6454053521156311
1630674823713,0.8037102818489075,0.1576696336269378,0.4694748818874359,0.6514636278152466
1630674823810,0.8037102818489075,0.1576696336269378,0.4764384627342224,0.6601376533508301
1630674823907,0.8037102818489075,0.1751988977193832,0.4889900684356689,0.6637789607048035
1630674824055,0.8037102818489075,0.2070597857236862,0.5036076903343201,0.6637789607048035
1630674824145,0.8037102818489075,0.2236286103725433,0.5156424045562744,0.6637789607048035
1630674824232,0.8037102818489075,0.1816651821136474,0.478893905878067,0.6637789607048035
1630674824331,0.8037102818489075,0.1661708503961563,0.4032776951789856,0.6193907260894775
1630674824443,0.7928106784820557,0.1662225425243377,0.3406977951526642,0.606762707233429
1630674824542,0.7851693630218506,0.1706788092851638,0.3275998830795288,0.604881763458252
1630674824681,0.7840563654899597,0.1730533838272094,0.3415331244468689,0.6021808385848999
1630674824760,0.7840563654899597,0.1730533838272094,0.3509688377380371,0.6030128598213196
1630674824837,0.7801532745361328,0.1710249334573745,0.3489014804363251,0.5727556347846985
1630674824980,0.7309581637382507,0.1406132131814956,0.3382777869701385,0.5230575799942017
1630674825038,0.5850324630737305,0.0770318806171417,0.3082582056522369,0.4802541136741638
1630674825158,0.4525201320648193,0.0530279949307441,0.26171875,0.4386360049247741
1630674825287,0.4855230450630188,0.1136689335107803,0.2376680225133896,0.4542054533958435
1630674825419,0.5949478149414062,0.2119676917791366,0.2301716208457946,0.4637905061244964
1630674825464,0.6374843716621399,0.2463333755731582,0.2198228538036346,0.4677020311355591
1630674825569,0.6242429614067078,0.2418021410703659,0.1977361440658569,0.4538907706737518
1630674825663,0.624048113822937,0.22994264960289,0.1718693971633911,0.4427786469459533
1630674825742,0.624048113822937,0.2211834192276001,0.1259650588035583,0.447822093963623
1630674825869,0.624048113822937,0.216170847415924,0.0662725716829299,0.4485624730587005
1630674825988,0.624048113822937,0.2144420742988586,0.029309906065464,0.4735342264175415
1630674826045,0.624048113822937,0.2140753865242004,0.0059904577210545,0.5234958529472351
1630674826225,0.6373854279518127,0.2087467163801193,-0.0092666894197463,0.5479629039764404
1630674826278,0.6373854279518127,0.2050145119428634,-0.0355157442390918,0.562475323677063
1630674826351,0.6338653564453125,0.2036049216985702,-0.0622781515121459,0.5865920186042786
1630674826504,0.6255002021789551,0.2036049216985702,0.0518849864602088,0.6035447716712952
1630674826583,0.6241899728775024,0.2036049216985702,0.2343176156282425,0.6281723976135254
1630674826678,0.6241899728775024,0.2036049216985702,0.3377907276153564,0.6334735155105591
1630674826764,0.6241899728775024,0.1982061117887497,0.3476313352584839,0.6368808746337891
1630674826869,0.9991512298583984,0.1811108738183975,0.3476313352584839,0.6368808746337891
1630674826970,0.9967484474182128,0.1007106304168701,0.3476313352584839,0.6791331768035889
1630674827098,0.9967484474182128,-0.0641582906246185,0.3476313352584839,0.6791331768035889
1630674827219,0.9967484474182128,-0.2243465632200241,0.3564579486846924,0.6791331768035889
1630674827296,0.9978821277618408,-0.3313082754611969,0.3813079595565796,0.6791331768035889
1630674827405,0.9978821277618408,-0.38455331325531,0.4006136655807495,0.6791331768035889
1630674827498,0.9978821277618408,-0.38455331325531,0.4112721383571625,0.6791331768035889
1630674827566,0.9973461627960204,-0.38455331325531,0.432077944278717,0.6791331768035889
1630674827720,0.9736557602882384,-0.38455331325531,0.432077944278717,0.6761046051979065
1630674827819,0.9736557602882384,-0.38455331325531,0.432077944278717,0.6761046051979065
1630674827919,0.9736557602882384,-0.38455331325531,0.432077944278717,0.6748296022415161
1630674827996,0.9736557602882384,-0.38455331325531,0.432077944278717,0.6629984974861145
1630674828090,0.9736557602882384,-0.38455331325531,0.432077944278717,0.6401915550231934
1630674828178,0.9736557602882384,-0.38455331325531,0.4232911169528961,0.6401915550231934
1630674828335,0.9736557602882384,-0.38455331325531,0.3345539569854736,0.6401915550231934
1630674828419,0.8796693086624146,-0.38455331325531,0.2056135088205337,0.6401915550231934
1630674828514,0.8796693086624146,-0.38455331325531,0.1247336938977241,0.6401915550231934
1630674828591,0.8796693086624146,-0.38455331325531,0.1330557316541671,0.6401915550231934
1630674828687,0.8796693086624146,-0.38455331325531,0.1616308093070984,0.6401915550231934
1630674828819,0.8796693086624146,-0.38455331325531,0.1881163269281387,0.6401915550231934
1630674828934,0.8796693086624146,-0.38455331325531,0.1967120170593261,0.6401915550231934
1630674829036,0.3087195456027984,-0.38455331325531,0.1847780048847198,0.5795175433158875
1630674829118,0.3166481256484985,0.2361462563276291,0.0106003265827894,0.5893004536628723
1630674829201,0.3260156810283661,0.2607747912406921,0.0298564247786998,0.5921141505241394
1630674829321,0.3448966741561889,0.2678278684616089,0.0662204921245575,0.6002814769744873
1630674829386,0.4065225422382355,0.2716493904590606,0.0941732823848724,0.6026321649551392
1630674829601,0.455968290567398,0.2716493904590606,0.1077165827155113,0.603706955909729
1630674829651,0.4600969552993774,0.2716493904590606,0.1199166476726532,0.603706955909729
1630674829773,0.4603605270385742,0.2716493904590606,0.1199166476726532,0.6047016382217407
1630674829837,0.4673027396202087,0.2716493904590606,0.1199166476726532,0.6067501902580261
1630674829920,0.4678094387054443,0.2716493904590606,0.1199166476726532,0.6092562079429626
1630674830012,0.4678094387054443,0.2727555930614471,0.1199166476726532,0.6118200421333313
1630674830138,0.4707895517349243,0.2984596788883209,0.1199166476726532,0.613985538482666
1630674830233,0.4993870556354522,0.313881367444992,0.1199166476726532,0.5516806244850159
1630674830369,0.6188949346542358,0.3195972740650177,0.1173905432224273,0.5429934859275818
1630674830437,0.7929525971412659,0.3284841179847717,0.1149219796061515,0.5501512289047241
1630674830617,1.03020179271698,0.3433530032634735,0.0374728552997112,0.6483187079429626
1630674830862,1.07482647895813,0.3323884308338165,-0.035049095749855,0.6978349685668945
1630674830954,1.0756148099899292,0.3985921740531921,-0.0312743745744228,0.7303290367126465
1630674831052,1.0779576301574707,0.4631983339786529,-0.0344649143517017,0.7723683714866638
1630674831122,1.0898765325546265,0.4742606878280639,-0.0317281782627105,0.8551943898200989
1630674831220,1.109163522720337,0.4823024570941925,0.0024585197679698,0.9612168073654176
1630674831384,1.1121785640716553,0.494798481464386,0.047977015376091,1.0088530778884888
1630674831466,1.1121785640716553,0.4986438751220703,0.057831410318613,1.0103130340576172
1630674831588,1.1121785640716553,0.4986438751220703,0.0620033740997314,1.0103130340576172
1630674831665,1.1121785640716553,0.500360906124115,0.0780608803033828,1.0103130340576172
1630674831745,1.1121785640716553,0.5005355477333069,0.1062659993767738,1.0103130340576172
1630674831868,1.1121785640716553,0.4962599277496338,0.1183042451739311,1.0103130340576172
1630674831999,1.1121785640716553,0.4934039115905761,0.1146936044096946,1.0103130340576172
1630674832062,1.1013641357421875,0.4889636933803558,0.0979877486824989,1.0103130340576172
1630674832151,1.0866011381149292,0.4828140139579773,0.1418909728527069,1.003221035003662
1630674832250,1.0764001607894895,0.4828140139579773,0.1804441660642624,1.0011372566223145
1630674832358,1.0382248163223269,0.5156097412109375,0.2358792126178741,1.000574827194214
1630674832472,0.9983940720558168,0.6423325538635254,0.2358792126178741,1.0105955600738523
1630674832604,0.95954167842865,0.7805662155151367,0.2358792126178741,1.0592602491378784
1630674832700,0.8842994570732117,0.8130788207054138,0.2358792126178741,1.081554293632507
1630674832762,0.7803281545639038,0.8130788207054138,0.2358792126178741,1.07492995262146
1630674832886,0.6907387375831604,0.8130788207054138,0.2317105084657669,1.044946312904358
1630674832954,0.5957200527191162,0.8130788207054138,0.2017596811056137,1.0148329734802246
1630674833048,0.4812614321708679,0.8130788207054138,0.1841125637292862,1.0129776000976562
1630674833269,0.3931407034397125,0.8130788207054138,0.1841125637292862,1.0129776000976562
1630674833351,0.3614994585514068,0.8130788207054138,0.1841125637292862,1.0129776000976562
1630674833420,0.3614994585514068,0.8130788207054138,0.1899603903293609,1.0129776000976562
1630674833481,0.3614994585514068,0.8130788207054138,0.1818872988224029,1.0572999715805054
1630674833615,0.3614994585514068,0.8130788207054138,0.1943470686674118,1.1255557537078855
1630674833676,0.3614994585514068,0.8130788207054138,0.2126653045415878,1.1847195625305176
1630674833804,0.4986794888973236,0.8130788207054138,0.2305872738361358,1.2089685201644895
1630674833907,0.5393195748329163,0.8130788207054138,0.1463721096515655,1.2214266061782837
1630674833991,0.5948814153671265,0.8130788207054138,0.1463721096515655,1.2252947092056274
1630674834118,0.6764543652534485,0.8080414533615112,0.1463721096515655,1.2252947092056274
1630674834196,0.7304402589797974,0.6875029802322388,0.1463721096515655,1.204310417175293
1630674834288,0.7346002459526062,0.4170506000518799,0.1581196635961532,1.1639820337295532
1630674834437,0.7346002459526062,0.2121619880199432,0.1714134961366653,1.141405463218689
1630674834519,0.7346002459526062,0.174130231142044,0.1730993092060089,1.1414726972579956
1630674834627,0.7346002459526062,0.171998530626297,0.1730993092060089,1.1414726972579956
1630674834703,0.7346002459526062,0.1836082637310028,0.1730993092060089,1.1411943435668943
1630674834786,0.7346002459526062,0.1885550767183303,0.1730993092060089,1.1405318975448608
1630674834902,0.7346002459526062,0.1889051049947738,0.1730522662401199,1.140676975250244
1630674835020,0.7346002459526062,0.1889051049947738,0.156398206949234,1.1412066221237185
1630674835121,0.7346002459526062,0.1889051049947738,0.1373714655637741,1.1417824029922483
1630674835214,0.7346002459526062,0.1889051049947738,0.1343331784009933,1.1316782236099243
1630674835292,0.7346002459526062,0.1434691399335861,0.1357355415821075,1.0786044597625732
1630674835369,0.7207869291305542,0.0273451749235391,0.1115219518542289,1.0274940729141235
1630674835512,0.6810653805732727,-0.1259833723306656,0.0691195502877235,0.9818246960639954
1630674835670,0.6478374600410461,-0.1902064532041549,0.0340908877551555,0.9058769345283508
1630674835734,0.6391317248344421,-0.2027171105146408,0.03086425550282,0.7793206572532654
1630674835827,0.5628116130828857,-0.20339035987854,0.0853175893425941,0.5865108966827393
1630674835937,0.4833458364009857,-0.1986686736345291,0.0751649066805839,0.4396325349807739
1630674836034,0.4573964774608612,-0.1460414826869964,0.0715445056557655,0.4123943150043487
1630674836118,0.4556928277015686,0.0450830236077308,0.0711344927549362,0.4033211767673492
1630674836253,0.4556928277015686,0.2447527945041656,0.0711344927549362,0.4027841687202453
1630674836361,0.4556928277015686,0.3270192444324493,0.0711344927549362,0.4027841687202453
1630674836421,0.4556928277015686,0.3271545767784118,0.0711344927549362,0.4027841687202453
1630674836531,0.4556928277015686,0.3234654068946838,0.0626640766859054,0.4027841687202453
1630674836653,0.4556928277015686,0.3196192979812622,0.0563575029373168,0.4027841687202453
1630674836721,0.4556928277015686,0.3196192979812622,0.0558210983872413,0.4027841687202453
1630674836831,0.4556928277015686,0.3196192979812622,0.0552631914615631,0.38778156042099
1630674836931,0.4556928277015686,0.3196192979812622,0.0519828461110591,0.38778156042099
1630674837035,0.4556928277015686,0.3196192979812622,0.0519828461110591,0.38778156042099
1630674837119,0.4556928277015686,0.3196192979812622,0.0519828461110591,0.38778156042099
1630674837244,0.4556928277015686,0.3401884734630584,0.0519828461110591,0.38778156042099
1630674837330,0.4556928277015686,0.4190420508384704,0.0519828461110591,0.38778156042099
1630674837502,0.758216142654419,0.4942669868469238,-0.0275554154068231,0.8181629180908203
1630674837565,0.8513509631156921,0.5240512490272522,0.0477199293673038,0.8642851710319519
1630674837627,0.875180721282959,0.5240512490272522,0.0677485391497612,0.884497344493866
1630674837773,0.875180721282959,0.5240512490272522,0.0677485391497612,0.8863613605499268
1630674837888,0.875180721282959,0.5076358318328857,0.0677485391497612,0.8863613605499268
1630674837939,0.8753392100334167,0.4634454846382141,0.0677485391497612,0.8863613605499268
1630674838084,0.876954972743988,0.4241116940975189,0.0706768110394477,0.892642080783844
1630674838162,0.8790690898895264,0.4104286134243011,0.0750402510166168,0.9039459824562072
1630674838267,0.8802195191383362,0.4104286134243011,0.0783075019717216,0.9120602607727052
1630674838376,0.8810514807701111,0.4104286134243011,0.0849271789193153,0.9147950410842896
1630674838440,0.8810514807701111,0.4104286134243011,0.1015783995389938,0.9147950410842896
1630674838552,0.8810514807701111,0.4104286134243011,0.1435201913118362,0.9147950410842896
1630674838669,0.8790251612663269,0.4104286134243011,0.220326080918312,0.9085631370544434
1630674838804,0.8653595447540283,0.4099042117595672,0.2752291858196258,0.8890883326530457
1630674838864,0.8431618213653564,0.4093030393123626,0.3103931248188019,0.851817786693573
1630674838988,0.826778769493103,0.4015810191631317,0.3542835116386413,0.803837239742279
1630674839086,0.8042584657669067,0.360097736120224,0.3422747254371643,0.7845449447631836
1630674839162,0.7381539344787598,0.2601889073848724,0.3306406438350677,0.7545793056488037
1630674839289,0.6515493392944336,0.1551738083362579,0.3258273005485534,0.7101566195487976
1630674839383,0.547311544418335,0.1106999069452285,0.3227662444114685,0.6842336058616638
1630674839487,0.4686137437820434,0.0981200337409973,0.3227662444114685,0.6750969886779785
1630674839585,0.394638180732727,0.0675352662801742,0.3227662444114685,0.6596571803092957
1630674839659,0.3049586415290832,-0.0238758716732263,0.3227662444114685,0.6308277249336243
1630674839775,0.1980430036783218,-0.0956280976533889,0.3227662444114685,0.6201272010803223
1630674839903,0.1563447564840316,-0.095910795032978,0.3227662444114685,0.6124652624130249
1630674840023,0.1563447564840316,-0.097276747226715,0.3227662444114685,0.6124652624130249
1630674840090,0.1563447564840316,-0.097276747226715,0.3973565697669983,0.6124652624130249
1630674840167,0.1563447564840316,-0.097276747226715,0.3976272940635681,0.6124652624130249
1630674840247,0.1563447564840316,-0.097276747226715,0.3768670558929443,0.6124652624130249
1630674840406,0.1563447564840316,-0.097276747226715,0.3671827316284179,0.6124652624130249
1630674840514,0.1563447564840316,0.3313648700714111,0.3423713743686676,0.6124652624130249
1630674840612,0.1339473128318786,0.3313648700714111,0.3423713743686676,0.4116232097148895
1630674840701,0.1587525755167007,0.3313648700714111,0.3423713743686676,0.5000715255737305
1630674840817,0.1891613602638244,0.3313648700714111,0.3423713743686676,0.5956796407699585
1630674840898,0.2349209040403366,0.3313648700714111,0.3423713743686676,0.6877315640449524
1630674840969,0.3510023951530456,0.3517788052558899,0.3423713743686676,0.7757335901260376
1630674841117,0.5116649270057678,0.4081811308860779,0.3423713743686676,0.8548983335494995
1630674841236,0.6257357597351074,0.449749231338501,0.3423713743686676,0.9113692045211792
1630674841317,0.6855115294456482,0.4671207666397095,0.3423713743686676,0.9660316705703736
1630674841401,0.7573179602622986,0.4701694548130035,0.3423713743686676,1.0701546669006348
1630674841485,0.8735533356666565,0.470417708158493,0.3423713743686676,1.1982262134552002
1630674841568,0.960328996181488,0.470417708158493,0.2927356660366058,1.1982262134552002
1630674841791,0.9738084673881532,0.4468724727630615,0.2461757808923721,1.1982262134552002
1630674841828,0.9738084673881532,0.3725490570068359,0.1882970184087753,1.1982262134552002
1630674841905,0.9738084673881532,0.3376157879829407,0.1657098084688186,1.1982262134552002
1630674842004,0.9738084673881532,0.3376157879829407,0.1357046216726303,1.1982262134552002
1630674842131,0.9738084673881532,0.3376157879829407,0.0891108512878418,1.1982262134552002
1630674842212,0.9738084673881532,0.3395937085151672,0.0413549840450286,1.1982262134552002
1630674842353,0.9738084673881532,0.3450719118118286,0.0389262437820434,1.1987653970718384
1630674842442,0.9738084673881532,0.3565562069416046,0.0511685833334922,1.199755072593689
1630674842525,0.9738084673881532,0.3626943230628967,0.0556121878325939,1.199755072593689
1630674842631,0.9738084673881532,0.3653561770915985,0.0620419830083847,1.1993104219436646
1630674842754,0.971930205821991,0.3479277789592743,0.0775499790906906,1.1803230047225952
1630674842860,0.9645384550094604,0.3388562798500061,0.0835400521755218,1.1678985357284546
1630674843014,0.954497218132019,0.3397615253925323,0.0874107033014297,1.1678985357284546
1630674843064,0.9359816908836364,0.3494769930839538,0.0925767198204994,0.413123071193695
1630674843129,0.9086068272590636,0.3439323604106903,0.1106692552566528,0.5355792045593262
1630674843251,0.8618409037590027,0.3231892883777618,0.1024160683155059,0.6600434184074402
1630674843314,0.7403543591499329,0.300621747970581,0.093609906733036,0.7468790411949158
1630674843434,0.7403543591499329,0.2842682898044586,0.0895767584443092,0.7805700302124023
1630674843553,0.7403543591499329,0.2766564190387726,0.0895767584443092,0.7805700302124023
1630674843674,0.6782735586166382,0.2649776637554168,0.088407278060913,0.7831776142120361
1630674843752,0.6199719309806824,0.251746654510498,0.0829013586044311,0.7887312173843384
1630674843858,0.5898339748382568,0.225792571902275,0.0805870220065116,0.8096888065338135
1630674843935,0.5445714592933655,0.1993145942687988,0.0630140602588653,0.8224397897720337
1630674844017,0.5445714592933655,0.1973269134759903,0.0307779610157012,0.8367493748664856
1630674844186,0.5445714592933655,0.2011155486106872,-0.0016703448491171,0.8620240688323975
1630674844268,0.5445714592933655,0.2031897455453872,-0.0077479556202888,0.8736291527748108
1630674844351,0.544146716594696,0.1959458291530609,-0.0087647577747702,0.8736291527748108
1630674844442,0.5408523678779602,0.1882143765687942,-0.0087647577747702,0.8736291527748108
1630674844535,0.5972435474395752,0.1707351356744766,-0.0087647577747702,0.8736291527748108
1630674844655,0.628982424736023,0.1140818744897842,-0.0087647577747702,0.8736291527748108
1630674844785,0.6382836699485779,-0.0271032135933637,0.0095592625439167,0.8736291527748108
1630674844904,0.637991189956665,-0.1722008287906646,0.0717401728034019,0.8875762820243835
1630674844964,0.6337229013442993,-0.0607552453875541,0.1178916469216346,0.9285737872123718
1630674845060,0.6357066631317139,0.1126808449625969,0.1494676619768142,0.9764718413352966
1630674845132,0.631409764289856,0.1965285837650299,0.1494676619768142,0.9764718413352966
1630674845251,0.6152967810630798,0.2091175764799118,0.1494676619768142,0.9764718413352966
1630674845379,0.5971454381942749,0.2130173742771148,0.1452043950557708,0.9763162732124328
1630674845495,0.5904707908630371,0.2130173742771148,0.1418725401163101,0.9739329814910888
1630674845569,0.5885300040245056,0.2102963775396347,0.1363357901573181,0.9653927087783812
1630674845668,0.5871812701225281,0.2156962156295776,0.1341769993305206,0.942800521850586
1630674845768,0.5785555839538574,0.2134275287389755,0.1341769993305206,0.9051430225372314
1630674845847,0.5655254125595093,0.2045964449644088,0.1324637234210968,0.8869701027870178
1630674846021,0.5655254125595093,0.1924288421869278,0.1295526623725891,0.8851202726364136
1630674846099,0.5527676939964294,0.1928584724664688,0.1295526623725891,0.885107159614563
1630674846204,0.533733606338501,0.197785198688507,0.1295526623725891,0.884992778301239
1630674846302,0.533733606338501,0.2009039223194122,0.1295526623725891,0.884992778301239
1630674846386,0.533733606338501,0.203852504491806,0.1295526623725891,0.884992778301239
1630674846487,0.533733606338501,0.2049456983804702,0.1295526623725891,0.884992778301239
1630674846632,0.533733606338501,0.2126708477735519,0.1295526623725891,0.884992778301239
1630674846695,0.533733606338501,0.2099700272083282,-0.2059224098920822,0.6008722186088562
1630674846819,0.6046965718269348,0.195307582616806,-0.1970185786485672,0.6474155187606812
1630674846886,0.7374724745750427,0.1836093664169311,-0.1731171905994415,0.6511620879173279
1630674846969,0.9105749130249025,0.1616495251655578,-0.0573993697762489,0.6570976972579956
1630674847067,1.0616737604141235,0.1195793524384498,0.0570717006921768,0.6690977215766907
1630674847222,1.1093381643295288,0.0593311712145805,0.1226234212517738,0.7233131527900696
1630674847302,1.119937300682068,0.0774370059370994,0.1516620963811874,0.7797887325286865
1630674847396,1.119937300682068,0.1620678752660751,0.2389648109674453,0.7797887325286865
1630674847497,1.119937300682068,0.2784376144409179,0.2389648109674453,0.7797887325286865
1630674847609,1.119937300682068,0.3283807337284088,0.2389648109674453,0.7797887325286865
1630674847704,1.119937300682068,0.3322936594486236,0.2389648109674453,0.7797887325286865
1630674847819,1.119937300682068,0.3322936594486236,0.2389648109674453,0.7797887325286865
1630674847919,1.119937300682068,0.3309061825275421,0.2365083396434784,0.7797887325286865
1630674848014,1.119937300682068,0.3277420103549957,0.2309547811746597,0.7797887325286865
1630674848119,1.119937300682068,0.3274405896663666,0.2247251123189926,0.7797887325286865
1630674848198,1.119937300682068,0.3273624181747436,0.2247251123189926,0.7797887325286865
1630674848299,1.119937300682068,0.3191839754581451,0.2247251123189926,0.777457058429718
1630674848433,1.1192734241485596,0.307936429977417,0.2247251123189926,0.7504851222038269
1630674848543,1.1192734241485596,0.3027351200580597,0.2247251123189926,0.7504851222038269
1630674848606,1.1192734241485596,0.3015507161617279,0.2247251123189926,0.7504851222038269
1630674848721,1.1192734241485596,0.3015507161617279,0.2027342319488525,0.7504851222038269
1630674848805,1.1192734241485596,0.3006004989147186,0.144618734717369,0.7504851222038269
1630674848902,0.3578470349311828,0.2936639785766601,-0.3052356541156769,0.1907648146152496
1630674849052,0.5318823456764221,0.2575120031833648,-0.2829656302928924,0.2889832556247711
1630674849156,0.6297616958618164,0.1977280378341674,-0.2760065793991089,0.3509802520275116
1630674849237,0.6684662699699402,0.0984777882695198,-0.2726769745349884,0.4411733746528625
1630674849318,0.7004268169403076,0.0446310341358184,-0.2526081502437591,0.5180397033691406
1630674849421,0.7321794629096985,0.0498187765479087,-0.2308391779661178,0.5456089973449707
1630674849496,0.7525185942649841,0.0435827299952507,-0.205463171005249,0.5499297380447388
1630674849655,0.7525185942649841,0.0325448811054229,-0.205463171005249,0.5499297380447388
1630674849770,0.7525185942649841,0.0324384234845638,-0.205463171005249,0.5499297380447388
1630674849870,0.7525185942649841,0.0324384234845638,-0.205463171005249,0.5499297380447388
1630674849987,0.7525185942649841,0.0878494530916214,-0.205463171005249,0.5499297380447388
1630674850039,0.7525185942649841,0.2072608470916748,-0.205463171005249,0.5499297380447388
1630674850150,0.7525185942649841,0.2644891440868377,-0.2085480242967605,0.5492284297943115
1630674850263,0.7525185942649841,0.2837686836719513,-0.2108866572380066,0.5447049736976624
1630674850372,0.7525185942649841,0.2897067070007324,-0.2291478961706161,0.540941596031189
1630674850467,0.7525185942649841,0.2897067070007324,-0.2517287731170654,0.5366741418838501
1630674850531,0.7525185942649841,0.2897067070007324,-0.2738893032073974,0.5350766777992249
1630674850654,0.7365953326225281,0.2897067070007324,-0.3038026392459869,0.4989981353282928
1630674850738,0.7365953326225281,0.2897067070007324,-0.3038026392459869,0.4989981353282928
1630674850871,0.7365953326225281,0.2897067070007324,-0.3038026392459869,0.4989981353282928
1630674850948,0.7365953326225281,0.2860133349895477,-0.3038026392459869,0.4989981353282928
1630674851061,0.7365953326225281,0.2824898660182953,-0.3038026392459869,0.4989981353282928
1630674851171,0.7365953326225281,0.2832195460796356,-0.3922073245048523,0.4989981353282928
1630674851252,0.7365953326225281,0.2836627960205078,-0.3192196190357208,0.4989981353282928
1630674851329,0.0125508978962898,0.2844418585300445,-0.2406312674283981,0.1964931041002273
1630674851461,0.0348272025585174,0.2844418585300445,-0.1780175119638443,0.3831328749656677
1630674851555,0.0348272025585174,0.2753760814666748,-0.1780175119638443,0.3831328749656677
1630674851666,0.0348272025585174,0.2319620698690414,-0.1780175119638443,0.3831328749656677
1630674851802,0.0348272025585174,0.1302088648080825,-0.1780175119638443,0.3831328749656677
1630674851849,0.0348272025585174,0.0272087790071964,-0.1780175119638443,0.3831328749656677
1630674851953,0.0348272025585174,-0.0009697127970866,-0.1780175119638443,0.3831328749656677
1630674852064,0.0348272025585174,-0.0313054956495761,-0.1780175119638443,0.3831328749656677
1630674852188,0.0348272025585174,-0.0861943215131759,-0.1780175119638443,0.3831328749656677
1630674852273,0.0348272025585174,-0.1209833920001983,-0.1780175119638443,0.3831328749656677
1630674852370,0.0348272025585174,-0.1282469779253006,-0.2430605143308639,0.3831328749656677
1630674852480,0.0348272025585174,-0.1334273070096969,-0.2924548983573913,0.3831328749656677
1630674852554,0.014125439338386,-0.1562239676713943,-0.303397387266159,0.3830559551715851
1630674852707,0.014125439338386,-0.1797413676977157,-0.303397387266159,0.3830559551715851
1630674852784,0.014125439338386,-0.2303162813186645,-0.303397387266159,0.3830559551715851
1630674852902,0.014125439338386,-0.2967785596847534,-0.303397387266159,0.3830559551715851
1630674852983,0.014125439338386,-0.2976524233818054,-0.303397387266159,0.3830559551715851
1630674853087,0.014125439338386,-0.1934697777032852,-0.2742553353309631,0.3830559551715851
1630674853164,0.014125439338386,-0.086972951889038,-0.2640151083469391,0.3830559551715851
1630674853320,0.014125439338386,-0.0293113738298416,-0.2574138641357422,0.3830559551715851
1630674853417,0.014125439338386,-0.0120213786140084,-0.2454133182764053,0.3830559551715851
1630674853492,0.014125439338386,-0.0112133026123046,-0.2311797887086868,0.3830559551715851
1630674853575,0.014125439338386,-0.0107239112257957,-0.2002622336149215,0.3830559551715851
1630674853684,0.014125439338386,-0.0101406751200556,-0.132042571902275,0.3830559551715851
1630674853767,0.014125439338386,-0.0101406751200556,-0.0715197622776031,0.3830559551715851
1630674853930,0.014125439338386,-0.0101406751200556,-0.0640911906957626,0.3830559551715851
1630674854039,0.014125439338386,-0.0101406751200556,-0.0639441609382629,0.3830559551715851
1630674854116,0.014125439338386,-0.0101406751200556,-0.0639441609382629,0.3830559551715851
1630674854191,0.014125439338386,-0.0101406751200556,-0.0639441609382629,0.3830559551715851
1630674854304,0.014125439338386,-0.0209658853709697,-0.0639441609382629,0.3830559551715851
1630674854402,0.014125439338386,-0.0240930113941431,-0.0639441609382629,0.3830559551715851
1630674854528,0.014125439338386,-0.0268830750137567,-0.0659130662679672,0.3830559551715851
1630674854625,0.014125439338386,-0.0290527623146772,-0.0968853756785392,0.3830559551715851
1630674854718,0.014125439338386,-0.0498979389667511,-0.1555064469575882,0.3830559551715851
1630674854820,0.014125439338386,-0.0887566432356834,-0.1962951868772506,0.3830559551715851
1630674854919,0.014125439338386,-0.1584717333316803,-0.2086127400398254,0.3830559551715851
1630674854997,0.014125439338386,-0.2573068141937256,-0.2105469852685928,0.3830559551715851
1630674855187,0.014125439338386,-0.3389897346496582,-0.2133978307247162,0.3830559551715851
1630674855251,0.014125439338386,-0.3728117942810058,-0.2133978307247162,0.3830559551715851
1630674855328,0.014125439338386,-0.1386992186307907,-0.2133978307247162,0.3830559551715851
1630674855416,0.014125439338386,0.2473648339509964,-0.2133978307247162,0.3830559551715851
1630674855521,0.014125439338386,0.5108659863471985,-0.2133978307247162,0.3830559551715851
1630674855599,0.014125439338386,0.6249434947967529,-0.1422074437141418,0.3830559551715851
1630674855726,0.014125439338386,0.6276488304138184,-0.0629579946398735,0.3830559551715851
1630674855835,1.0212275981903076,0.6281731724739075,-0.0323557034134864,0.3830559551715851
1630674855952,1.0237656831741333,0.6287410855293274,-0.0146764805540442,0.3830559551715851
1630674856039,1.0237656831741333,0.6296099424362183,-0.0078488914296031,0.3830559551715851
1630674856121,1.0237656831741333,0.6317811012268066,0.0005010807653889,0.3830559551715851
1630674856239,1.0237656831741333,0.6322365999221802,0.018537675961852,0.4902354478836059
1630674856351,1.0237656831741333,0.6322365999221802,0.0326122716069221,0.4958703219890594
1630674856445,1.0237656831741333,0.6322365999221802,0.0326122716069221,0.4958703219890594
1630674856557,1.0237656831741333,0.6322365999221802,0.0326122716069221,0.4958703219890594
1630674856637,1.0237656831741333,0.6322557926177979,0.0326122716069221,0.4958703219890594
1630674856750,1.0237656831741333,0.6335119605064392,0.0326122716069221,0.4958703219890594
1630674856828,1.0237656831741333,0.6346273422241211,0.0317171029746532,0.4958703219890594
1630674856953,1.0222842693328855,0.640864372253418,0.0304896440356969,0.4958703219890594
1630674857065,1.0222842693328855,0.6576294898986816,0.0234783980995416,0.4958703219890594
1630674857152,1.0222842693328855,0.6386662125587463,0.0012410402996465,0.4958703219890594
1630674857277,0.9298031330108644,0.4829599559307098,-0.0490138791501522,0.4958703219890594
1630674857345,0.7737160921096802,0.237875148653984,-0.0630822777748107,0.4958703219890594
1630674857448,0.624722957611084,0.1534837037324905,-0.0698228329420089,0.4069926738739013
1630674857586,0.5679125785827637,0.1534837037324905,-0.0957393050193786,0.3243274688720703
1630674857664,0.5446887612342834,0.1534837037324905,-0.1435340493917465,0.2510856091976166
1630674857754,0.5328062176704407,0.1534837037324905,-0.2470429390668869,0.1908865571022033
1630674857868,0.5328062176704407,0.1534837037324905,-0.3630008995532989,0.1908865571022033
1630674857935,0.5328062176704407,0.151689276099205,-0.1141466125845909,0.1908865571022033
1630674858047,0.5328062176704407,0.1466353237628936,-0.0738059133291244,0.1908865571022033
1630674858288,0.6803305149078369,0.206462949514389,0.0477719940245151,0.898946225643158
1630674858393,0.700659990310669,0.3702644407749176,0.1047704368829727,0.9352765679359436
1630674858471,0.7293884754180908,0.5528656840324402,0.1541391015052795,0.9577809572219848
1630674858579,0.7633441686630249,0.6511932611465454,0.1798239946365356,0.9644252061843872
1630674858688,0.7841849327087402,0.6509884595870972,0.1916614025831222,0.9689309000968932
1630674858782,0.7866180539131165,0.6437797546386719,0.2047136127948761,1.0375778675079346
1630674858902,0.7866180539131165,0.6283218860626221,0.2177572697401046,1.1237046718597412
1630674858962,0.7868812680244446,0.6283218860626221,0.2231363952159881,1.1445306539535522
1630674859068,0.7981069087982178,0.6283218860626221,0.2242133468389511,1.1445306539535522
1630674859171,0.8438153266906738,0.6283218860626221,0.2242133468389511,1.1445306539535522
1630674859284,0.8730625510215759,0.6283218860626221,0.2456088662147522,1.1552350521087646
1630674859406,0.881131112575531,0.6283218860626221,0.2736193537712097,1.176308274269104
1630674859504,0.8849289417266846,0.6287446022033691,0.2895570397377014,1.1860522031784058
1630674859588,0.910707414150238,0.6380295753479004,0.287294328212738,1.1860522031784058
1630674859679,0.9337384700775146,0.6405208706855774,0.2838433980941772,1.1860522031784058
1630674859760,0.9248155355453492,0.6405208706855774,0.2809483110904693,1.1860522031784058
1630674859885,0.912425935268402,0.6394692659378052,0.2714931666851043,1.1860522031784058
1630674860006,0.9312773942947388,0.6394692659378052,0.2623893618583679,1.1860522031784058
1630674860103,0.9554399847984314,0.6318894028663635,0.2334343343973159,1.1785486936569214
1630674860202,0.9649487733840942,0.5247644186019897,0.1856071799993515,1.1724900007247925
1630674860304,0.9661205410957336,0.3402471542358398,0.150677889585495,1.1714149713516235
1630674860385,0.966380774974823,0.1237929612398147,0.1229126080870628,1.169853687286377
1630674860466,0.9700238704681396,0.0943426266312599,0.1202605366706848,1.1111682653427124
1630674860635,0.9720379114151,0.1094401329755783,0.1202605366706848,0.9981999397277832
1630674860703,0.9720379114151,0.1116554141044616,0.1202605366706848,0.9080342054367064
1630674860801,0.9720379114151,0.1116554141044616,0.1185987591743469,0.8629604578018188
1630674860919,0.9614527821540833,0.1116554141044616,0.1240986958146095,0.7966844439506531
1630674861004,0.9392392039299012,0.1116554141044616,0.1171373203396797,0.6907596588134766
1630674861090,0.9082102179527284,0.1033732593059539,0.098467618227005,0.5687934160232544
1630674861221,0.8551267385482788,0.0730784088373184,0.0669532418251037,0.4933955669403076
1630674861315,0.7881520390510559,0.0348068922758102,0.0816720724105835,0.520983099937439
1630674861419,0.714888870716095,0.0388235747814178,0.0862952321767807,0.5600295066833496
1630674861505,0.6532084941864014,0.0659796819090843,0.0862952321767807,0.6690052151679993
1630674861619,0.6156742572784424,0.0946057885885238,0.0862952321767807,0.7251080274581909
1630674861735,0.5826327204704285,0.1066209524869918,0.0862952321767807,0.7361627817153931
1630674861833,0.5594237446784973,0.1066209524869918,0.0774222165346145,0.7353463768959045
1630674861918,0.555540144443512,0.1105598732829094,0.0865470692515373,0.7334418892860413
1630674861997,0.555540144443512,0.1774312853813171,0.2202454209327697,0.7270892858505249
1630674862117,0.5508274435997009,0.4223485589027405,0.2202454209327697,0.7251023650169373
1630674862232,0.5189956426620483,0.6505256295204163,0.2202454209327697,0.7251023650169373
1630674862317,0.4592629969120025,0.7619672417640686,0.2191552221775055,0.7251023650169373
1630674862471,0.3964166641235351,0.7875931262969971,0.2125409394502639,0.7251023650169373
1630674862558,0.353289246559143,0.7875931262969971,0.1963331252336502,0.7251023650169373
1630674862637,0.3221222162246704,0.7875931262969971,0.1809621453285217,0.7251023650169373
1630674862737,0.2979359626770019,0.7875931262969971,0.1637613475322723,0.7226154804229736
1630674862829,0.2701408267021179,0.7875931262969971,0.1383935958147049,0.7121170163154602
1630674862903,0.2492755800485611,0.7875931262969971,0.1177135929465293,0.6867433786392212
1630674863067,0.2492755800485611,0.7875931262969971,0.1790580004453659,0.6867433786392212
1630674863153,0.2492755800485611,0.7875931262969971,0.1847092509269714,0.6867433786392212
1630674863234,0.2492755800485611,0.7875931262969971,0.2094578891992569,0.6867433786392212
1630674863321,0.2492755800485611,0.7875931262969971,0.2624463737010956,0.6867433786392212
1630674863442,0.7795525193214417,0.7875931262969971,0.3532874882221222,1.025692105293274
1630674863553,0.7795525193214417,0.7875931262969971,0.4908038973808288,1.025692105293274
1630674863684,0.7795525193214417,0.7875931262969971,0.4908038973808288,1.025692105293274
1630674863782,0.7795525193214417,0.7875931262969971,0.4908038973808288,1.025692105293274
1630674863846,0.7795525193214417,0.7353923916816711,0.4908038973808288,1.025692105293274
1630674863971,0.7795525193214417,0.0641338974237442,0.4908038973808288,1.025692105293274
1630674864050,0.7795525193214417,0.0641338974237442,0.4908038973808288,1.025692105293274
1630674864130,0.7795525193214417,0.0641338974237442,0.4908038973808288,1.025692105293274
1630674864287,0.7795525193214417,0.0641338974237442,0.4908038973808288,1.025692105293274
1630674864406,0.7795525193214417,0.0641338974237442,0.4908038973808288,1.025692105293274
1630674864454,0.7795525193214417,0.0488888286054134,0.4908038973808288,1.025692105293274
1630674864552,0.7795525193214417,0.0337420813739299,0.4908038973808288,1.025692105293274
1630674864650,0.7795525193214417,0.0337420813739299,0.4903984069824219,1.025692105293274
1630674864737,0.7795525193214417,0.0337420813739299,0.4903984069824219,1.025692105293274
1630674864885,0.7795525193214417,0.0337420813739299,0.4903984069824219,1.025692105293274
1630674865003,0.7795525193214417,0.0337420813739299,0.4903984069824219,1.025692105293274
1630674865064,0.7795525193214417,0.0337420813739299,0.4903984069824219,1.025692105293274
1630674865157,0.7795525193214417,0.0337420813739299,0.1508077830076217,1.025692105293274
1630674865284,0.7795525193214417,-0.1947182267904281,0.1694029569625854,1.025692105293274
1630674865334,0.1757691949605941,-0.1775051206350326,0.1971504837274551,0.543488085269928
1630674865527,0.235866516828537,-0.166228175163269,0.2241558581590652,0.5537134408950806
1630674865621,0.2785834968090057,-0.14801125228405,0.2534956932067871,0.5537134408950806
1630674865703,0.2937087714672088,-0.1029881834983825,0.2726330757141113,0.5537134408950806
1630674865799,0.2937087714672088,-0.0782461911439895,0.2765828371047973,0.572821855545044
1630674865876,0.2937087714672088,-0.0646665766835212,0.2765828371047973,0.633640706539154
1630674865985,0.2937087714672088,-0.0601887144148349,0.2849637866020202,0.7329152226448059
1630674866096,0.2937087714672088,-0.0601887144148349,0.2849637866020202,0.8136025071144104
1630674866201,0.2937087714672088,-0.0601887144148349,0.2849637866020202,0.863830029964447
1630674866285,0.2937087714672088,-0.0580210238695144,0.2849637866020202,0.863830029964447
1630674866408,0.2937087714672088,-0.0580210238695144,0.1658680140972137,0.863830029964447
1630674866467,0.2937087714672088,-0.0658604204654693,0.159351110458374,0.863830029964447
1630674866569,0.2937087714672088,-0.0658604204654693,0.159351110458374,0.8448127508163452
1630674866772,0.2937087714672088,-0.0738497674465179,0.159351110458374,0.8443553447723389
1630674866833,0.2809415459632873,-0.0975231826305389,0.159351110458374,0.8443553447723389
1630674866906,0.2410435080528259,-0.1283803731203079,0.159351110458374,0.8443553447723389
1630674867104,0.0321785770356655,-0.1989513784646988,0.159351110458374,0.83460932970047
1630674867165,-0.1057783067226409,-0.2111890465021133,0.1431004106998443,0.8294997811317444
1630674867319,-0.2379744350910186,-0.2344618290662765,0.1109326258301734,0.8280453681945801
1630674867418,-0.3313595950603485,-0.3086731433868408,0.0816170945763588,0.8280453681945801
1630674867518,-0.3313595950603485,-0.3086731433868408,0.0210131630301475,0.8280453681945801
1630674867626,-0.3313595950603485,-0.3086731433868408,0.1000435948371887,0.8280453681945801
1630674867687,-0.3313595950603485,-0.3086731433868408,0.2229324579238891,0.8280453681945801
1630674867801,-0.3313595950603485,-0.3086731433868408,0.2207099795341491,0.8280453681945801
1630674867936,-0.3313595950603485,-0.3086731433868408,0.2207099795341491,0.8280453681945801
1630674868014,-0.3313595950603485,-0.3086731433868408,0.2207099795341491,0.8280453681945801
1630674868138,-0.3313595950603485,-0.3086731433868408,0.2207099795341491,0.8280453681945801
1630674868219,-0.3313595950603485,-0.3086731433868408,0.2207099795341491,0.8280453681945801
1630674868338,-0.3313595950603485,-0.3086731433868408,0.2207099795341491,0.8280453681945801
1630674868429,-0.3313595950603485,-0.3086731433868408,0.2207099795341491,0.8280453681945801
1630674868561,-0.3313595950603485,-0.3086731433868408,0.2207099795341491,0.8280453681945801
1630674868658,-0.3313595950603485,-0.3086731433868408,0.2207099795341491,0.8280453681945801
1630674868738,-0.3313595950603485,-0.3086731433868408,0.2207099795341491,0.8280453681945801
1630674868818,-0.3313595950603485,-0.3086731433868408,0.2207099795341491,0.8280453681945801
1630674868918,-0.3313595950603485,-0.3086731433868408,0.2207099795341491,0.8280453681945801
1630674868998,-0.3313595950603485,-0.3086731433868408,0.2608427703380584,0.8280453681945801
1630674869142,-0.3313595950603485,-0.3086731433868408,0.2317839562892913,0.8280453681945801
1630674869221,0.6209810972213745,0.0939823314547538,-0.0527261048555374,0.4537079632282257
1630674869318,0.621186375617981,0.0956165790557861,-0.0494022294878959,0.4626072347164154
1630674869420,0.621186375617981,0.0956165790557861,-0.0075440178625285,0.4922109544277191
1630674869516,0.621186375617981,0.0956165790557861,0.0502649657428264,0.5568006038665771
1630674869652,0.6228004097938538,0.0956165790557861,0.0970851927995681,0.6120975017547607
1630674869768,0.6314058303833008,0.0956165790557861,0.1120066568255424,0.6480797529220581
1630674869853,0.6487914323806763,0.0956165790557861,0.1204935014247894,0.6725224852561951
1630674869946,0.6677722334861755,0.0994435250759124,0.1236464977264404,0.6725224852561951
1630674870062,0.6899328231811523,0.1026295572519302,0.1245636940002441,0.6725224852561951
1630674870141,0.6899328231811523,0.1026295572519302,0.1245636940002441,0.6725224852561951
1630674870202,0.6899328231811523,0.1026295572519302,0.137925699353218,0.6725224852561951
1630674870351,0.6899328231811523,0.1026295572519302,0.137925699353218,0.6725224852561951
1630674870452,0.6875962018966675,0.0432639978826046,0.0628182962536811,0.6645867228507996
1630674870553,0.6503556966781616,-0.0527746006846427,-0.015746658667922,0.6643632650375366
1630674870669,0.532677948474884,-0.1930763721466064,-0.0379161611199379,0.6643632650375366
1630674870756,0.4024195373058319,-0.3636895716190338,-0.0478051602840423,0.6643632650375366
1630674870836,0.3477654457092285,-0.5097880959510803,-0.0508096516132354,0.6643632650375366
1630674870978,0.3320587575435638,-0.5341192483901978,-0.0515266396105289,0.6643632650375366
1630674871084,0.3294925987720489,-0.5347214937210083,-0.0533997416496276,0.6643632650375366
1630674871178,0.3199564516544342,-0.5347214937210083,-0.0554107017815113,0.6444217562675476
1630674871241,0.3199564516544342,-0.5347214937210083,-0.0891156420111656,0.6444217562675476
1630674871366,0.3199564516544342,-0.5347214937210083,-0.0539477206766605,0.6444217562675476
1630674871447,0.3199564516544342,-0.5347214937210083,-0.0739577487111091,0.6444217562675476
1630674871588,0.3199564516544342,-0.5347214937210083,-0.1320587247610092,0.6444217562675476
1630674871704,0.8737229704856873,0.6484426259994507,-0.1264589726924896,0.6444217562675476
1630674871753,0.876275360584259,0.6484426259994507,-0.1731597632169723,0.9006434679031372
1630674871897,0.8900356888771057,0.6486564874649048,-0.1198325529694557,0.9015610814094543
1630674871989,0.8928006291389465,0.6535705924034119,-0.0821939185261726,0.9038761854171752
1630674872083,0.8947668075561523,0.6593517661094666,-0.045143149793148,0.9191606640815736
1630674872186,0.8968687057495117,0.6612687706947327,-0.0251829270273447,0.956026256084442
1630674872304,0.8968993425369263,0.6626526117324829,-0.0119645129889249,1.0043485164642334
1630674872400,0.8968993425369263,0.6626526117324829,0.0151103632524609,1.045723795890808
1630674872467,0.8968993425369263,0.6626526117324829,0.0348853170871734,1.0551886558532717
1630674872567,0.8968993425369263,0.6626526117324829,0.0612068250775337,1.0551886558532717
1630674872683,0.8968993425369263,0.6626526117324829,0.099874310195446,1.0551886558532717
1630674872815,0.903593897819519,0.6626526117324829,0.126723438501358,1.0740963220596311
1630674872930,0.8819316625595093,0.6607893109321594,0.1368539929389953,1.1012518405914309
1630674873022,0.8298615217208862,0.5716612339019775,0.1368539929389953,1.115123629570007
1630674873068,0.7695253491401672,0.4646570682525635,0.1368539929389953,1.1006731986999512
1630674873214,0.7394890189170837,0.4275603890419006,0.1368539929389953,1.055139183998108
1630674873276,0.7216230034828186,0.4169559478759765,0.1352927386760711,1.001988172531128
1630674873386,0.7069882750511169,0.3947070240974426,0.1332315504550933,0.9711141586303712
1630674873526,0.7012127637863159,0.3378900289535522,0.1362490803003311,0.9546318650245668
1630674873610,0.6966657638549805,0.2504863142967224,0.1295323073863983,0.9486289024353028
1630674873701,0.6832398176193237,0.2026073485612869,0.1120304614305496,0.941580295562744
1630674873794,0.6656635999679565,0.2011564224958419,0.1079798266291618,0.9331966638565063
1630674873885,0.6462085843086243,0.1936620771884918,0.1026240661740303,0.9241196513175964
1630674874009,0.6336924433708191,0.1936620771884918,0.0883898809552192,0.904952347278595
1630674874119,0.6336924433708191,0.1936620771884918,0.0720173195004463,0.8614937663078308
1630674874210,0.6336924433708191,0.1936620771884918,0.0580602101981639,0.8276928663253784
1630674874313,0.6336924433708191,0.1936620771884918,0.0433438532054424,0.8168971538543701
1630674874404,0.6323623657226562,0.1936620771884918,-0.0170539990067482,0.8000845909118652
1630674874532,0.5608444213867188,0.1936620771884918,-0.1086221411824226,0.7438633441925049
1630674874680,0.5608444213867188,0.1936620771884918,-0.155441403388977,0.7438633441925049
1630674874765,0.5608444213867188,0.1936620771884918,0.0099630197510123,0.7438633441925049
1630674874827,0.5608444213867188,0.1936620771884918,0.0230758991092443,0.7438633441925049
1630674874956,0.5608444213867188,0.1936620771884918,0.013552107848227,0.7438633441925049
1630674875004,0.5608444213867188,0.1936620771884918,-0.0233237445354461,0.7438633441925049
1630674875106,0.6641107201576233,0.0572309345006942,-0.0233237445354461,0.7438633441925049
1630674875214,0.6641107201576233,0.0572309345006942,-0.0233237445354461,0.7438633441925049
1630674875331,0.6641107201576233,0.0662119463086128,-0.0233237445354461,0.7438633441925049
1630674875427,0.6641107201576233,0.0662119463086128,-0.0233237445354461,0.7438633441925049
1630674875546,0.6641107201576233,0.0662119463086128,-0.0233237445354461,0.7438633441925049
1630674875624,0.6641107201576233,0.0662119463086128,-0.0233237445354461,0.7438633441925049
1630674875715,0.6641107201576233,0.0662119463086128,-0.0233237445354461,0.7438633441925049
1630674875847,0.6641107201576233,0.0662119463086128,-0.0233237445354461,0.7438633441925049
1630674875947,0.6641107201576233,0.0662119463086128,-0.0233237445354461,0.7438633441925049
1630674876055,0.6641107201576233,0.0662119463086128,-0.0233237445354461,0.7438633441925049
1630674876169,0.6641107201576233,0.0662119463086128,-0.0233237445354461,0.7438633441925049
1630674876200,0.6641107201576233,0.0662119463086128,-0.0580662563443183,0.7438633441925049
1630674876336,0.6641107201576233,0.0640943497419357,-0.0580662563443183,0.7438633441925049
1630674876472,0.6641107201576233,0.0593856759369373,-0.0580662563443183,0.7438633441925049
1630674876587,0.6641107201576233,0.0533492267131805,-0.0580662563443183,0.7438633441925049
1630674876664,0.6641107201576233,-0.0127125736325979,-0.0580662563443183,0.7438633441925049
1630674876735,0.6641107201576233,-0.0968620926141738,-0.0871392339468002,0.7438633441925049
1630674876834,0.5267648100852966,-0.3827390074729919,-0.0860902145504951,0.8310924768447876
1630674876917,0.5387844443321228,-0.3306303024291992,-0.0858180373907089,0.8318016529083252
1630674877086,0.539772629737854,-0.3003478944301605,-0.0777302682399749,0.8318016529083252
1630674877148,0.5406440496444702,-0.2648257613182068,-0.0680287405848503,0.8318016529083252
1630674877308,0.5434640645980835,-0.1956515163183212,-0.0644540414214134,0.8318016529083252
1630674877386,0.5461888313293457,-0.1562753766775131,-0.0644540414214134,0.8318016529083252
1630674877441,0.5492556691169739,-0.1417922079563141,-0.0644540414214134,0.8318016529083252
1630674877519,0.5527752041816711,-0.1357434391975402,-0.0644540414214134,0.8318016529083252
1630674877663,0.5585497617721558,-0.1334155350923538,-0.0644540414214134,0.8318016529083252
1630674877774,0.5694292783737183,-0.1334155350923538,-0.0451513119041919,0.8385492563247681
1630674877858,0.604722797870636,-0.1334155350923538,0.0267363078892231,0.8585970401763916
1630674877968,0.6428830623626709,-0.155502513051033,0.1045802384614944,0.8783146739006042
1630674878070,0.6428830623626709,-0.1641045361757278,0.224564790725708,0.8607986569404602
1630674878168,0.6428830623626709,-0.0840126276016235,0.2223563343286514,0.852264404296875
1630674878318,0.6295326352119446,0.1089721396565437,0.2120700180530548,0.8371361494064331
1630674878385,0.5646142363548279,0.3721452951431274,0.2105052471160888,0.7943270206451416
1630674878467,0.4437536299228668,0.543916642665863,0.2105052471160888,0.7214246988296509
1630674878577,0.4045717120170593,0.5893892049789429,0.2105052471160888,0.6612350344657898
1630674878672,0.3922635614871979,0.5893892049789429,0.2105052471160888,0.6330099701881409
1630674878792,0.3852869570255279,0.5887017250061035,0.2105052471160888,0.6278749108314514
1630674878884,0.3809645473957062,0.5872394442558289,0.2105052471160888,0.6209924221038818
1630674878985,0.3809645473957062,0.5868358016014099,0.2105052471160888,0.6058873534202576
1630674879102,0.3788560032844543,0.5881500244140625,0.2100286334753036,0.5935811996459961
1630674879219,0.3788560032844543,0.5872119665145874,0.2052949517965316,0.5935811996459961
1630674879280,0.3788560032844543,0.5873620510101318,0.2362263351678848,0.5935811996459961
1630674879360,0.3788560032844543,0.5873620510101318,0.22771717607975,0.5935811996459961
1630674879499,0.3788560032844543,0.5873620510101318,0.2052010744810104,0.5935811996459961
1630674879603,0.3788560032844543,0.5873620510101318,-0.0855709314346313,0.5935811996459961
1630674879702,0.6685961484909058,0.5915294289588928,0.048630591481924,0.3012555837631225
1630674879820,0.7109742760658264,0.5960446000099182,0.1726680546998977,0.3551162779331207
1630674879885,0.7178832292556763,0.5982214212417603,0.2103256583213806,0.3595236837863922
1630674879979,0.7178832292556763,0.6008654832839966,0.2113703191280365,0.3595236837863922
1630674880121,0.7178832292556763,0.5345965027809143,0.2113703191280365,0.3595236837863922
1630674880221,0.7178832292556763,0.4530735909938812,0.21419757604599,0.3595236837863922
1630674880287,0.7178832292556763,0.4732967019081116,0.2530890107154846,0.3801582753658294
1630674880425,0.7178832292556763,0.5242493748664856,0.2989266216754913,0.4322722852230072
1630674880522,0.7178832292556763,0.5316784381866455,0.3267396688461303,0.4443537592887878
1630674880609,0.7178832292556763,0.5316784381866455,0.3282058537006378,0.4450569450855255
1630674880739,0.7205633521080017,0.5316784381866455,0.3282058537006378,0.450009822845459
1630674880820,0.7205633521080017,0.5316784381866455,0.3282058537006378,0.4632147252559662
1630674880899,0.7096762657165527,0.5316784381866455,0.3282058537006378,0.5161234140396118
1630674881012,0.6883001327514648,0.5316784381866455,0.3279881179332733,0.5840744376182556
1630674881103,0.627794086933136,0.5316784381866455,0.3218437433242798,0.6441211700439453
1630674881204,0.5827062726020813,0.5316784381866455,0.3028229773044586,0.689521074295044
1630674881346,0.5847298502922058,0.5316784381866455,0.3010056912899017,0.7224575281143188
1630674881453,0.5546938180923462,0.5316784381866455,0.2872090637683868,0.7497228384017944
1630674881519,0.5426867604255676,0.5347028970718384,0.2756385803222656,0.7805312871932983
1630674881615,0.5394251346588135,0.536492645740509,0.2803964018821716,0.7968931794166565
1630674881696,0.5316840410232544,0.536492645740509,0.2901888489723205,0.7968931794166565
1630674881791,0.5323657393455505,0.5302655100822449,0.2992059588432312,0.7968931794166565
1630674881970,0.5660440325737,0.4723678529262543,0.3079923391342163,0.7994070053100586
1630674882053,0.6012693047523499,0.3302098214626312,0.3138995170593261,0.7942397594451904
1630674882152,0.6412318348884583,0.186750054359436,0.2734544575214386,0.7955358624458313
1630674882232,0.6803237199783325,0.1432127654552459,0.1994956731796264,0.8062121272087097
1630674882307,0.691310703754425,0.1501802951097488,0.1481911689043045,0.8173015117645264
1630674882383,0.6923219561576843,0.1501802951097488,0.1426211297512054,0.8436290621757507
1630674882551,0.6923219561576843,0.1428339779376983,0.1426211297512054,0.8723558187484741
1630674882641,0.6890302300453186,0.1453466415405273,0.1426211297512054,0.8726507425308228
1630674882748,0.6865277290344238,0.1604210138320922,0.1426211297512054,0.8726507425308228
1630674882843,0.6828187704086304,0.1928887516260147,0.1426211297512054,0.8720507025718689
1630674882960,0.6796706318855286,0.2564572691917419,0.1263921856880188,1.0989378690719604
1630674883006,0.6795973777770996,0.2825784087181091,0.103932686150074,1.0977866649627686
1630674883203,0.6795973777770996,0.2990743219852447,0.0973743945360183,1.0977866649627686
1630674883259,0.6795973777770996,0.3134564459323883,0.0882309824228286,1.0977866649627686
1630674883357,0.6795973777770996,0.3197486698627472,0.0657936260104179,1.0977866649627686
1630674883456,0.6795973777770996,0.3218092918395996,0.0115640824660658,1.0977866649627686
1630674883566,0.6758330464363098,0.3218092918395996,-0.0364343523979187,1.0977866649627686
1630674883618,0.6710185408592224,0.3218092918395996,-0.0709677189588546,1.0977866649627686
1630674883759,0.6710185408592224,0.3218092918395996,-0.0709677189588546,1.0977866649627686
1630674883852,0.6710185408592224,0.3218092918395996,-0.0709677189588546,1.0977866649627686
1630674883987,0.6710185408592224,0.3218092918395996,-0.0709677189588546,1.0976413488388062
1630674884084,0.6710185408592224,0.3218092918395996,-0.0709677189588546,1.0876144170761108
1630674884136,0.5195204019546509,0.3218092918395996,-0.0337388217449188,1.08074152469635
1630674884219,0.5747721195220947,0.3286851644515991,0.0319334790110588,1.08074152469635
1630674884398,0.6476911902427673,0.3685837388038635,0.0780229717493057,1.08074152469635
1630674884503,0.7023413181304932,0.4083497524261474,0.0805569216609001,0.2541118562221527
1630674884586,0.7328015565872192,0.3593838512897491,0.0805569216609001,0.2781614661216736
1630674884671,0.7523891925811768,0.2731661796569824,0.0863051638007164,0.302219033241272
1630674884787,0.7714090943336487,0.2708981931209564,0.0912159830331802,0.3326274454593658
1630674884868,0.784236490726471,0.2650478184223175,0.0912159830331802,0.4155219793319702
1630674884986,0.7941792607307434,0.262678861618042,0.0912159830331802,0.4849441051483154
1630674885071,0.8000755906105042,0.2562471628189087,0.0912159830331802,0.5473166108131409
1630674885187,0.8081186413764954,0.2757994830608368,0.0912159830331802,0.6255669593811035
1630674885280,0.8200615644454956,0.3374166488647461,0.0912159830331802,0.6758195757865906
1630674885371,0.8368965983390808,0.3867115080356598,0.0790860950946807,0.6826426386833191
1630674885453,0.8540493845939636,0.383544385433197,0.0642457529902458,0.6898002624511719
1630674885594,0.8757171630859375,0.3717583417892456,0.0371982119977474,0.6898002624511719
1630674885682,0.8598624467849731,0.3569465577602386,0.0147248394787311,0.6898002624511719
1630674885771,0.8470919728279114,0.3418747782707214,0.0091352248564362,0.6876028776168823
1630674885887,0.8317979574203491,0.3365898728370666,-0.0014736697776243,0.6841645836830139
1630674885986,0.831580400466919,0.3361588716506958,-0.0548409819602966,0.6825450658798218
1630674886087,0.831580400466919,0.3284759223461151,-0.1026878282427787,0.679367184638977
1630674886188,0.8314911127090454,0.3114848434925079,-0.127647653222084,0.679367184638977
1630674886319,0.8314911127090454,0.3112244307994842,-0.1497973948717117,0.679367184638977
1630674886421,0.8314911127090454,0.3093556463718414,-0.1653292030096054,0.679367184638977
1630674886482,0.8314911127090454,0.3087077140808105,-0.1800928562879562,0.679367184638977
1630674886571,0.8314911127090454,0.3087077140808105,-0.1997327357530594,0.6788070201873779
1630674886721,0.8314911127090454,0.3087077140808105,-0.2136934995651245,0.6788070201873779
1630674886805,0.8314911127090454,0.3087077140808105,-0.2136934995651245,0.6788070201873779
1630674886914,0.8314911127090454,0.3087077140808105,-0.2136934995651245,0.6788070201873779
1630674887001,0.8314911127090454,0.3087077140808105,-0.2136934995651245,0.6788070201873779
1630674887103,0.8314911127090454,0.3087077140808105,-0.2136934995651245,0.6788070201873779
1630674887221,0.8314911127090454,0.0842706784605979,-0.05897843465209,0.6788070201873779
1630674887313,0.4109717905521393,0.1230121403932571,0.0327425897121429,0.7462659478187561
1630674887454,0.4109717905521393,0.1562893688678741,0.0934695750474929,0.7462659478187561
1630674887514,0.4109717905521393,0.1626063883304596,0.1068802177906036,0.7462659478187561
1630674887652,0.4109717905521393,0.1626063883304596,0.1068802177906036,0.7463663816452026
1630674887718,0.4216068089008331,0.1626063883304596,0.1068802177906036,0.780140221118927
1630674887838,0.4216068089008331,0.1626063883304596,0.1068802177906036,0.780140221118927
1630674887915,0.4216068089008331,0.1626063883304596,0.1068802177906036,0.780140221118927
1630674888026,0.4216068089008331,0.1626063883304596,0.1068802177906036,0.780140221118927
1630674888151,0.4216068089008331,0.1626063883304596,0.1068802177906036,0.780140221118927
1630674888214,0.4216068089008331,0.1626063883304596,0.1068802177906036,0.780140221118927
1630674888301,0.4216068089008331,0.1626063883304596,0.1068802177906036,0.780140221118927
1630674888405,0.4216068089008331,0.1559376716613769,0.1005096212029457,0.780140221118927
1630674888503,0.4190007746219635,0.1341916620731353,0.0977728515863418,0.7511990070343018
1630674888657,0.3943302631378174,0.1081828027963638,0.0924458503723144,0.7377054691314697
1630674888752,0.3653146922588348,0.0780767202377319,0.0761211141943931,0.712556004524231
1630674888836,0.325072318315506,0.0494287237524986,0.0571052692830562,0.6439077258110046
1630674888943,0.325072318315506,0.0494287237524986,0.0571052692830562,0.6439077258110046
1630674889004,0.325072318315506,0.0494287237524986,0.0571052692830562,0.6439077258110046
1630674889098,0.325072318315506,0.0494287237524986,0.0571052692830562,0.6439077258110046
1630674889286,0.325072318315506,0.0494287237524986,0.0571052692830562,0.6439077258110046
1630674889369,0.325072318315506,0.0494287237524986,0.0571052692830562,0.6439077258110046
1630674889485,0.325072318315506,0.0494287237524986,-0.1179968938231468,0.6439077258110046
1630674889531,0.2145901173353195,-0.3167467713356018,-0.1091776713728904,0.6439077258110046
1630674889654,0.2837521135807037,-0.1955526769161224,-0.0987836569547653,0.390513002872467
1630674889730,0.3507891893386841,-0.1256514191627502,-0.0869954898953437,0.5162938237190247
1630674889871,0.3808278739452362,-0.1150439232587814,-0.0768424645066261,0.594264566898346
1630674889952,0.415462851524353,-0.1141094639897346,-0.076651930809021,0.6466845273971558
1630674890040,0.4487352967262268,-0.1141094639897346,-0.076651930809021,0.6642857193946838
1630674890171,0.4757232666015625,-0.1135458350181579,-0.076651930809021,0.678545355796814
1630674890232,0.5121836066246033,-0.1052483543753624,-0.0729905739426612,0.6822596788406372
1630674890334,0.5121836066246033,-0.0701154023408889,-0.0729905739426612,0.6822596788406372
1630674890503,0.5121836066246033,-0.0701154023408889,-0.0729905739426612,0.6822596788406372
1630674890565,0.5121836066246033,-0.0701154023408889,-0.0729905739426612,0.6822596788406372
1630674890651,0.5121836066246033,-0.0701154023408889,-0.1599123924970626,0.6822596788406372
1630674890751,0.5028096437454224,-0.0701154023408889,-0.2054182738065719,0.6822596788406372
1630674890854,0.501887857913971,-0.0701154023408889,-0.2610364854335785,0.6822596788406372
1630674890952,0.501887857913971,-0.0701154023408889,-0.2896970808506012,0.6822596788406372
1630674891070,0.501887857913971,-0.0718628317117691,-0.2966203391551971,0.6822596788406372
1630674891152,0.4852789938449859,-0.0775298103690147,-0.2980921268463135,0.6822354793548584
1630674891268,0.4483442008495331,-0.0990081280469894,-0.3386536836624145,0.6620365381240845
1630674891363,0.3655395209789276,-0.187609389424324,-0.3918898403644562,0.6187146902084351
1630674891469,0.3655395209789276,-0.2868130505084991,-0.3918898403644562,0.6187146902084351
1630674891538,0.3655395209789276,0.0577727854251861,-0.3918898403644562,0.6187146902084351
1630674891739,0.3655395209789276,0.0678844600915908,-0.3918898403644562,0.6187146902084351
1630674891787,0.3655395209789276,0.0745052173733711,-0.3918898403644562,0.6187146902084351
1630674891867,0.3655395209789276,0.013242932036519,-0.3918898403644562,0.6187146902084351
1630674892003,0.2914074659347534,0.0482093282043933,0.0029255426488816,0.6568167209625244
1630674892081,0.3693495094776153,0.0933857485651969,0.0713233426213264,0.6622654795646667
1630674892171,0.4416991174221039,0.1139834821224212,0.1001302972435951,0.6743699908256531
1630674892307,0.4813421368598938,0.128369852900505,0.10508543998003,0.6743699908256531
1630674892386,0.4813421368598938,0.1518774628639221,0.1140550225973129,0.6743699908256531
1630674892513,0.4813421368598938,0.1876304447650909,0.1166664883494377,0.6743699908256531
1630674892591,0.4813421368598938,0.308904081583023,0.2773433327674866,0.6743699908256531
1630674892684,0.4813421368598938,0.4793639481067657,0.2773433327674866,0.6743699908256531
1630674892778,0.4813421368598938,0.6109572052955627,0.2773433327674866,0.6743699908256531
1630674892909,0.4813421368598938,0.6597278714179993,0.2773433327674866,0.6743699908256531
1630674893021,0.4813421368598938,0.6597278714179993,0.2773433327674866,0.6743699908256531
1630674893081,0.4813421368598938,0.6597278714179993,0.2773433327674866,0.6743699908256531
1630674893167,0.4293513894081116,0.6568563580513,0.2757212221622467,0.5197992324829102
1630674893293,0.3936545252799988,0.6568563580513,0.2754178643226623,0.391957938671112
1630674893372,0.3607546091079712,0.6568563580513,0.2754178643226623,0.3287456631660461
1630674893535,0.3607546091079712,0.6568563580513,0.3067458570003509,0.3287456631660461
1630674893626,0.3607546091079712,0.6558082103729248,0.3067458570003509,0.3287456631660461
1630674893701,0.3607546091079712,0.6501903533935547,0.2972058951854706,0.3287456631660461
1630674893818,0.3607546091079712,0.6498572826385498,0.2763057351112366,0.3287456631660461
1630674893893,0.4241130948066711,0.6498572826385498,0.259149432182312,0.8792176842689514
1630674893970,0.4614560008049011,0.6498572826385498,0.259149432182312,0.8803133368492126
1630674894152,0.4878252148628235,0.6498572826385498,0.0172009970992803,0.8852971792221069
1630674894223,0.5063161849975586,0.6496292948722839,0.0172009970992803,0.8958020210266113
1630674894368,0.5063161849975586,0.6288490891456604,0.0301043391227722,0.8958020210266113
1630674894400,0.5063161849975586,0.5433965921401978,0.0301043391227722,0.8958020210266113
1630674894493,0.5063161849975586,0.36902716755867,0.0301043391227722,0.8958020210266113
1630674894603,0.5063161849975586,-0.0538792200386524,0.0301043391227722,0.8958020210266113
1630674894750,0.5063161849975586,-0.0538792200386524,0.0301043391227722,0.8958020210266113
1630674894865,0.5063161849975586,-0.0686783418059349,0.0301043391227722,0.8958020210266113
1630674894912,0.5063161849975586,-0.1010797247290611,0.0301043391227722,0.8958020210266113
1630674895006,0.5063161849975586,-0.135520190000534,-0.0325383804738521,0.8958020210266113
1630674895118,0.4234480857849121,-0.1452415436506271,-0.1623220145702362,0.7821329236030579
1630674895185,0.36328125,-0.1540004760026931,-0.2549856603145599,0.7220259308815002
1630674895376,0.3325987756252289,-0.1572894901037216,-0.3022243082523346,0.6731366515159607
1630674895421,0.3325987756252289,-0.1572894901037216,-0.3418467938899994,0.6731366515159607
1630674895569,0.3325987756252289,0.022386148571968,-0.3418467938899994,0.6731366515159607
1630674895631,0.3325987756252289,0.2243066728115081,-0.3418467938899994,0.6731366515159607
1630674895733,0.3325987756252289,0.3717986643314361,-0.3418467938899994,0.6731366515159607
1630674895825,0.3325987756252289,0.4422673285007477,-0.3418467938899994,0.6731366515159607
1630674895971,0.3325987756252289,0.4453331232070923,-0.3418467938899994,0.6731366515159607
1630674896052,0.3325987756252289,0.4403257966041565,-0.3418467938899994,0.6731366515159607
1630674896158,0.3325987756252289,0.4408954381942749,-0.3418467938899994,0.6731366515159607
1630674896235,0.3325987756252289,0.4408954381942749,-0.3418467938899994,0.6731366515159607
1630674896316,0.3325987756252289,0.4408954381942749,-0.3418467938899994,0.6731366515159607
1630674896419,0.3325987756252289,0.4408954381942749,-0.3418467938899994,0.6731366515159607
1630674896575,0.3325987756252289,0.4408954381942749,-0.3418467938899994,0.6731366515159607
1630674896654,0.3325987756252289,0.4408954381942749,-0.3418467938899994,0.6731366515159607
1630674896724,0.3325987756252289,0.4408954381942749,-0.3418467938899994,0.6731366515159607
1630674896871,0.3325987756252289,0.4408954381942749,-0.3418467938899994,0.6731366515159607
1630674896963,0.3325987756252289,0.4408954381942749,-0.3418467938899994,0.6731366515159607
1630674897040,0.3325987756252289,0.4313728213310241,-0.3418467938899994,0.6731366515159607
1630674897187,0.3325987756252289,0.4175248742103576,-0.3418467938899994,0.6731366515159607
1630674897265,0.3325987756252289,0.4031670093536377,-0.3418467938899994,0.6731366515159607
1630674897370,0.3325987756252289,0.3723405301570892,-0.3418467938899994,0.6731366515159607
1630674897471,0.3325987756252289,0.2496028691530227,-0.3418467938899994,0.6731366515159607
1630674897586,0.3325987756252289,0.1635531038045883,-0.3418467938899994,0.6731366515159607
1630674897666,0.3325987756252289,0.0315626226365566,-0.3418467938899994,0.6731366515159607
1630674897803,0.3325987756252289,-0.004778048954904,0.4516772627830505,0.6731366515159607
1630674897903,0.5072635412216187,0.0027495308313518,0.4568043351173401,1.2917600870132446
1630674897951,0.5072635412216187,0.0027495308313518,0.4568043351173401,1.2917600870132446
1630674898049,0.5072635412216187,0.0027495308313518,0.4568043351173401,1.2917600870132446
1630674898168,0.5072635412216187,0.0027495308313518,0.4568043351173401,1.2917600870132446
1630674898259,0.5072635412216187,0.0027495308313518,0.4568043351173401,1.2917600870132446
1630674898421,0.5072635412216187,0.0027495308313518,0.4568043351173401,1.2917600870132446
1630674898512,0.5072635412216187,0.0027495308313518,0.4568043351173401,1.2917600870132446
1630674898575,0.5072635412216187,0.0027495308313518,0.4568043351173401,1.2917600870132446
1630674898670,0.5072635412216187,0.0027495308313518,0.4568043351173401,1.2917600870132446
1630674898791,0.5072635412216187,0.0027495308313518,0.4568043351173401,1.2917600870132446
1630674898864,0.5072635412216187,0.0027495308313518,0.4568043351173401,1.2917600870132446
1630674899016,0.5072635412216187,0.0027495308313518,0.3956475257873535,1.2917600870132446
1630674899104,0.5072635412216187,0.0027495308313518,0.2721293866634369,1.2917600870132446
1630674899207,0.5072635412216187,0.0027495308313518,0.220556691288948,1.2917600870132446
1630674899272,0.5072635412216187,0.0027495308313518,0.1726501584053039,1.2917600870132446
1630674899397,0.5072635412216187,0.0027495308313518,0.1324803531169891,1.2917600870132446
1630674899480,0.5072635412216187,0.0027495308313518,0.0977253541350364,1.2917600870132446
1630674899596,0.5072635412216187,0.0027495308313518,-0.0556204803287982,0.4466958343982696
1630674899719,0.18079274892807,0.0027495308313518,-0.0369046069681644,0.4860579073429107
1630674899784,0.1944090276956558,-0.0470968782901763,-0.0349904634058475,0.5834704041481018
1630674899932,0.2112294137477874,0.0204119030386209,-0.0344636403024196,0.6956159472465515
1630674900013,0.2112294137477874,0.0868955105543136,-0.0344636403024196,0.6956159472465515
1630674900075,0.2112294137477874,0.0868955105543136,-0.0344636403024196,0.6956159472465515
1630674900251,0.2112294137477874,0.0868955105543136,-0.0344636403024196,0.6956159472465515
1630674900314,0.2112294137477874,0.0868955105543136,-0.0344636403024196,0.6956159472465515
1630674900394,0.2112294137477874,0.0868955105543136,-0.0344636403024196,0.6956159472465515
1630674900520,0.2112294137477874,0.0868955105543136,-0.0344636403024196,0.6956159472465515
1630674900587,0.2112294137477874,0.0868955105543136,-0.0344636403024196,0.6956159472465515
1630674900686,0.2112294137477874,0.0868955105543136,-0.0934844389557838,0.6956159472465515
1630674900819,0.2112294137477874,0.0868955105543136,-0.1479133069515228,0.6671521663665771
1630674900919,0.1175941750407219,0.0868955105543136,-0.2162439972162246,0.6145218014717102
1630674901042,0.0423691496253013,0.0854687690734863,-0.2823784053325653,0.5705180168151855
1630674901203,0.0423691496253013,0.0843468531966209,-0.2823784053325653,0.5705180168151855
1630674901305,0.0423691496253013,0.0843468531966209,-0.2823784053325653,0.5705180168151855
1630674901438,0.0423691496253013,0.0843468531966209,-0.2823784053325653,0.5705180168151855
1630674901551,0.0423691496253013,0.0843468531966209,-0.2823784053325653,0.5705180168151855
1630674901609,0.0423691496253013,0.0843468531966209,-0.2823784053325653,0.5705180168151855
1630674901752,0.0423691496253013,0.7034174203872681,-0.2823784053325653,0.5705180168151855
1630674901833,0.9906798005104064,0.7034174203872681,0.3458232283592224,1.3458207845687866
1630674901899,0.9926356077194214,0.7034174203872681,0.3510546088218689,1.3493282794952393
1630674902051,1.0001718997955322,0.7034174203872681,0.3530795574188232,1.3496800661087036
1630674902137,1.014267086982727,0.7034174203872681,0.3530795574188232,1.354920506477356
1630674902236,1.0274630784988403,0.7034174203872681,0.3530795574188232,1.3591283559799194
1630674902334,1.0348368883132937,0.7034174203872681,0.3530795574188232,1.3591283559799194
1630674902434,1.036821365356445,0.7034174203872681,0.3530795574188232,1.3591283559799194
1630674902543,1.036821365356445,0.7034174203872681,0.3530795574188232,1.3591283559799194
1630674902704,1.036821365356445,0.7034174203872681,0.3530795574188232,1.3591283559799194
1630674902793,1.036821365356445,0.7034174203872681,0.3530795574188232,1.3591283559799194
1630674902858,1.036821365356445,0.7034174203872681,0.3530795574188232,1.3591283559799194
1630674902927,1.036821365356445,0.7034174203872681,0.3530795574188232,1.3591283559799194
1630674903053,1.0187031030654907,0.7034174203872681,0.3348426520824432,1.2597270011901855
1630674903149,0.9803722500801086,0.628368616104126,0.3074509799480438,1.104546070098877
1630674903289,0.8709621429443359,0.3894458711147308,0.280684620141983,0.9550700783729552
1630674903388,0.7017530202865601,0.0139373252168297,0.1696766018867492,0.8812951445579529
1630674903485,0.5429525375366211,-0.1710702925920486,-0.0276745762676,0.8507245779037476
1630674903568,0.4814136922359466,-0.1808862537145614,-0.2516568303108215,0.816405713558197
1630674903647,0.4814136922359466,-0.1967193931341171,-0.2516568303108215,0.816405713558197
1630674903725,0.4814136922359466,-0.2534394264221191,-0.2516568303108215,0.816405713558197
1630674903934,0.4814136922359466,-0.2534394264221191,-0.2516568303108215,0.816405713558197
1630674904001,0.4814136922359466,-0.2534394264221191,-0.2516568303108215,0.816405713558197
1630674904069,0.4814136922359466,-0.2534394264221191,0.1515709310770034,0.816405713558197
1630674904147,0.4814136922359466,-0.2534394264221191,0.5021308064460754,0.816405713558197
1630674904234,0.4964781701564789,-0.2534394264221191,0.7825857400894165,0.816405713558197
1630674904354,0.564956545829773,-0.2534394264221191,0.8979162573814392,0.816405713558197
1630674904487,0.6191125512123108,-0.2534394264221191,0.8987979292869568,0.816405713558197
1630674904601,0.6373372673988342,-0.2534394264221191,0.8987979292869568,0.816405713558197
1630674904672,0.6373804807662964,-0.2534394264221191,0.8987979292869568,0.816405713558197
1630674904771,0.6382094025611877,-0.2534394264221191,0.8987979292869568,0.816405713558197
1630674904871,0.6382094025611877,-0.2534394264221191,0.8987979292869568,0.816405713558197
1630674904968,0.6382094025611877,-0.2534394264221191,0.8987979292869568,0.816405713558197
1630674905084,0.6382094025611877,-0.2534394264221191,0.8987979292869568,0.816405713558197
1630674905204,0.6497412919998169,-0.2534394264221191,0.8987979292869568,0.816405713558197
1630674905266,0.7192235589027405,-0.2534394264221191,0.8987979292869568,0.816405713558197
1630674905401,0.7914257049560547,-0.2534394264221191,0.8987979292869568,0.816405713558197
1630674905465,0.8347850441932678,-0.2534394264221191,0.8987979292869568,0.816405713558197
1630674905577,0.9107037782669068,-0.2534394264221191,0.8987979292869568,0.816405713558197
1630674905705,1.0440683364868164,-0.2534394264221191,0.8987979292869568,0.816405713558197
1630674905784,1.122484564781189,-0.2534394264221191,0.8987979292869568,0.816405713558197
1630674905906,1.1302672624588013,-0.2534394264221191,0.8578764200210571,0.816405713558197
1630674905992,1.1302672624588013,-0.2534394264221191,0.6845752000808716,0.816405713558197
1630674906085,1.1302672624588013,-0.2534394264221191,0.4356488287448883,0.816405713558197
1630674906180,1.1302672624588013,-0.2534394264221191,0.2502311468124389,0.816405713558197
1630674906316,1.1302672624588013,-0.2534394264221191,0.2129711061716079,0.816405713558197
1630674906419,1.1303837299346924,-0.2534394264221191,0.2054990828037262,0.816405713558197
1630674906502,1.1317861080169678,-0.2534394264221191,0.2036128342151641,0.6176612973213196
1630674906602,1.1319832801818848,-0.2534394264221191,0.2093232721090316,0.6541263461112976
1630674906721,1.1319832801818848,-0.2534394264221191,0.2151701599359512,0.6942784786224365
1630674906768,1.1319832801818848,-0.2534394264221191,0.216406375169754,0.6974554061889648
1630674906955,1.1319832801818848,-0.2534394264221191,0.2450601458549499,0.6974554061889648
1630674907018,1.113450050354004,-0.2534394264221191,0.1786703020334243,0.6974554061889648
1630674907125,1.0823931694030762,-0.2534394264221191,0.1556211113929748,0.6974554061889648
1630674907202,1.059088945388794,-0.2534394264221191,0.1362815201282501,0.6974554061889648
1630674907290,1.0077509880065918,-0.2534394264221191,0.1293044984340667,0.6974554061889648
1630674907404,0.8743872046470642,-0.2534394264221191,0.1293044984340667,0.6974554061889648
1630674907536,0.7571902275085449,-0.2534394264221191,0.1293044984340667,0.6974554061889648
1630674907638,0.706589937210083,-0.2534394264221191,0.1281702667474746,0.6974554061889648
1630674907715,0.6973814964294434,-0.2534394264221191,0.1085463464260101,0.6626279950141907
1630674907822,0.6960207223892212,-0.2534394264221191,0.0878051817417144,0.6109816431999207
1630674907919,0.6955258250236511,-0.2534394264221191,0.0690671578049659,0.5320374965667725
1630674908002,0.6935616731643677,-0.2534394264221191,0.0477401129901409,0.5320374965667725
1630674908161,0.8956911563873291,-0.2534394264221191,0.0477401129901409,0.5320374965667725
1630674908243,0.9065871834754944,-0.2534394264221191,0.0477401129901409,0.5320374965667725
1630674908338,0.9065871834754944,-0.2534394264221191,0.0477401129901409,0.5320374965667725
1630674908419,0.9065871834754944,-0.2534394264221191,0.0477401129901409,0.5320374965667725
1630674908552,0.9065871834754944,-0.2534394264221191,0.0477401129901409,0.5320374965667725
1630674908598,0.9065871834754944,-0.2534394264221191,0.0477401129901409,0.5320374965667725
1630674908755,0.9065871834754944,-0.2534394264221191,0.0477401129901409,0.5320374965667725
1630674908853,0.9065871834754944,-0.2534394264221191,0.0477401129901409,0.5320374965667725
1630674908946,0.9065871834754944,-0.2534394264221191,0.0477401129901409,0.5320374965667725
1630674909022,0.9065871834754944,-0.2534394264221191,0.0477401129901409,0.5320374965667725
1630674909118,0.9065871834754944,-0.2534394264221191,0.0477401129901409,0.5320374965667725
1630674909204,0.9065871834754944,-0.2534394264221191,0.0477401129901409,0.5320374965667725
1630674909341,0.9065871834754944,-0.2534394264221191,0.0477401129901409,0.5320374965667725
1630674909470,0.9065871834754944,-0.2534394264221191,0.0477401129901409,0.5320374965667725
1630674909536,0.9065871834754944,-0.2534394264221191,0.0477401129901409,0.5320374965667725
1630674909637,0.9065871834754944,-0.2534394264221191,0.0477401129901409,0.5320374965667725
1630674909771,0.9065871834754944,-0.2534394264221191,0.0477401129901409,0.5320374965667725
1630674909835,0.9065871834754944,-0.2534394264221191,0.0477401129901409,0.5320374965667725
1630674909972,0.7969991564750671,-0.0412702001631259,0.0963167622685432,0.5320374965667725
1630674910059,0.8307355046272278,-0.027984807267785,0.2328592091798782,0.3299694657325744
1630674910158,0.8367223143577576,-0.0004247086180839,0.2940424382686615,0.3315123915672302
1630674910242,0.8367223143577576,-0.0004247086180839,0.2940424382686615,0.3315123915672302
1630674910355,0.8367223143577576,-0.0004247086180839,0.2940424382686615,0.3315123915672302
1630674910434,0.8367223143577576,-0.0004247086180839,0.2940424382686615,0.3315123915672302
1630674910589,0.8367223143577576,-0.0004247086180839,0.2940424382686615,0.3315123915672302
1630674910686,0.8367223143577576,-0.0004247086180839,0.2940424382686615,0.3315123915672302
1630674910769,0.8367223143577576,-0.0004247086180839,0.2940424382686615,0.3315123915672302
1630674910868,0.8367223143577576,-0.0004247086180839,0.2940424382686615,0.3315123915672302
1630674910945,0.8367223143577576,-0.0004247086180839,0.2940424382686615,0.3315123915672302
1630674911040,0.8367223143577576,-0.0004247086180839,0.2940424382686615,0.3315123915672302
1630674911196,0.7651621699333191,-0.101633571088314,0.2940424382686615,0.3315123915672302
1630674911338,0.7024297118186951,-0.1203536093235015,0.2940424382686615,0.3236711323261261
1630674911419,0.7024297118186951,-0.1203536093235015,0.2940424382686615,0.3236711323261261
1630674911499,0.7024297118186951,-0.1203536093235015,0.2940424382686615,0.3236711323261261
1630674911567,0.7024297118186951,-0.1203536093235015,0.2940424382686615,0.3236711323261261
1630674911673,0.7024297118186951,-0.1203536093235015,0.2940424382686615,0.3236711323261261
1630674911818,0.7024297118186951,-0.1203536093235015,0.2940424382686615,0.3236711323261261
1630674911895,0.7024297118186951,-0.1203536093235015,0.2940424382686615,0.3236711323261261
1630674912010,0.7024297118186951,-0.1203536093235015,0.2940424382686615,0.3236711323261261
1630674912121,0.7024297118186951,-0.1203536093235015,0.2940424382686615,0.3236711323261261
1630674912166,0.7024297118186951,-0.1203536093235015,0.2940424382686615,0.3236711323261261
1630674912302,0.7024297118186951,-0.1203536093235015,0.2940424382686615,0.3236711323261261
1630674912401,0.7024297118186951,-0.1203536093235015,0.2940424382686615,0.3236711323261261
1630674912519,0.7024297118186951,-0.1203536093235015,0.2940424382686615,0.3236711323261261
1630674912607,0.7024297118186951,-0.1203536093235015,0.2940424382686615,0.3236711323261261
1630674912684,0.7024297118186951,-0.1203536093235015,0.2940424382686615,0.3236711323261261
1630674912791,0.7024297118186951,-0.1203536093235015,0.2940424382686615,0.3236711323261261
1630674912885,0.7024297118186951,-0.1203536093235015,0.2940424382686615,0.3236711323261261
1630674913010,0.7024297118186951,-0.1203536093235015,0.2940424382686615,0.3236711323261261
1630674913138,0.7024297118186951,-0.3297224938869476,-0.1134951412677764,0.3236711323261261
1630674913251,0.5898092985153198,-0.3134661614894867,-0.056656040251255,0.3346621692180633
1630674913284,0.5898092985153198,-0.2627009451389313,-0.056656040251255,0.3346621692180633
1630674913385,0.5898092985153198,-0.2627009451389313,-0.056656040251255,0.3346621692180633
1630674913468,0.5898092985153198,-0.2627009451389313,-0.056656040251255,0.3346621692180633
1630674913650,0.5898092985153198,-0.2627009451389313,-0.056656040251255,0.3346621692180633
1630674913829,0.5898092985153198,-0.2627009451389313,-0.056656040251255,0.3346621692180633
1630674914004,0.5898092985153198,-0.2627009451389313,-0.056656040251255,0.3346621692180633
1630674914103,0.5898092985153198,-0.2627009451389313,-0.056656040251255,0.3346621692180633
1630674914237,0.5898092985153198,-0.2627009451389313,-0.056656040251255,0.3346621692180633
1630674914353,0.5898092985153198,-0.2938401699066162,-0.0666487962007522,0.3346621692180633
1630674914438,0.5898092985153198,-0.3608902096748352,-0.0666487962007522,0.3346621692180633
1630674914518,0.5898092985153198,0.1654672622680664,-0.0666487962007522,0.3346621692180633
1630674914638,0.5898092985153198,0.2351305782794952,-0.0666487962007522,0.3346621692180633
1630674914715,0.5898092985153198,0.2647848427295685,-0.0666487962007522,0.3346621692180633
1630674914837,0.5898092985153198,0.25074502825737,-0.2186880111694336,0.3346621692180633
1630674914940,0.4297254979610443,0.25074502825737,-0.1840960830450058,0.3346621692180633
1630674915038,0.4310206174850464,0.25074502825737,-0.1537799835205078,0.8486381769180298
1630674915153,0.4310206174850464,0.2694627344608307,-0.1174285262823104,0.9233883619308472
1630674915238,0.4406854212284088,0.2694627344608307,-0.1036632880568504,0.9451661705970764
1630674915332,0.4900023937225342,0.2694627344608307,-0.1036632880568504,0.9610227942466736
1630674915451,0.6790091395378113,0.2694627344608307,-0.0952238589525222,0.9757433533668518
1630674915560,0.9295755624771118,0.2694627344608307,-0.0717037245631218,1.0007035732269287
1630674915668,1.1182217597961426,0.2694627344608307,0.0298145189881324,1.0217896699905396
1630674915753,1.216230392456055,0.2694627344608307,0.1567540019750595,1.026665210723877
1630674915871,1.233423948287964,0.2694627344608307,0.2351214587688446,1.026665210723877
1630674915936,1.233423948287964,0.2694627344608307,0.2351214587688446,1.026665210723877
1630674916087,1.233423948287964,0.2448678165674209,0.2351214587688446,1.026665210723877
1630674916170,1.227256417274475,0.2055810838937759,0.2351214587688446,1.026665210723877
1630674916270,1.225371241569519,0.1371776461601257,0.2351214587688446,1.026665210723877
1630674916352,1.225371241569519,0.1371776461601257,0.2351214587688446,1.026665210723877
1630674916419,1.225371241569519,0.1371776461601257,0.2351214587688446,1.026665210723877
1630674916513,1.225371241569519,0.1371776461601257,0.2351214587688446,1.016149878501892
1630674916692,1.225371241569519,0.1371776461601257,0.2345288842916488,0.9722505807876588
1630674916772,1.225371241569519,0.1371776461601257,0.2289758324623108,0.9243886470794678
1630674916870,1.225371241569519,0.1371776461601257,0.2167121022939682,0.8841671347618103
1630674916936,1.225371241569519,0.1371776461601257,0.1984991878271103,0.8621671199798584
1630674917052,1.225371241569519,0.1371776461601257,0.1984991878271103,0.8621671199798584
1630674917166,1.225371241569519,0.1371776461601257,0.1984991878271103,0.8621671199798584
1630674917285,1.225371241569519,0.1371776461601257,0.1984991878271103,0.8621671199798584
1630674917365,1.225371241569519,0.1371776461601257,0.1984991878271103,0.8621671199798584
1630674917501,1.225371241569519,0.0708915144205093,0.1984991878271103,0.8621671199798584
