timestamp,TP9,AF7,AF8,TP10
1631290337187,0.34737628698349,0.3616088032722473,-0.0500235632061958,0.2842972576618194
1631290337239,0.34737628698349,0.3616088032722473,-0.0500235632061958,0.2842972576618194
1631290337341,0.34737628698349,0.3616088032722473,-0.0500235632061958,0.2842972576618194
1631290337426,0.34737628698349,0.3616088032722473,-0.0500235632061958,0.2842972576618194
1631290337648,0.34737628698349,0.3616088032722473,-0.0500235632061958,0.2842972576618194
1631290337738,0.34737628698349,0.3616088032722473,-0.0500235632061958,0.2842972576618194
1631290337806,0.34737628698349,0.3616088032722473,-0.0500235632061958,0.2842972576618194
1631290337892,0.34737628698349,0.3616088032722473,-0.0500235632061958,0.2842972576618194
1631290337974,0.34737628698349,0.3616088032722473,-0.0500235632061958,0.2842972576618194
1631290338075,0.34737628698349,0.3616088032722473,-0.0500235632061958,0.2842972576618194
1631290338201,0.34737628698349,0.3616088032722473,0.0315858349204063,0.2842972576618194
1631290338328,0.34737628698349,0.3616088032722473,0.0315858349204063,0.2842972576618194
1631290338403,0.34737628698349,0.3616088032722473,0.0322084985673427,0.2842972576618194
1631290338495,0.34737628698349,0.3616088032722473,0.0392651297152042,0.2842972576618194
1631290338662,0.34737628698349,0.4078001379966736,0.0392651297152042,0.2842972576618194
1631290338721,0.34737628698349,0.4083005487918854,0.0392651297152042,0.2842972576618194
1631290338874,0.34737628698349,0.4083005487918854,0.0392651297152042,0.2842972576618194
1631290339008,0.34737628698349,0.4083005487918854,0.0392651297152042,0.2842972576618194
1631290339047,0.34737628698349,0.4552513062953949,0.0392651297152042,0.2842972576618194
1631290339244,0.34737628698349,0.2513028085231781,0.0392651297152042,0.2842972576618194
1631290339259,0.34737628698349,0.378539890050888,0.0392651297152042,0.2842972576618194
1631290339286,0.34737628698349,0.2456145882606506,0.0392651297152042,0.2842972576618194
1631290339459,0.34737628698349,0.2519735097885132,-0.0235478933900594,0.2842972576618194
1631290339481,0.34737628698349,0.2545941770076751,-0.1166818067431449,0.2842972576618194
1631290339731,0.34737628698349,0.2549603283405304,-0.1651264429092407,0.2842972576618194
1631290339892,0.34737628698349,0.2624344527721405,-0.1651264429092407,0.2842972576618194
1631290339892,0.34737628698349,0.2780216336250305,-0.1651264429092407,0.2842972576618194
1631290339968,0.34737628698349,0.3149301409721374,-0.1651264429092407,0.2842972576618194
1631290340033,0.34737628698349,0.4247929751873016,-0.1651264429092407,0.2842972576618194
1631290340111,0.34737628698349,0.5086939334869385,0.0107475984841585,0.2842972576618194
1631290340256,0.34737628698349,0.519745409488678,0.0488714911043643,0.2842972576618194
1631290340361,0.34737628698349,0.519745409488678,0.0808209329843521,0.2842972576618194
1631290340443,0.34737628698349,0.519745409488678,0.0906518846750259,0.2842972576618194
1631290340575,0.34737628698349,0.519745409488678,0.1060099005699157,0.2842972576618194
1631290340607,0.34737628698349,0.5134906768798828,0.12921242415905,0.2842972576618194
1631290340694,0.34737628698349,0.5016461610794067,0.1368497014045715,0.2842972576618194
1631290340827,0.34737628698349,0.5016461610794067,0.1424628049135208,0.2842972576618194
1631290340942,0.34737628698349,0.5016461610794067,0.1424628049135208,0.2842972576618194
1631290341126,0.34737628698349,0.5016461610794067,0.1424628049135208,0.2842972576618194
1631290341161,0.34737628698349,0.5015506744384766,0.1424628049135208,0.2842972576618194
1631290341232,0.34737628698349,0.4997532069683075,0.1424628049135208,0.2842972576618194
1631290341340,0.34737628698349,0.4980897903442383,0.1424628049135208,0.2842972576618194
1631290341644,0.34737628698349,0.4824077785015106,0.1424628049135208,0.2842972576618194
1631290341686,0.34737628698349,0.4613969922065735,0.142372190952301,0.2842972576618194
1631290341824,0.34737628698349,0.4339379370212555,0.1052264496684074,0.2842972576618194
1631290341859,0.34737628698349,0.2962868809700012,0.0353357940912246,0.2842972576618194
1631290342043,0.34737628698349,0.0467064119875431,0.3170008361339569,0.2842972576618194
1631290342157,0.34737628698349,0.0467064119875431,0.4128676950931549,0.2842972576618194
1631290342273,0.34737628698349,0.0467064119875431,0.4996882677078247,0.2842972576618194
1631290342389,0.34737628698349,0.0467064119875431,0.5321097373962402,0.2842972576618194
1631290342441,0.34737628698349,0.0467064119875431,0.5377699732780457,0.2842972576618194
1631290342461,0.34737628698349,0.0467064119875431,0.5381152629852295,0.2842972576618194
1631290342579,0.34737628698349,0.0467064119875431,0.5423377752304077,0.2842972576618194
1631290342751,0.34737628698349,0.0467064119875431,0.5668420791625977,0.2842972576618194
1631290342802,0.34737628698349,0.0467064119875431,0.5899636745452881,0.2842972576618194
1631290342934,0.34737628698349,0.0467064119875431,0.5899636745452881,0.2842972576618194
1631290343002,0.34737628698349,0.0467064119875431,0.5899636745452881,0.2842972576618194
1631290343031,0.34737628698349,0.0467064119875431,0.5899636745452881,0.6826955080032349
1631290343063,0.34737628698349,-0.0525804497301578,0.5899636745452881,0.6842398643493652
1631290343209,0.34737628698349,-0.0288621187210083,0.5899636745452881,0.6877803206443787
1631290343274,0.7608391642570496,-0.0152771109715104,0.5899636745452881,0.6915326714515686
1631290343359,0.7716779112815857,0.0133050084114074,0.5647156238555908,0.6966477632522583
1631290343457,0.7777246832847595,0.0326101444661617,0.5521692633628845,0.7024044394493103
1631290343560,0.7974146008491516,0.0451014712452888,0.5457651019096375,0.7082527279853821
1631290343642,0.8171005845069885,0.0472648404538631,0.5273350477218628,0.7087849378585815
1631290343741,0.8259534239768982,0.0495801568031311,0.511566698551178,0.7087849378585815
1631290343979,0.8268957138061523,0.0495801568031311,0.5034301280975342,0.7087849378585815
1631290344001,0.8268957138061523,0.0495801568031311,0.4740152060985565,0.7124384641647339
1631290344151,0.8268957138061523,0.0495801568031311,0.406837910413742,0.845644474029541
1631290344151,0.8268957138061523,0.0495801568031311,0.4464397132396698,0.7679668664932251
1631290344276,0.8268957138061523,0.0445353612303733,0.3930002450942993,0.8604698777198792
1631290344340,0.8268957138061523,0.0395604521036148,0.4042723476886749,0.8344985842704773
1631290344525,0.7235183119773865,0.0224605724215507,0.4043747186660766,0.8318719863891602
1631290344557,0.6361096501350403,0.0057309558615088,0.4043747186660766,0.8318719863891602
1631290344645,0.5927371382713318,-0.0193669348955154,0.4043747186660766,0.8318719863891602
1631290344810,0.5808860063552856,-0.0177675578743219,0.4043747186660766,0.8318719863891602
1631290344919,0.5679395198822021,0.0314586795866489,0.4178069233894348,0.8318719863891602
1631290344965,0.5367913842201233,0.1252159625291824,0.4718134701251983,0.8318719863891602
1631290345153,0.5194095373153687,0.2697272598743438,0.5432825684547424,0.8318719863891602
1631290345185,0.507803738117218,0.3689543604850769,0.5900605320930481,0.8318719863891602
1631290345258,0.4708945155143738,0.3815374672412872,0.6096712946891785,0.8318719863891602
1631290345423,0.4369790256023407,0.3839509189128876,0.5986922979354858,0.8318719863891602
1631290345503,0.4116235971450805,0.3839509189128876,0.5617550015449524,0.8318719863891602
1631290345565,0.3934922516345978,0.3839509189128876,0.5296544432640076,0.8318719863891602
1631290345780,0.3934922516345978,0.3839509189128876,0.5296544432640076,0.8236513733863831
1631290345801,0.3934922516345978,0.3839509189128876,0.5296544432640076,0.8236513733863831
1631290345917,0.3934922516345978,0.3839509189128876,0.5280150771141052,0.8236513733863831
1631290345978,0.3934922516345978,0.3839509189128876,0.5218024849891663,0.8236513733863831
1631290346111,0.3934922516345978,0.3839509189128876,0.5174568295478821,0.8236513733863831
1631290346136,0.3934922516345978,0.383757084608078,0.5164844393730164,0.8236513733863831
1631290346428,0.3934922516345978,0.3829807639122009,0.5164844393730164,0.8236513733863831
1631290346468,0.3934922516345978,0.3829807639122009,0.5164844393730164,0.8236513733863831
1631290346657,0.3934922516345978,0.36922287940979,0.512486457824707,0.8236513733863831
1631290346671,0.3934922516345978,0.36922287940979,0.512486457824707,0.8236513733863831
1631290346724,0.3934922516345978,0.36922287940979,0.5051388740539551,0.8236513733863831
1631290346809,0.3934922516345978,0.36922287940979,0.4583280384540558,0.8236513733863831
1631290346895,0.3934922516345978,0.36922287940979,0.4583280384540558,0.8236513733863831
1631290347018,0.3934922516345978,0.36922287940979,0.4583280384540558,0.8236513733863831
1631290347189,0.3934922516345978,0.36922287940979,0.4583280384540558,0.8236513733863831
1631290347224,0.3934922516345978,0.36922287940979,0.4583280384540558,0.8236513733863831
1631290347291,0.3934922516345978,0.36922287940979,0.4583280384540558,0.8236513733863831
1631290347391,0.3934922516345978,0.8083901405334473,0.3856253027915954,0.8236513733863831
1631290347543,0.3934922516345978,0.8083901405334473,0.3858750164508819,0.8236513733863831
1631290347642,0.3934922516345978,0.8083901405334473,0.3862659335136413,0.8236513733863831
1631290347728,0.3934922516345978,0.8083901405334473,0.3890735507011413,0.8236513733863831
1631290347835,0.3934922516345978,0.8083901405334473,0.3890735507011413,0.8236513733863831
1631290347898,0.3934922516345978,0.8132524490356445,0.3890735507011413,0.8236513733863831
1631290347990,0.3934922516345978,0.8448331356048584,0.3890735507011413,0.8236513733863831
1631290348184,0.3934922516345978,0.8606903553009033,0.3890735507011413,0.8236513733863831
1631290348218,0.3934922516345978,0.8875530362129211,0.3890735507011413,0.8236513733863831
1631290348325,0.3934922516345978,0.9024930000305176,0.3890735507011413,0.8236513733863831
1631290348407,0.3934922516345978,0.9155848622322084,0.3890735507011413,0.8236513733863831
1631290348556,0.3934922516345978,0.9184386134147644,0.3890735507011413,0.8236513733863831
1631290348617,0.3934922516345978,0.911255657672882,0.6919012069702148,0.8236513733863831
1631290348857,0.3934922516345978,0.9059317111968994,0.6755843758583069,0.8236513733863831
1631290348940,0.3934922516345978,0.9058743119239808,0.6671754121780396,0.8236513733863831
1631290349086,0.3934922516345978,0.9058743119239808,0.6671754121780396,0.8236513733863831
1631290349087,0.3934922516345978,0.9058743119239808,0.6671754121780396,0.8236513733863831
1631290349115,0.3934922516345978,0.9058743119239808,0.6671754121780396,0.8236513733863831
1631290349306,0.3934922516345978,0.9057944416999816,0.6671754121780396,0.8236513733863831
1631290349427,0.3934922516345978,0.9057944416999816,0.6671754121780396,0.8236513733863831
1631290349464,0.3934922516345978,0.9057944416999816,0.6671754121780396,0.8236513733863831
1631290349627,0.3934922516345978,0.8705077767372131,0.6671754121780396,0.8236513733863831
1631290349676,0.3934922516345978,0.8382983207702637,0.6671754121780396,0.8236513733863831
1631290349747,0.3934922516345978,0.8301152586936951,0.6671754121780396,0.8236513733863831
1631290349854,0.3934922516345978,0.8301152586936951,0.6671754121780396,0.8236513733863831
1631290350056,0.3934922516345978,0.8301152586936951,0.6671754121780396,0.8236513733863831
1631290350117,0.3934922516345978,0.8301152586936951,0.6671754121780396,0.8236513733863831
1631290350189,0.3934922516345978,0.8301152586936951,0.6671754121780396,0.8236513733863831
1631290350346,0.3934922516345978,0.8301152586936951,0.6671754121780396,0.8236513733863831
1631290350385,0.3934922516345978,0.8301152586936951,0.6671754121780396,0.8236513733863831
1631290350557,0.3934922516345978,0.8301152586936951,0.6671754121780396,0.8236513733863831
1631290350641,0.3934922516345978,0.8301152586936951,0.6671754121780396,0.8236513733863831
1631290350781,0.3934922516345978,0.8301152586936951,0.6671754121780396,0.8236513733863831
1631290350830,0.3934922516345978,-0.2197398990392685,0.6671754121780396,0.8236513733863831
1631290350868,0.3934922516345978,-0.1963761150836944,0.6671754121780396,0.8236513733863831
1631290350989,0.3934922516345978,-0.1957077234983444,0.6671754121780396,0.8236513733863831
1631290351124,0.3934922516345978,-0.1945575326681137,0.6671754121780396,0.8236513733863831
1631290351391,0.3934922516345978,-0.1915067285299301,0.6671754121780396,0.8236513733863831
1631290351624,0.3934922516345978,-0.1840433627367019,0.6671754121780396,0.8236513733863831
1631290351689,0.3934922516345978,-0.1793892085552215,0.6671754121780396,0.8236513733863831
1631290351693,0.3934922516345978,-0.1824086159467697,0.6671754121780396,0.8236513733863831
1631290351741,0.3934922516345978,-0.1784648299217224,0.6671754121780396,0.8236513733863831
1631290351813,0.3934922516345978,-0.1782795488834381,0.6671754121780396,0.8236513733863831
1631290351879,0.3934922516345978,-0.1654903143644333,0.6671754121780396,0.8236513733863831
1631290352024,0.3934922516345978,-0.1275997906923294,0.6671754121780396,0.8236513733863831
1631290352059,0.3934922516345978,-0.0952428355813026,-0.2348746061325073,0.8236513733863831
1631290352189,0.3934922516345978,-0.0661118477582931,-0.2348746061325073,0.8236513733863831
1631290352237,0.3934922516345978,-0.0425059609115123,-0.2051069587469101,0.8236513733863831
1631290352282,0.3934922516345978,-0.0535552501678466,-0.1251699328422546,0.8236513733863831
1631290352464,0.3934922516345978,-0.1077558323740959,-0.0655848011374473,0.8236513733863831
1631290352561,1.0368435382843018,-0.1273513734340667,-0.041751179844141,0.8236513733863831
1631290352641,1.0674009323120115,-0.1214334145188331,-0.0400281399488449,1.1640331745147705
1631290352725,1.0674009323120115,-0.0821071714162826,-0.0400281399488449,1.1640331745147705
1631290352879,1.0674009323120115,-0.0370444357395172,-0.0400281399488449,1.1640331745147705
1631290352880,1.0674009323120115,0.04692218080163,-0.0400281399488449,1.1640331745147705
1631290353023,1.0674009323120115,0.0864228755235672,-0.0400281399488449,1.1640331745147705
1631290353084,1.0674009323120115,0.0864228755235672,-0.0400281399488449,1.1640331745147705
1631290353406,1.0674009323120115,0.088226281106472,-0.0463255234062671,1.1640331745147705
1631290353454,1.0674009323120115,0.0948927327990531,-0.0412882529199123,1.1640331745147705
1631290353495,1.0674009323120115,0.1015415489673614,-0.0186969265341758,1.1791188716888428
1631290353526,1.0674009323120115,0.1091357469558715,0.0128136565908789,1.235263466835022
1631290353674,1.0674009323120115,0.1259666681289672,0.0328563600778579,1.2718784809112549
1631290353710,1.062296986579895,0.1356837451457977,0.0479872040450573,1.2742482423782349
1631290353888,1.033660650253296,0.1434778422117233,0.0690881982445716,1.2712193727493286
1631290353951,0.9998043775558472,0.1444238424301147,0.0801577046513557,1.2623913288116455
1631290354000,0.9379514455795288,0.1481606513261795,0.0698770731687545,1.2348217964172363
1631290354072,0.823415219783783,0.1524019390344619,0.0352124236524105,1.20591139793396
1631290354207,0.7444748878479004,0.1540488451719284,0.0058902236633002,1.180686116218567
1631290354351,0.7166786789894104,0.1540488451719284,0.0196267943829298,1.1832479238510132
1631290354438,0.7145089507102966,0.1451958268880844,0.0363183543086051,1.1827516555786133
1631290354525,0.7155407071113586,0.1100104004144668,0.0533810295164585,1.1810168027877808
1631290354659,0.7065123915672302,0.0627778396010398,0.0555273443460464,1.18369460105896
1631290354762,0.6983635425567627,0.0572550110518932,0.0491302348673343,1.18369460105896
1631290354864,0.7064518332481384,0.0609556175768375,0.0458754487335681,1.1850279569625854
1631290355006,0.715736448764801,0.0668748691678047,0.0458754487335681,1.1903365850448608
1631290355103,0.7258251309394836,0.0659899190068245,0.0458754487335681,1.1915225982666016
1631290355190,0.7429113984107971,0.026485625654459,0.0458754487335681,1.1950654983520508
1631290355258,0.7447863221168518,-0.0112001579254865,0.0491867177188396,1.1719064712524414
1631290355340,0.7447863221168518,-0.0321150533854961,0.071323812007904,1.1309243440628052
1631290355563,0.7447863221168518,-0.0531689040362834,0.0576112121343612,1.0803786516189575
1631290355599,0.735785186290741,-0.0585289299488067,0.0497529096901416,1.0535787343978882
1631290355643,0.735785186290741,-0.0212348811328411,0.0503204725682735,1.050492286682129
1631290355756,0.735785186290741,-0.0380841344594955,0.0535703971982002,1.0489742755889893
1631290355862,0.7181429266929626,-0.0526452176272869,0.0671684518456459,1.037505269050598
1631290355924,0.6876171827316284,-0.0571333691477775,0.1136060133576393,1.0353256464004517
1631290356047,0.6496588587760925,-0.0571333691477775,0.2249228060245514,1.0353256464004517
1631290356178,0.6397637724876404,-0.0571333691477775,0.3185083568096161,1.018718719482422
1631290356303,0.6397637724876404,-0.0577931180596351,0.3841269910335541,0.9971964955329896
1631290356331,0.6397637724876404,-0.0577931180596351,0.4190309643745422,0.9943094849586488
1631290356420,0.6397637724876404,-0.0662804767489433,0.4255779683589935,0.99370676279068
1631290356560,0.6397637724876404,0.3010241687297821,0.4263116419315338,0.99370676279068
1631290356656,0.6397637724876404,0.3010241687297821,0.4294265806674957,0.99370676279068
1631290356743,0.6397637724876404,0.3010241687297821,0.4341270923614502,0.99370676279068
1631290356881,0.6397637724876404,0.3010241687297821,0.4341270923614502,0.99370676279068
1631290356985,0.6397637724876404,0.2995366156101227,0.4275327026844024,0.99370676279068
1631290357052,0.6397637724876404,0.2963469326496124,0.4168988764286041,0.99370676279068
1631290357146,0.6397637724876404,0.2898224592208862,0.4043449461460113,0.99370676279068
1631290357297,0.6397637724876404,0.2907961308956146,0.4050025641918182,0.99370676279068
1631290357392,0.6397637724876404,0.2926981747150421,0.4050025641918182,0.99370676279068
1631290357466,0.3216921687126159,0.2928675413131714,0.4050025641918182,0.1318701207637787
1631290357525,0.3723545372486114,0.2933282554149627,0.4050025641918182,0.315947562456131
1631290357762,0.394355446100235,0.2933282554149627,0.4050025641918182,0.453412264585495
1631290357827,0.394355446100235,0.2933282554149627,0.3808016777038574,0.5013236403465271
1631290358098,0.4199285805225372,0.2933282554149627,0.3027071058750152,0.5149341225624084
1631290358126,0.561103343963623,0.2933282554149627,0.1475550085306167,0.5312937498092651
1631290358210,0.6826514601707458,0.0404878482222557,0.0024706544354557,0.5472342371940613
1631290358245,0.7271248698234558,0.0006555458530783,-0.0470192320644855,0.5804095268249512
1631290358292,0.7271248698234558,0.0103674866259098,-0.0600175075232982,0.5804095268249512
1631290358390,0.7271248698234558,0.0192050281912088,-0.079189509153366,0.5804095268249512
1631290358615,0.7271248698234558,0.0314991176128387,-0.0816015601158142,0.5804095268249512
1631290358721,0.7271248698234558,0.0691355392336845,-0.0855083912611007,0.5804095268249512
1631290358744,0.7271248698234558,0.1991408765316009,-0.0997185111045837,0.5804095268249512
1631290358875,0.7271248698234558,0.2724723517894745,-0.1006030887365341,0.5804095268249512
1631290358925,0.7271248698234558,0.2888448238372803,-0.107714332640171,0.5804095268249512
1631290358991,0.7271248698234558,0.2888448238372803,-0.1004623025655746,0.5804095268249512
1631290359134,0.7271248698234558,0.2865259051322937,-0.081861637532711,0.5804095268249512
1631290359240,0.7176117300987244,0.2839303910732269,-0.0254540145397186,0.5748554468154907
1631290359312,0.7116583585739136,0.2815606296062469,-0.0125448331236839,0.5341346859931946
1631290359365,0.7116583585739136,0.2815606296062469,-0.0230204313993453,0.5341346859931946
1631290359477,0.7116583585739136,0.2820124924182892,-0.0230204313993453,0.5341346859931946
1631290359592,0.7116583585739136,0.2833247780799866,-0.0230204313993453,0.5341346859931946
1631290359690,0.7116583585739136,0.2845015823841095,-0.0230204313993453,0.5341346859931946
1631290359976,0.7116583585739136,0.2848895192146301,-0.0230204313993453,0.5341346859931946
1631290360069,0.2967621088027954,0.2836521565914154,-0.0230204313993453,0.1217359900474548
1631290360144,0.2986132204532623,0.280162364244461,-0.0230204313993453,0.1659939438104629
1631290360186,0.3146162629127502,0.2791481018066406,-0.0230204313993453,0.2388800680637359
1631290360238,0.322437435388565,0.2531176805496216,-0.0230204313993453,0.3404679000377655
1631290360308,0.322437435388565,0.2184794545173645,-0.0520867854356765,0.4486677348613739
1631290360616,0.327213317155838,0.1954120546579361,-0.1191808357834816,0.5405349135398865
1631290360669,0.327213317155838,0.16542948782444,-0.114384613931179,0.6069687604904175
1631290360777,0.327213317155838,0.1281007230281829,-0.063445970416069,0.6337462663650513
1631290360910,0.327213317155838,0.1325960755348205,-0.0092599028721451,0.6337462663650513
1631290361014,0.327213317155838,0.1413744688034057,0.0104087647050619,0.6337462663650513
1631290361110,0.3438833355903625,0.1680871844291687,-0.01710139028728,0.6337462663650513
1631290361162,0.3825099468231201,0.1955732405185699,-0.0544242188334465,0.6337462663650513
1631290361222,0.4267558455467224,0.209674596786499,-0.070370614528656,0.6337462663650513
1631290361262,0.4144342243671417,0.2113181352615356,-0.0657190009951591,0.6337462663650513
1631290361341,0.3879175186157226,0.2103403508663177,-0.0435878857970237,0.6367003917694092
1631290361442,0.3827475905418396,0.2096428722143173,-0.0271231513470411,0.6450666785240173
1631290361696,0.3917758464813232,0.2096428722143173,-0.0195431001484394,0.6528342962265015
1631290361774,0.4059580564498901,0.2109117060899734,-0.0065219067037105,0.6576371788978577
1631290361918,0.4062595069408417,0.2109117060899734,-0.0065219067037105,0.6576371788978577
1631290362029,0.4141362309455871,0.2109117060899734,-0.0065219067037105,0.6467313170433044
1631290362081,0.4181551337242126,0.2109117060899734,-0.0065219067037105,0.6215834617614746
1631290362224,0.4214719831943512,0.1965658664703369,-0.0065219067037105,0.5785501599311829
1631290362258,0.4593104720115661,0.1504648327827453,-0.0065219067037105,0.5361167192459106
1631290362326,0.4867449700832367,0.1686893999576568,0.008848181925714,0.5006287097930908
1631290362377,0.4973151981830597,0.1823406964540481,-0.018827399238944,0.4883174300193786
1631290362461,0.4973465800285339,0.1847960948944091,-0.0599300116300582,0.4617709815502167
1631290362524,0.4924963116645813,0.1685549467802047,-0.0626298263669014,0.5001440644264221
1631290362652,0.4822350442409515,0.1447158306837082,-0.0695830732583999,0.5805670619010925
1631290362743,0.4600555300712585,0.1393463015556335,-0.0731106922030448,0.620328962802887
1631290362858,0.423012375831604,0.1393463015556335,-0.0731106922030448,0.6135653257369995
1631290362947,0.4092453718185425,0.1393463015556335,-0.0785012170672416,0.617307186126709
1631290363040,0.4044233560562134,0.1393463015556335,-0.0972867831587791,0.6216221451759338
1631290363103,0.4044233560562134,0.1403260827064514,-0.1120490878820419,0.6291313767433167
1631290363326,0.4044233560562134,0.1372663378715515,-0.118611991405487,0.6313715577125549
1631290363386,0.4044233560562134,0.1380625069141388,-0.1208932921290397,0.6313715577125549
1631290363469,0.3795477747917175,0.1380625069141388,-0.125146210193634,0.6295310854911804
1631290363558,0.3307249248027801,0.1380625069141388,-0.1120513603091239,0.6295310854911804
1631290363671,0.3179032206535339,0.1380625069141388,-0.0847933366894722,0.6295310854911804
1631290363740,0.2820597887039184,0.134584441781044,-0.0456204712390899,0.6295310854911804
1631290363857,0.209959477186203,0.1245399191975593,-0.0355052724480629,0.6295310854911804
1631290363996,0.1303681135177612,0.0694476217031478,-0.0072828698903322,0.6131325364112854
1631290364225,-0.0147362109273672,-0.04575677216053,0.1090512052178382,0.570086658000946
1631290364230,0.0189992096275091,-0.0284947119653224,0.0441280640661716,0.583958625793457
1631290364410,-0.0169968772679567,-0.0243427976965904,0.1589402258396148,0.5484635829925537
1631290364457,-0.0169968772679567,0.0125863486900925,0.1715386509895324,0.467302531003952
1631290364546,-0.0169968772679567,0.0561020784080028,0.1885849684476852,0.3436119258403778
1631290364583,-0.0169968772679567,0.1564497798681259,0.2252578437328338,0.2641507089138031
1631290364666,-0.0169968772679567,0.2950968146324157,0.3032868504524231,0.2322383970022201
1631290364762,-0.0201082695275545,0.4086023569107055,0.4549546837806701,0.2153925597667694
1631290364934,-0.0586608983576297,0.4433079957962036,0.5237331986427307,0.1677635759115219
1631290364967,-0.0586608983576297,0.4473540782928467,0.531082034111023,0.1677635759115219
1631290365061,-0.0586608983576297,0.4473540782928467,0.531082034111023,0.1677635759115219
1631290365246,-0.0586608983576297,0.4473540782928467,0.531082034111023,0.1677635759115219
1631290365342,-0.0586608983576297,0.4473540782928467,0.5346136093139648,0.1677635759115219
1631290365384,-0.0586608983576297,0.4489123821258545,0.5856269598007202,0.1677635759115219
1631290365479,-0.0586608983576297,0.4524016380310058,0.6321101784706116,0.2699137926101684
1631290365623,-0.0586608983576297,0.4571191072463989,0.6555883288383484,0.3544939160346985
1631290365707,0.84147047996521,0.4747708439826965,0.6610275506973267,0.4214042127132416
1631290365822,0.84147047996521,0.4856122136116028,0.6610275506973267,0.441590279340744
1631290366003,0.84147047996521,0.4866929352283478,0.6610275506973267,0.4416945278644562
1631290366016,0.84147047996521,0.4866929352283478,0.6610275506973267,0.4487726986408233
1631290366072,0.84147047996521,0.4866929352283478,0.6610275506973267,0.4505856037139892
1631290366302,0.84147047996521,0.4819484055042267,0.6610275506973267,0.4567068219184875
1631290366370,0.8523980379104614,0.4711032211780548,0.6539244055747986,0.463541179895401
1631290366414,0.8842579126358032,0.4134123921394348,0.6333885192871094,0.4660832583904266
1631290366542,0.8870041966438293,0.3744991719722748,0.6011124849319458,0.4660832583904266
1631290366662,0.8870041966438293,0.3744991719722748,0.5845577120780945,0.4660832583904266
1631290366726,0.8870041966438293,0.3744991719722748,0.5845577120780945,0.4494964182376861
1631290366906,0.8870041966438293,0.3744991719722748,0.5845577120780945,0.465846449136734
1631290366927,0.8857637643814087,0.3744991719722748,0.5842454433441162,0.465846449136734
1631290366991,0.8816931843757629,0.3744991719722748,0.5672643780708313,0.465846449136734
1631290367175,0.8737061619758606,0.3258250057697296,0.4976179897785187,0.465846449136734
1631290367290,0.8280110359191895,0.1691056936979293,0.3254128396511078,0.4637919962406158
1631290367369,0.7872107625007629,0.1349977999925613,0.0278714336454868,0.4635620415210724
1631290367484,0.7716872692108154,0.1291741877794265,-0.1874842643737793,0.4635620415210724
1631290367529,0.7686845064163208,0.1048462018370628,-0.1565739661455154,0.4635620415210724
1631290367624,0.7686845064163208,0.0699463561177253,-0.0620667077600955,0.4635620415210724
1631290367777,0.7686845064163208,0.0600357763469219,0.0178075712174177,0.4599982798099518
1631290367843,0.7603232264518738,0.085483118891716,0.0832169726490974,0.4432402849197387
1631290367955,0.7009920477867126,0.1583382487297058,0.08977010846138,0.4131514430046081
1631290368183,0.7009920477867126,0.2023737877607345,0.0974564328789711,0.4131514430046081
1631290368217,0.7009920477867126,0.2173450887203216,0.0994089692831039,0.4131514430046081
1631290368450,0.7009920477867126,0.2128339260816574,0.0994089692831039,0.4131514430046081
1631290368626,0.7009920477867126,0.2115644663572311,0.0994089692831039,0.4131514430046081
1631290368855,0.7009920477867126,0.2115644663572311,0.0994089692831039,0.4131514430046081
1631290368893,0.7009920477867126,0.2097963988780975,0.0994089692831039,0.4131514430046081
1631290369041,0.7009920477867126,0.2096006274223327,0.146267294883728,0.4131514430046081
1631290369104,0.7009920477867126,0.2122229784727096,0.1916842460632324,0.4131514430046081
1631290369184,0.7009920477867126,0.2093230485916137,0.1887209266424179,0.4131514430046081
1631290369240,0.7009920477867126,0.1707728207111358,0.1887209266424179,0.4131514430046081
1631290369289,0.7009920477867126,1.0518741607666016,0.1887209266424179,0.4131514430046081
1631290369369,0.7009920477867126,1.0518741607666016,0.1887209266424179,0.4131514430046081
1631290369403,0.7009920477867126,1.0518741607666016,0.1887209266424179,0.4131514430046081
1631290369452,0.7009920477867126,1.0518741607666016,0.1848552674055099,0.4131514430046081
1631290369508,0.7009920477867126,1.0518741607666016,0.1602524071931839,0.4131514430046081
1631290369608,0.7009920477867126,1.0518741607666016,0.1592430025339126,0.4131514430046081
1631290369740,0.7009920477867126,1.0518741607666016,0.1475231498479843,0.4131514430046081
1631290369886,0.7009920477867126,1.0518741607666016,0.1389929503202438,0.4131514430046081
1631290369899,0.7009920477867126,1.0518741607666016,0.1527014672756195,0.4131514430046081
1631290369919,0.7009920477867126,1.0518741607666016,0.1627795994281768,0.4131514430046081
1631290370039,0.7009920477867126,1.0518741607666016,0.1611586809158325,0.4131514430046081
1631290370203,0.7009920477867126,1.0518741607666016,0.1615892499685287,0.4131514430046081
1631290370370,0.7009920477867126,1.0518741607666016,0.1606295704841613,0.4131514430046081
1631290370448,0.7009920477867126,1.0518741607666016,0.1594860404729843,0.4131514430046081
1631290370466,0.7009920477867126,1.0518741607666016,0.1594860404729843,0.4131514430046081
1631290370541,0.7009920477867126,0.436280757188797,0.1594860404729843,0.4131514430046081
1631290370753,0.7009920477867126,0.4371283054351806,0.1594860404729843,0.4131514430046081
1631290370847,0.7009920477867126,0.4371283054351806,0.1594860404729843,0.4131514430046081
1631290370974,0.7009920477867126,0.4371283054351806,0.1594860404729843,0.4131514430046081
1631290371074,-0.0014013479230925,0.4371283054351806,0.1568895578384399,0.4131514430046081
1631290371160,0.0035685487091541,0.4371283054351806,0.1247118115425109,0.2138094305992126
1631290371209,0.0035685487091541,0.4371283054351806,0.0830629542469978,0.2362645119428634
1631290371270,0.0035685487091541,0.4371283054351806,0.0524146743118763,0.2535676062107086
1631290371376,0.0035685487091541,0.4371283054351806,0.0087892785668373,0.2588450312614441
1631290371473,0.0035685487091541,0.4078562259674072,-0.1003001034259796,0.2588450312614441
1631290371540,0.0140720475465059,0.0584863722324371,-0.1602265238761901,0.2588450312614441
1631290371693,0.0140720475465059,-0.0405419543385505,-0.1724406033754348,0.2588450312614441
1631290371892,0.0140720475465059,-0.0804800242185592,-0.1710384339094162,0.2588450312614441
1631290371993,0.0140720475465059,-0.0594302080571651,-0.0242758691310882,0.2588450312614441
1631290372076,0.0140720475465059,-0.0192135144025087,0.2125240415334701,0.2588450312614441
1631290372122,0.0140720475465059,0.0543704852461814,0.3633013069629669,0.2588450312614441
1631290372187,-0.0490859895944595,0.1018830314278602,0.3789906203746795,0.2588450312614441
1631290372296,-0.0713816732168197,0.0999887585639953,0.3789906203746795,0.1883991956710815
1631290372356,-0.1123507767915725,0.0968612655997276,0.3789906203746795,0.1685973107814788
1631290372544,-0.173743262887001,0.0797956213355064,0.3789906203746795,0.1595055013895034
1631290372653,-0.2522478699684143,0.0554145611822605,0.3794236183166504,0.1492253243923187
1631290372697,-0.2803551852703094,0.0328410528600215,0.3809643983840942,0.1134355589747428
1631290372868,-0.2803551852703094,0.0319172143936157,0.381004124879837,0.1134355589747428
1631290372874,-0.2803551852703094,0.0319172143936157,0.381004124879837,0.1134355589747428
1631290373054,-0.2803551852703094,0.0341390892863273,0.381004124879837,0.1134355589747428
1631290373118,-0.2803551852703094,0.0379800125956535,0.381004124879837,0.1134355589747428
1631290373243,-0.2803551852703094,0.0400836765766143,0.381004124879837,0.1134355589747428
1631290373321,-0.2803551852703094,0.021446606144309,0.381004124879837,0.1134355589747428
1631290373400,-0.2803551852703094,0.0341950953006744,0.385147213935852,0.1134355589747428
1631290373509,-0.2803551852703094,0.0492540374398231,0.4051013588905334,0.1134355589747428
1631290373626,-0.2803551852703094,0.0601475909352302,0.4150819778442383,0.1134355589747428
1631290373841,-0.2803551852703094,0.0601475909352302,0.3439399003982544,0.1134355589747428
1631290373918,-0.2803551852703094,0.0542338341474533,0.2962900400161743,0.1134355589747428
1631290373991,-0.2803551852703094,0.0542338341474533,0.2675098478794098,0.1134355589747428
1631290374044,-0.2803551852703094,0.0542338341474533,0.2675098478794098,0.1134355589747428
1631290374076,-0.2803551852703094,0.0530269145965576,0.2675098478794098,0.1134355589747428
1631290374205,-0.2803551852703094,0.0537330023944377,0.2675098478794098,0.1134355589747428
1631290374426,-0.2803551852703094,0.059015654027462,0.2676204741001129,0.1134355589747428
1631290374523,-0.2803551852703094,0.064678706228733,0.2745175659656524,0.1134355589747428
1631290374592,-0.2803551852703094,0.0669023618102073,0.2858067154884338,0.1134355589747428
1631290374668,-0.2803551852703094,0.0629817768931388,0.2871281802654266,0.1134355589747428
1631290374715,0.4528987407684326,0.0471829771995544,0.2871281802654266,0.5533487200737
1631290374893,0.4528987407684326,0.0364073514938354,0.2871281802654266,0.6003033518791199
1631290375075,0.4528987407684326,0.0396337546408176,0.2808173298835754,0.6064285635948181
1631290375141,0.4528987407684326,0.0372965820133686,0.250038743019104,0.6064285635948181
1631290375210,0.4566667079925537,0.0149637786671519,0.1889867186546325,0.6064285635948181
1631290375311,0.4755837321281433,-0.0293662194162607,0.099796250462532,0.6064285635948181
1631290375475,0.50905841588974,-0.0468639768660068,0.0455083586275577,0.6064285635948181
1631290375542,0.5314607620239258,-0.0141653940081596,0.0471780076622962,0.6064285635948181
1631290375719,0.5342079997062683,-0.0003211532894056,0.0553038790822029,0.6064285635948181
1631290375859,0.537736177444458,-0.0003211532894056,0.0560727268457412,0.6064285635948181
1631290375925,0.537736177444458,-0.0003211532894056,0.0560727268457412,0.6141890287399292
1631290375961,0.537736177444458,0.0087921628728508,0.0562975704669952,0.630248486995697
1631290376060,0.5287099480628967,0.0166628416627645,0.0598646849393844,0.62890625
1631290376123,0.5113440752029419,0.0165664162486791,0.0496359169483184,0.5873445868492126
1631290376311,0.4862729012966156,0.0219621937721967,0.0205176770687103,0.5233496427536011
1631290376392,0.4013128578662872,0.0237589143216609,0.0012313162442296,0.4889073073863983
1631290376443,0.4254537224769592,0.0246187392622232,-0.0146348262205719,0.4771783351898193
1631290376494,0.4963907301425934,0.0236304141581058,-0.0453638657927513,0.5589983463287354
1631290376595,0.5796355605125427,0.003533893963322,-0.0819382965564727,0.6826156973838806
1631290376658,0.6318532228469849,0.0335855558514595,-0.0600161515176296,0.7510951161384583
1631290376843,0.638634204864502,0.0362872667610645,-0.0592998340725898,0.7535035014152527
1631290376927,0.638634204864502,0.0343946479260921,-0.040496788918972,0.7535035014152527
1631290376960,0.638634204864502,0.0128558445721864,-0.0393609963357448,0.7535035014152527
1631290377129,0.638634204864502,-0.0397947542369365,-0.0537679642438888,0.7599703669548035
1631290377213,0.6347094178199768,-0.1104533970355987,-0.0837543308734893,0.766294538974762
1631290377335,0.6088504195213318,-0.1363815665245056,-0.0900823175907135,0.7699076533317566
1631290377402,0.5803270936012268,-0.113304890692234,-0.0900823175907135,0.7715447545051575
1631290377528,0.5711477398872375,-0.107572965323925,-0.0900823175907135,0.7715808153152466
1631290377573,0.5703628063201904,-0.107572965323925,-0.1060743406414985,0.7723872065544128
1631290377688,0.571631133556366,-0.107572965323925,-0.1476762145757675,0.7723872065544128
1631290377895,0.571631133556366,-0.1089550405740737,-0.1833979040384292,0.7723872065544128
1631290378009,0.571631133556366,-0.1134953573346138,-0.188570499420166,0.7723872065544128
1631290378088,0.5730518102645874,-0.1232899129390716,-0.191465213894844,0.7723872065544128
1631290378172,0.5735097527503967,-0.1322407722473144,-0.1785577982664108,0.7650663256645203
1631290378241,0.5503504276275635,-0.144974872469902,-0.1665343195199966,0.7369261384010315
1631290378323,0.453418880701065,-0.2048867046833038,-0.1918865591287613,0.6366015076637268
1631290378526,0.3199493587017059,-0.256855696439743,-0.2177557200193405,0.5548833608627319
1631290378658,0.1906692087650299,-0.2519120573997497,-0.2699472308158874,0.5110467672348022
1631290378798,0.1698992997407913,-0.2519120573997497,-0.2938330173492431,0.4881517589092254
1631290379020,0.1735226958990097,-0.2519120573997497,-0.2970785200595855,0.4803765118122101
1631290379153,0.1995346695184707,-0.2526660561561584,-0.3158160448074341,0.4695184230804443
1631290379157,0.2444676905870437,-0.2754704058170318,-0.3373028039932251,0.4196093380451202
1631290379186,0.3174416124820709,-0.3049113154411316,-0.3397352993488312,0.3284903466701507
1631290379214,0.3859113752841949,-0.3104695975780487,-0.3468747735023498,0.2412022948265075
1631290379262,0.4134075939655304,-0.3104695975780487,-0.347134381532669,0.2021887749433517
1631290379359,0.412668228149414,-0.3104695975780487,-0.347134381532669,0.2369836270809173
1631290379442,0.4065934419631958,-0.3104695975780487,-0.347134381532669,0.3018848299980163
1631290379524,0.4112723469734192,-0.3050588071346283,-0.3457694351673126,0.3598096370697021
1631290379609,0.4264353513717651,-0.2935182750225067,-0.3310821950435638,0.3864887654781341
1631290379759,0.4263307750225067,-0.2663410007953644,-0.286135733127594,0.390829473733902
1631290379850,0.4221726953983307,-0.2377305477857589,-0.2264294773340225,0.3782064020633697
1631290380031,0.4219749867916107,-0.2408393174409866,-0.2161709666252136,0.3469034731388092
1631290380123,0.4219749867916107,-0.2843811213970184,-0.2248940616846084,0.327650249004364
1631290380219,0.4219749867916107,-0.2772318124771118,-0.2281465381383896,0.3390529751777649
1631290380307,0.4219749867916107,-0.2418315112590789,-0.2167162597179412,0.3739988207817077
1631290380373,0.4337726831436157,-0.2194917947053909,-0.2003222405910492,0.3865909278392792
1631290380568,0.4458721876144409,-0.2045448571443557,-0.1682104766368866,0.3704670667648315
1631290380617,0.4383608996868133,-0.2042101174592971,-0.1062477603554725,0.3576333224773407
1631290380664,0.4184200763702392,-0.2042101174592971,-0.0431910008192062,0.3493581116199493
1631290380827,0.4178574383258819,-0.2042101174592971,-0.0140069629997015,0.3484998047351837
1631290380873,0.4068844020366668,-0.2042101174592971,-0.0132207637652754,0.3465088009834289
1631290380958,0.4073348939418793,-0.2042101174592971,-0.0132207637652754,0.3395041227340698
1631290381024,0.4183321297168731,-0.2042101174592971,-0.0029457455966621,0.3160537779331207
1631290381136,0.4359207451343536,-0.2073114216327667,0.0215887129306793,0.2867493331432342
1631290381410,0.4447472989559173,-0.167022556066513,0.0571916811168193,0.2643694579601288
1631290381425,0.4372591078281402,-0.1854836791753769,0.0483191087841987,0.228272795677185
1631290381597,0.447058618068695,-0.1893307417631149,0.0716605931520462,0.3385266661643982
1631290381691,0.447058618068695,-0.2061354517936706,0.075847677886486,0.393576443195343
1631290381985,0.6370033025741577,-0.1628277450799942,0.0736002624034881,0.4840371906757355
1631290382023,0.5299481153488159,-0.203264981508255,0.075847677886486,0.4417397081851959
1631290382141,0.6855452060699463,-0.0501067042350769,0.0792179480195045,0.5665432214736938
1631290382258,0.7093472480773926,0.0828981474041938,0.0938750132918357,0.6166761517524719
1631290382325,0.7251045107841492,0.1625663191080093,0.1086633652448654,0.6241730451583862
1631290382358,0.7281996607780457,0.1762191653251648,0.1086633652448654,0.6245061755180359
1631290382432,0.7281996607780457,0.1762191653251648,0.103370189666748,0.6245061755180359
1631290382582,0.7281996607780457,0.1762191653251648,0.1026751548051834,0.6245061755180359
1631290382718,0.7281996607780457,0.1762191653251648,0.1026751548051834,0.6245061755180359
1631290382859,0.7281996607780457,0.1762191653251648,0.1026751548051834,0.6245061755180359
1631290383040,0.7281996607780457,0.1838727295398712,0.0992027670145034,0.6245061755180359
1631290383042,0.7281996607780457,0.1778112351894378,0.1026751548051834,0.6245061755180359
1631290383118,0.7281996607780457,0.1822288185358047,0.0691724270582199,0.6235920786857605
1631290383197,0.7281996607780457,0.1757867038249969,0.0237486232072114,0.619801938533783
1631290383258,0.7281996607780457,0.160354733467102,-0.0164028070867061,0.6243510246276855
1631290383409,0.7281996607780457,0.1542916297912597,-0.0083400728181004,0.6368236541748047
1631290383473,0.7281996607780457,0.1542916297912597,-0.0055227531120181,0.6332787275314331
1631290383591,0.686376690864563,0.1542916297912597,-0.0106959780678153,0.6095812320709229
1631290383655,0.6249412298202515,0.1536055505275726,-0.0273669920861721,0.5747272968292236
1631290383687,0.5677873492240906,0.1154788807034492,-0.0515627041459083,0.4882594645023346
1631290383850,0.4845103025436401,0.0306952726095914,-0.1202230900526046,0.3546653091907501
1631290383898,0.4496238231658935,-0.0498147681355476,-0.154649332165718,0.2181584239006042
1631290384074,0.4432170689105987,-0.0983044505119323,-0.1424796283245086,0.1593188941478729
1631290384258,0.4359005987644195,-0.0804495066404342,-0.1365428864955902,0.1554840207099914
1631290384627,0.4455164670944214,-0.0468623004853725,-0.1365428864955902,0.1554840207099914
1631290384769,0.4528619050979614,-0.0103994309902191,-0.1365428864955902,0.1604882329702377
1631290384905,0.434097021818161,0.0041588973253965,-0.1365428864955902,0.2074734419584274
1631290384935,0.4084052443504333,0.02939716540277,-0.1365428864955902,0.2800876796245575
1631290385043,1.2230440378189087,1.269871473312378,1.3414093255996704,1.863293170928955
1631290385065,0.3651054501533508,0.0415892750024795,1.3414093255996704,1.3955177068710327
1631290385138,1.2230440378189087,1.269871473312378,1.3414093255996704,1.863293170928955
1631290385210,1.2230440378189087,1.269871473312378,1.3414093255996704,1.8773036003112795
1631290385267,1.2230440378189087,1.269871473312378,1.3414093255996704,1.8773036003112795
1631290385324,1.2230440378189087,1.269871473312378,1.3414093255996704,1.8773036003112795
1631290385499,1.2230440378189087,1.269871473312378,1.3414093255996704,1.8773036003112795
1631290385788,1.2230440378189087,1.269871473312378,1.3414093255996704,1.8773036003112795
1631290385894,1.2226800918579102,1.269871473312378,1.3414093255996704,1.8773036003112795
1631290385939,1.2218105792999268,1.269871473312378,1.3414093255996704,1.8773036003112795
1631290385980,1.7752511501312256,1.7817351818084717,1.403085231781006,2.157230854034424
1631290385992,1.7752511501312256,1.7817351818084717,1.403085231781006,2.157230854034424
1631290386081,1.7752511501312256,1.7817351818084717,1.4444365501403809,2.157230854034424
1631290386098,1.8790785074234009,1.861270904541016,1.840747594833374,2.165599584579468
1631290386165,1.8790785074234009,1.861270904541016,1.840747594833374,2.165599584579468
1631290386206,1.8790785074234009,1.861270904541016,1.840747594833374,2.165599584579468
1631290386246,1.8790785074234009,1.861270904541016,1.840747594833374,2.153250932693481
1631290386368,1.8790785074234009,1.861270904541016,1.840747594833374,2.153250932693481
1631290386441,1.8790785074234009,1.861270904541016,1.840747594833374,2.153250932693481
1631290386475,1.8790785074234009,1.861270904541016,1.840747594833374,2.153250932693481
1631290386522,1.8790785074234009,1.861270904541016,1.840747594833374,2.153250932693481
1631290386640,1.8790785074234009,1.861270904541016,1.840747594833374,2.153250932693481
1631290386741,1.8790785074234009,1.861270904541016,1.840747594833374,2.1837072372436523
1631290386910,1.8790785074234009,1.861270904541016,1.840747594833374,2.1837072372436523
1631290386931,1.8790785074234009,1.861270904541016,1.840747594833374,2.1837072372436523
1631290387038,1.8459980487823489,1.839402198791504,1.840747594833374,2.137202739715576
1631290387328,1.8459980487823489,1.839402198791504,1.840747594833374,2.137202739715576
1631290387458,1.8459980487823489,1.839402198791504,1.840747594833374,2.137202739715576
1631290387526,1.2497293949127195,1.224638819694519,1.2252421379089355,2.1177196502685547
1631290387641,1.2497293949127195,1.224638819694519,1.2252421379089355,2.1177196502685547
1631290387708,1.2497293949127195,1.224638819694519,1.2252421379089355,2.1177196502685547
1631290387755,1.2497293949127195,1.224638819694519,1.2252421379089355,2.1177196502685547
1631290387802,1.2497293949127195,1.224638819694519,1.2252421379089355,2.1177196502685547
1631290387876,1.2497293949127195,1.224638819694519,1.2252421379089355,2.1177196502685547
1631290387945,1.2497293949127195,1.224638819694519,1.2252421379089355,2.1177196502685547
1631290388000,1.2497293949127195,1.224638819694519,1.2252421379089355,2.1177196502685547
1631290388298,1.2497293949127195,1.224638819694519,1.2252421379089355,2.1177196502685547
1631290388411,0.4683901071548462,-0.0723893716931343,0.0996345803141594,1.3059158325195312
1631290388498,0.4719598889350891,-0.0723893716931343,0.0945673286914825,0.3537414669990539
1631290388514,0.4344058334827423,-0.0723893716931343,0.0634787008166313,0.3571728765964508
1631290388600,0.3887224197387695,-0.0765480920672416,0.0240403823554515,0.3382913768291473
1631290388761,0.3547743260860443,-0.0998029559850692,-0.0020686509087681,0.3195521533489227
1631290388804,0.3367559909820556,-0.1019319221377372,-0.014942361973226,0.2982836663722992
1631290388922,0.3356185555458069,-0.0989269092679023,-0.0568564571440219,0.2913089394569397
1631290388989,0.3254578113555908,-0.1020680367946624,-0.1446177810430526,0.2889149785041809
1631290389148,0.2957524061203003,-0.0848440006375312,-0.1988734304904937,0.2889149785041809
1631290389174,0.2133577913045883,-0.0040540886111557,-0.217505544424057,0.2889149785041809
1631290389275,0.1653924286365509,0.2149199694395065,-0.2250631600618362,0.2880171835422516
1631290389390,0.15610171854496,0.367437869310379,-0.2328661680221557,0.2877545356750488
1631290389484,0.15610171854496,0.4082396626472473,-0.2447214722633361,0.2865082025527954
1631290389706,0.15610171854496,0.4082396626472473,-0.2805126905441284,0.2810733616352081
1631290389741,0.15610171854496,0.4082396626472473,-0.3200951218605041,0.2810733616352081
1631290389776,0.15610171854496,0.4082396626472473,-0.323077529668808,0.2810733616352081
1631290389891,0.15610171854496,0.4082396626472473,-0.3296312987804413,0.2810733616352081
1631290389929,0.15610171854496,0.4082396626472473,-0.3363661468029022,0.2810733616352081
1631290390123,0.15610171854496,0.4163205325603485,-0.3363661468029022,0.2810733616352081
1631290390221,0.15610171854496,0.4467548727989197,-0.3363661468029022,0.2810733616352081
1631290390234,0.15610171854496,0.4689019322395324,-0.3363661468029022,0.2810733616352081
1631290390467,0.15610171854496,0.4692280292510986,-0.3363661468029022,0.2810733616352081
1631290390468,0.5539335608482361,0.4692280292510986,0.0970993638038635,0.721394419670105
1631290390579,0.5776378512382507,0.4692280292510986,0.1024351418018341,0.7354288697242737
1631290390633,0.5785132646560669,0.4692280292510986,0.1024351418018341,0.7354288697242737
1631290390842,0.5785132646560669,0.4664512574672699,0.1048800945281982,0.7354288697242737
1631290391000,0.5785132646560669,0.4514238238334656,0.1131718456745147,0.7354288697242737
1631290391093,0.5785132646560669,0.3737411201000213,0.1191338524222374,0.7354288697242737
1631290391158,0.5785132646560669,0.2232128232717514,0.1273962706327438,0.7354288697242737
1631290391226,0.5785132646560669,0.1024480983614921,0.1471261531114578,0.7354288697242737
1631290391307,0.581410825252533,0.0747804939746856,0.2350069433450698,0.7354288697242737
1631290391418,0.5848023295402527,0.0653817802667617,0.3109021484851837,0.7354288697242737
1631290391569,0.5871312022209167,0.0581483282148838,0.3263209760189056,0.7354288697242737
1631290391582,0.5871312022209167,0.0491056703031063,0.3466933965682983,0.7354288697242737
1631290391712,0.5710499882698059,0.0608985647559165,0.391601026058197,0.7354288697242737
1631290391791,0.5141648650169373,0.0939563065767288,0.4183655679225921,0.6927045583724976
1631290391943,0.4015800058841705,0.1003805696964263,0.4183655679225921,0.61652010679245
1631290392009,0.2637222111225128,0.1003805696964263,0.415517657995224,0.5037723779678345
1631290392112,0.1490560472011566,0.1003805696964263,0.415517657995224,0.4178218245506286
1631290392280,0.0680934116244316,0.1003805696964263,0.415517657995224,0.3211425840854645
1631290392360,0.0283200871199369,0.0984831601381301,0.415517657995224,0.2143430560827255
1631290392475,0.0232127495110034,0.0933859050273895,0.415517657995224,0.1897305995225906
1631290392509,0.0136210760101675,0.0841724276542663,0.415517657995224,0.1644433587789535
1631290392675,0.0083287451416254,0.0766601637005806,0.415517657995224,0.1623235344886779
1631290392694,0.0010068904375657,0.0727415308356285,0.415517657995224,0.1623235344886779
1631290392834,0.0010068904375657,0.0621911026537418,0.415517657995224,0.1623235344886779
1631290392891,0.0010068904375657,0.0414251610636711,0.3912346363067627,0.1623235344886779
1631290393073,0.0010068904375657,0.0043234527111053,0.3129633069038391,0.1623235344886779
1631290393158,0.0010068904375657,0.5644250512123108,0.3129633069038391,0.1623235344886779
1631290393277,0.0010068904375657,0.6545838713645935,0.3129633069038391,0.1623235344886779
1631290393307,0.0010068904375657,0.7634450793266296,0.3129633069038391,0.1623235344886779
1631290393385,0.0010068904375657,0.8449113965034485,0.3129633069038391,0.1623235344886779
1631290393585,0.0010068904375657,0.9046281576156616,0.3129633069038391,0.1623235344886779
1631290393633,0.0010068904375657,0.9046281576156616,0.4849338829517364,0.1623235344886779
1631290393754,0.0010068904375657,0.9046281576156616,0.5413638949394226,0.1623235344886779
1631290393943,0.0010068904375657,0.9046281576156616,0.5413638949394226,0.1623235344886779
1631290394124,0.0010068904375657,0.9046281576156616,0.5413638949394226,0.1623235344886779
1631290394191,0.0010068904375657,0.9202642440795898,0.5413638949394226,0.1623235344886779
1631290394290,0.0010068904375657,0.9202642440795898,0.5413638949394226,0.1623235344886779
1631290394357,0.0010068904375657,0.9202642440795898,0.5854041576385498,0.1623235344886779
1631290394471,0.0010068904375657,0.9202642440795898,0.6023198962211609,0.1623235344886779
1631290394526,0.0010068904375657,0.9202642440795898,0.6109960079193115,0.1623235344886779
1631290394620,0.0010068904375657,0.9202642440795898,0.6109960079193115,0.1623235344886779
1631290394697,0.0010068904375657,0.9202642440795898,0.6128137111663818,0.1623235344886779
1631290394837,0.0010068904375657,0.9213917255401612,0.6128137111663818,0.1623235344886779
1631290394905,0.0010068904375657,0.922190487384796,0.6128137111663818,0.1623235344886779
1631290394970,0.0010068904375657,0.9064798951148988,0.6001598834991455,0.1623235344886779
1631290395165,0.0010068904375657,0.6885197162628174,0.5836376547813416,0.1623235344886779
1631290395240,0.0010068904375657,0.6906303763389587,0.5787279605865479,0.1623235344886779
1631290395305,0.0010068904375657,0.6906303763389587,0.4950936138629913,0.1623235344886779
1631290395337,0.501477062702179,0.6914925575256348,0.4953401386737823,0.8117221593856812
1631290395476,0.6113358736038208,0.6932224631309509,0.497749924659729,0.868686318397522
1631290395640,0.649670422077179,0.5166122913360596,0.4988678693771362,0.877346396446228
1631290395714,0.6625431180000305,0.3328284025192261,0.4988678693771362,0.877346396446228
1631290395774,0.6625431180000305,0.191747784614563,0.4465133249759674,0.8839501738548279
1631290395877,0.6646328568458557,0.1695076674222946,0.4316890239715576,0.8890867829322815
1631290396010,0.6646328568458557,0.1695076674222946,0.3969492316246032,0.890386164188385
1631290396210,0.6646328568458557,0.1695076674222946,0.3956339359283447,0.890386164188385
1631290396425,0.6646328568458557,0.1695076674222946,0.3956339359283447,0.890386164188385
1631290396597,0.6646328568458557,0.1588748395442962,0.3933461010456085,0.890386164188385
1631290396838,0.6646328568458557,0.139325276017189,0.3933461010456085,0.890386164188385
1631290396950,0.6646328568458557,0.1142235100269317,0.3933461010456085,0.890386164188385
1631290397004,0.6646328568458557,0.1104285269975662,0.3933461010456085,0.8896906971931458
1631290397059,0.6646328568458557,0.1104285269975662,0.3933461010456085,0.8877291083335876
1631290397143,0.6633373498916626,0.1209889352321624,0.3634198904037475,0.8626732230186462
1631290397181,0.6572951674461365,0.1560159921646118,0.2897373735904693,0.8315230011940002
1631290397407,0.6186184883117676,0.2093358039855957,0.1972106397151947,0.8041330575942993
1631290397595,0.6186184883117676,0.263860285282135,0.108132816851139,0.7204925417900085
1631290397610,0.6186184883117676,0.3864843547344208,0.1307016462087631,0.7204925417900085
1631290397703,0.6186184883117676,0.5715864896774292,0.2630596756935119,0.7204925417900085
1631290397791,0.6186184883117676,0.7756178975105286,0.4299059212207794,0.7204925417900085
1631290397809,0.6186184883117676,0.9166209697723388,0.6506301164627075,0.7204925417900085
1631290397847,0.6186184883117676,1.1786161661148071,1.0894538164138794,0.7204925417900085
1631290397889,0.6186184883117676,1.1856601238250732,1.1063237190246582,0.7204925417900085
1631290397936,0.6186184883117676,1.1856601238250732,1.1063237190246582,0.7204925417900085
1631290397973,0.6186184883117676,1.1856601238250732,1.1063237190246582,0.7204925417900085
1631290398045,0.6186184883117676,1.1856601238250732,1.1063237190246582,0.7204925417900085
1631290398142,0.6186184883117676,1.1856601238250732,1.1063237190246582,0.7204925417900085
1631290398209,0.6186184883117676,1.1856601238250732,1.1063237190246582,0.7204925417900085
1631290398316,0.6186184883117676,1.1856601238250732,1.1063237190246582,0.7204925417900085
1631290398413,0.6186184883117676,1.3168830871582031,1.1063237190246582,0.7204925417900085
1631290398589,0.6186184883117676,1.3168830871582031,1.1063237190246582,0.7204925417900085
1631290398640,0.6186184883117676,1.3168830871582031,1.1514610052108765,0.7204925417900085
1631290398760,0.6186184883117676,1.3168830871582031,1.1514610052108765,0.7204925417900085
1631290398890,0.6186184883117676,1.3168830871582031,1.1514610052108765,0.7204925417900085
1631290398939,0.6186184883117676,1.3168830871582031,1.1514610052108765,0.7204925417900085
1631290398982,0.6186184883117676,1.315332293510437,1.1514610052108765,0.7204925417900085
1631290399179,0.6186184883117676,1.2688827514648438,0.9650263786315918,0.7204925417900085
1631290399368,0.6186184883117676,1.2536077499389648,0.9279759526252748,0.7204925417900085
1631290399463,0.6186184883117676,1.2505348920822144,0.8965725898742676,0.7204925417900085
1631290399502,0.6186184883117676,1.2505348920822144,0.8765619993209839,0.7204925417900085
1631290399534,0.6186184883117676,1.2505348920822144,0.8640608787536621,0.7204925417900085
1631290399692,0.6186184883117676,1.2505348920822144,0.8538349866867065,0.7204925417900085
1631290399755,0.6186184883117676,1.2505348920822144,0.8517399430274963,0.7204925417900085
1631290399837,0.6186184883117676,1.2505348920822144,0.8517399430274963,0.7204925417900085
1631290399926,0.6186184883117676,0.9469356536865234,0.8517399430274963,0.7204925417900085
1631290400129,0.6186184883117676,0.9469356536865234,0.8517399430274963,0.7204925417900085
1631290400187,0.6186184883117676,0.8442830443382263,0.8517399430274963,0.7204925417900085
1631290400276,0.6186184883117676,0.8442830443382263,0.8517399430274963,0.7204925417900085
1631290400324,0.6186184883117676,0.8442830443382263,0.8517399430274963,0.7204925417900085
1631290400403,0.6186184883117676,0.8442830443382263,0.8517399430274963,0.7204925417900085
1631290400559,0.6186184883117676,0.8442830443382263,0.8517399430274963,0.7204925417900085
1631290400671,0.6186184883117676,0.8442830443382263,0.8517399430274963,0.7204925417900085
1631290400762,0.6186184883117676,0.8442830443382263,0.8517399430274963,0.7204925417900085
1631290400825,0.6186184883117676,0.8442830443382263,0.8517399430274963,0.7204925417900085
1631290400905,0.6186184883117676,0.8442830443382263,0.8517399430274963,0.7204925417900085
1631290401025,0.6186184883117676,0.8442830443382263,0.8517399430274963,0.7204925417900085
1631290401152,0.6186184883117676,0.8442830443382263,0.8517399430274963,0.7204925417900085
1631290401264,0.6186184883117676,0.8442830443382263,0.8517399430274963,0.7204925417900085
1631290401357,0.6186184883117676,0.8442830443382263,0.8517399430274963,0.7204925417900085
1631290401423,0.6186184883117676,0.8442830443382263,0.8517399430274963,0.7204925417900085
1631290401541,0.6186184883117676,0.8442830443382263,0.8517399430274963,0.7204925417900085
1631290401705,0.6186184883117676,0.4956977963447571,0.8517399430274963,0.7204925417900085
1631290401800,0.6186184883117676,0.4958407282829284,0.8517399430274963,0.4833078980445862
1631290401913,0.6186184883117676,0.4958407282829284,0.8517399430274963,0.4833078980445862
1631290401939,0.7801877856254578,0.4958407282829284,0.8517399430274963,0.4833078980445862
1631290402049,0.7801877856254578,0.4958407282829284,0.8517399430274963,0.4833078980445862
1631290402137,0.7801877856254578,0.4958407282829284,0.1225021257996559,0.4843073189258575
1631290402261,0.7801877856254578,0.4958407282829284,0.1256342232227325,0.513369619846344
1631290402388,0.7801877856254578,0.4958407282829284,0.1490280926227569,0.5648190379142761
1631290402473,0.7902733087539673,0.4958407282829284,0.2123611718416214,0.6067688465118408
1631290402555,0.8024932146072388,0.4958482682704925,0.2627305388450622,0.6303485035896301
1631290402710,0.8097703456878662,0.4959829747676849,0.2825674414634704,0.653050422668457
1631290402759,0.8170977830886841,0.4959829747676849,0.2887158393859863,0.6893002986907959
1631290402821,0.8271356225013733,0.3585485517978668,0.2887158393859863,0.7104868292808533
1631290403013,0.7290096879005432,0.1852199733257293,0.2906622588634491,0.7012971639633179
1631290403052,0.5758377909660339,0.0287564657628536,0.2971762418746948,0.7406582236289978
1631290403143,0.6561821103096008,0.0232100095599889,0.303303599357605,0.7729216814041138
1631290403319,0.675633430480957,0.1560772061347961,0.3935731053352356,0.7880579829216003
1631290403418,0.7201517820358276,0.3411981165409088,0.4665196239948272,0.8463248610496521
1631290403461,0.8024223446846008,0.4525168538093567,0.5156183838844299,0.9206926226615906
1631290403618,0.8880239725112915,0.4825760126113891,0.5256266593933105,0.9695233702659608
1631290403705,0.9143553972244264,0.503157913684845,0.5235240459442139,1.0067172050476074
1631290403790,0.9144280552864076,0.517153263092041,0.5205249190330505,1.0233074426651
1631290403874,0.9144280552864076,0.5180555582046509,0.5286051630973816,1.0233074426651
1631290403973,0.9144280552864076,0.5180555582046509,0.5827552676200867,1.0233074426651
1631290404246,0.9144280552864076,0.5180555582046509,0.6572141051292419,1.0233074426651
1631290404372,0.9144280552864076,0.5180555582046509,0.6793354153633118,1.0233074426651
1631290404407,0.9144280552864076,0.5180555582046509,0.6793354153633118,1.0233074426651
1631290404448,0.9144280552864076,0.5180555582046509,0.6793354153633118,1.0233074426651
1631290404486,0.9144280552864076,0.5177119970321655,0.6793354153633118,1.0233074426651
1631290404541,0.9144280552864076,0.5200533270835876,0.6793354153633118,1.0173494815826416
1631290404694,0.906373143196106,0.5252750515937805,0.6816023588180542,1.006579041481018
1631290404808,0.8713703751564026,0.5598285794258118,0.682009756565094,1.000240445137024
1631290404933,0.8224998116493225,0.640774667263031,0.682009756565094,0.989346206188202
1631290405117,0.7924990653991699,0.6776891350746155,0.6704760789871216,0.9783941507339478
1631290405166,0.7741416096687317,0.6818894147872925,0.6434535384178162,0.9783941507339478
1631290405243,0.7741416096687317,0.6775177121162415,0.6410698294639587,0.9783941507339478
1631290405308,0.7741416096687317,0.6775177121162415,0.6410698294639587,0.9783941507339478
1631290405516,0.7741416096687317,0.678788423538208,0.6410698294639587,0.9783941507339478
1631290405530,0.7741416096687317,0.6845576167106628,0.6410698294639587,0.9783941507339478
1631290405693,0.7741416096687317,0.6845576167106628,0.6295924782752991,0.9783941507339478
1631290405728,0.7741416096687317,0.6845576167106628,0.5481977462768555,0.9783941507339478
1631290405809,0.7741416096687317,0.6845576167106628,0.3799865543842315,0.5670384764671326
1631290405931,0.7741416096687317,0.6845576167106628,0.2838279008865356,0.3499865531921386
1631290406085,0.336443692445755,0.6845576167106628,0.253330796957016,0.3577146828174591
1631290406108,0.357072651386261,0.6845576167106628,0.2307173162698745,0.3813673853874206
1631290406214,0.3632790148258209,0.6845576167106628,0.2108782678842544,0.3979561030864715
1631290406334,0.3632790148258209,0.6839984655380249,0.1875109374523162,0.3979561030864715
1631290406390,0.3632790148258209,0.6724403500556946,0.1582245230674743,0.3979561030864715
1631290406484,0.3632790148258209,0.6139017939567566,0.2844527959823608,0.3979561030864715
1631290406657,0.3632790148258209,0.551112949848175,0.3934250473976135,0.3979561030864715
1631290406826,0.3632790148258209,0.4851024150848388,0.424801617860794,0.3979561030864715
1631290406903,0.3632790148258209,0.4082274138927459,0.4313630759716034,0.3979561030864715
1631290406949,0.3632790148258209,0.3578137755393982,0.4301210343837738,0.3979561030864715
1631290407011,0.3632790148258209,0.2399667054414749,0.4287011623382568,0.3979561030864715
1631290407181,0.3632790148258209,0.1135119795799255,0.4287011623382568,0.3419905602931976
1631290407407,0.2415522187948227,0.1075039133429527,0.4246737062931061,0.2696081697940826
1631290407466,0.2415522187948227,0.1096598803997039,0.4175891578197479,0.2696081697940826
1631290407548,0.2415522187948227,0.1527609825134277,0.4158121645450592,0.2696081697940826
1631290407594,0.2415522187948227,0.1814824491739273,0.4223351776599884,0.2696081697940826
1631290407743,0.2415522187948227,0.1946891248226165,0.4456298053264618,0.2696081697940826
1631290407911,0.2415522187948227,0.1946891248226165,0.5525791645050049,0.4215673506259918
1631290407957,-0.0578495413064956,0.1946891248226165,0.6384323835372925,0.4380778074264526
1631290408029,0.0405783839523792,0.1992519795894622,0.6479423642158508,0.455129861831665
1631290408166,0.1207952946424484,0.2020680457353592,0.6479423642158508,0.4837981462478637
1631290408193,0.1520420014858245,0.2020680457353592,0.639784574508667,0.5121521949768066
1631290408293,0.1905935555696487,0.2020680457353592,0.639784574508667,0.5305213332176208
1631290408609,0.2162612676620483,0.1991073042154312,0.639784574508667,0.5480800271034241
1631290408647,0.2188717722892761,0.1991073042154312,0.639784574508667,0.5480800271034241
1631290408686,0.2188717722892761,0.1950106471776962,0.639784574508667,0.5480800271034241
1631290408733,0.2188717722892761,0.1726790815591812,0.639784574508667,0.5480800271034241
1631290408838,0.2188717722892761,0.1225569099187851,0.639784574508667,0.5480800271034241
1631290409046,0.2188717722892761,0.0932611376047134,0.639784574508667,0.5480800271034241
1631290409141,0.2188717722892761,0.0780086666345596,0.639784574508667,0.5150701403617859
1631290409312,0.2129339575767517,0.0699145495891571,0.639784574508667,0.4772163033485412
1631290409445,0.2293536216020584,0.0594400130212307,0.639784574508667,0.5103526711463928
1631290409494,0.2670817673206329,0.0298064351081848,0.638185977935791,0.5207934975624084
1631290409724,0.2865452766418457,0.0131581909954547,0.5787954330444336,0.5154279470443726
1631290409894,0.2865452766418457,0.0828469321131706,0.3650957643985748,0.5049174427986145
1631290410125,0.2865452766418457,0.1303955167531967,0.0698947086930275,0.4858774542808532
1631290410175,0.2817696332931518,0.155167669057846,0.1312945336103439,0.4709317982196808
1631290410223,0.2782325744628906,0.1882326006889343,0.3586340248584747,0.458941638469696
1631290410269,0.2636180818080902,0.1897496283054351,0.5008267164230347,0.4445527791976928
1631290410299,0.2366638034582138,0.1897496283054351,0.5507514476776123,0.4202210605144501
1631290410351,0.2295689880847931,1.236841917037964,0.5507514476776123,0.418601244688034
1631290410457,0.2295689880847931,1.236841917037964,0.5507514476776123,0.418601244688034
1631290410537,0.2295689880847931,1.236841917037964,0.5507514476776123,0.418601244688034
1631290410757,0.2295689880847931,1.236841917037964,0.6468586921691895,0.3953990340232849
1631290410818,0.2295689880847931,1.236841917037964,0.6468586921691895,0.3953990340232849
1631290410833,0.2295689880847931,1.236841917037964,0.6468586921691895,0.3953990340232849
1631290410924,0.2295689880847931,1.236841917037964,0.6468586921691895,0.3953990340232849
1631290410947,0.2295689880847931,1.236841917037964,0.6468586921691895,0.3953990340232849
1631290411025,0.2295689880847931,1.236841917037964,0.6468586921691895,0.3953990340232849
1631290411093,0.2295689880847931,1.236841917037964,0.6468586921691895,0.3953990340232849
1631290411265,0.2295689880847931,1.236841917037964,0.6468586921691895,0.3953990340232849
1631290411410,0.2295689880847931,1.236841917037964,0.6468586921691895,0.3953990340232849
1631290411442,0.2295689880847931,1.236841917037964,0.6468586921691895,0.3953990340232849
1631290411578,0.2295689880847931,1.2684295177459717,0.6468586921691895,0.3953990340232849
1631290411607,0.2295689880847931,1.26860773563385,0.6468586921691895,0.3953990340232849
1631290411670,0.2295689880847931,0.7705898880958557,0.6468586921691895,0.3953990340232849
1631290411824,0.2295689880847931,0.7705898880958557,0.6468586921691895,0.3953990340232849
1631290411959,0.2295689880847931,0.7705898880958557,0.5439908504486084,0.3953990340232849
1631290412011,0.2295689880847931,0.772443413734436,-0.110646091401577,0.3953990340232849
1631290412145,0.2295689880847931,0.7733476758003235,-0.0722048282623291,0.3953990340232849
1631290412292,0.2295689880847931,0.7747009992599487,-0.0257027670741081,0.3953990340232849
1631290412456,0.2295689880847931,0.7747009992599487,0.0205083843320608,0.3953990340232849
1631290412489,0.2295689880847931,0.7739133238792419,0.0402776226401329,0.3953990340232849
1631290412518,0.2295689880847931,0.7751591801643372,0.0496985241770744,0.3953990340232849
1631290412593,0.2295689880847931,0.7772043347358704,0.0496985241770744,0.3953990340232849
1631290412717,0.3743544518947601,0.7772319912910461,0.056805994361639,0.4982414841651916
1631290412988,0.3784592449665069,0.7772319912910461,0.1329968720674514,0.5509017705917358
1631290413058,0.3882355391979217,0.7772319912910461,0.2969890236854553,0.6074303388595581
1631290413259,0.3934849500656128,0.7333670854568481,0.3962869942188263,0.6595786809921265
1631290413294,0.3934849500656128,0.2675781846046448,0.4571923911571502,0.6595786809921265
1631290413338,0.3934849500656128,0.2675781846046448,0.4702683091163635,0.6595786809921265
1631290413550,0.3934849500656128,0.2675781846046448,0.4702683091163635,0.6595786809921265
1631290413589,0.3934849500656128,0.3497822880744934,0.4748554825782776,0.6595786809921265
1631290413642,0.3934849500656128,0.3664328753948211,0.4748554825782776,0.6595786809921265
1631290413679,0.3934849500656128,0.3532361984252929,0.4748554825782776,0.6595786809921265
1631290413826,0.3934849500656128,0.2216927409172058,0.4748554825782776,0.6595786809921265
1631290413827,0.3934849500656128,0.312604159116745,0.4748554825782776,0.6595786809921265
1631290413918,0.3847545087337494,0.13840252161026,0.4755024909973144,0.6350981593132019
1631290414037,0.3842356204986572,0.224882885813713,0.4879550039768219,0.6054471135139465
1631290414159,0.3800033926963806,0.3176861107349396,0.5218229293823242,0.5935591459274292
1631290414361,0.3800033926963806,0.3637552261352539,0.5474829077720642,0.5935591459274292
1631290414364,0.3800033926963806,0.3589842915534973,0.5458670854568481,0.5935591459274292
1631290414439,0.3800033926963806,0.3638943135738373,0.5474829077720642,0.5935591459274292
1631290414577,0.3800033926963806,0.3638943135738373,0.5474829077720642,0.5935591459274292
1631290414692,0.3800033926963806,0.3638943135738373,0.5381457209587097,0.5935591459274292
1631290414779,0.3800033926963806,0.3638943135738373,0.498816430568695,0.4506618976593017
1631290414946,0.3800033926963806,0.3638943135738373,0.4449029862880707,0.4525698721408844
1631290415257,0.3800033926963806,0.3635791540145874,0.4042404890060425,0.466649979352951
1631290415474,0.3800033926963806,0.3433266282081604,0.3841394782066345,0.4768421649932861
1631290415714,0.3800033926963806,0.3433266282081604,0.3841394782066345,0.4880529046058655
1631290415831,0.3800033926963806,0.3433266282081604,0.3841394782066345,0.4970472157001495
1631290415869,0.3800033926963806,0.3433266282081604,0.3841394782066345,0.4970472157001495
1631290415927,0.3633025884628296,0.3433266282081604,0.3841394782066345,0.4970472157001495
1631290415964,0.5218001008033752,0.3433266282081604,0.3841394782066345,0.5488373637199402
1631290416026,1.4908816814422607,1.4343708753585815,1.4335732460021973,1.4765468835830688
1631290416078,1.4908816814422607,1.4343708753585815,1.4335732460021973,1.933164477348328
1631290416206,1.4908816814422607,1.4343708753585815,1.4335732460021973,1.933164477348328
1631290416246,1.4908816814422607,1.4343708753585815,1.4335732460021973,1.933164477348328
1631290416438,1.4908816814422607,1.4343708753585815,1.4335732460021973,1.933164477348328
1631290416537,1.4908816814422607,1.4343708753585815,1.4335732460021973,1.933164477348328
1631290416619,1.4908816814422607,1.4343708753585815,1.4335732460021973,1.933164477348328
1631290416687,1.4908816814422607,1.4343708753585815,1.4335732460021973,1.933164477348328
1631290416754,1.4908816814422607,1.4895665645599363,1.4335732460021973,1.933164477348328
1631290416816,1.4908816814422607,1.4895665645599363,1.4335732460021973,1.933164477348328
1631290416853,1.4908816814422607,1.4986286163330078,1.4335732460021973,1.933164477348328
1631290416911,1.4908816814422607,1.4986286163330078,1.4335732460021973,1.933164477348328
1631290416946,1.4908816814422607,1.4986286163330078,1.4335732460021973,1.933164477348328
1631290417029,1.4908816814422607,1.4986286163330078,1.4335732460021973,1.933164477348328
1631290417116,1.4908816814422607,1.4986286163330078,1.4335732460021973,1.933164477348328
1631290417184,0.7218447923660278,1.4384918212890625,0.1059790253639221,1.933164477348328
1631290417250,0.7026910781860352,1.4384918212890625,0.1168620064854621,1.1104298830032349
1631290417475,0.4830094575881958,1.4384918212890625,0.1094665899872779,1.1103931665420532
1631290417505,0.4836136102676391,1.4384918212890625,0.1149939149618148,1.1103931665420532
1631290417589,0.5747267007827759,1.4384918212890625,0.4067406952381134,1.1235624551773071
1631290417933,0.5747267007827759,1.4384918212890625,0.4162665009498596,1.1235624551773071
1631290417987,0.5747267007827759,1.4384918212890625,0.4229818880558014,1.1235624551773071
1631290418039,0.5747267007827759,1.4384918212890625,0.4251328706741333,1.1270887851715088
1631290418079,0.5854041576385498,1.3061649799346924,0.4251328706741333,1.1288161277770996
1631290418109,0.6194518208503723,1.275921106338501,0.4251328706741333,0.9241988062858582
1631290418262,0.6379544734954834,0.2357402145862579,0.4251328706741333,0.926108181476593
1631290418309,0.6693854928016663,0.2255435585975647,0.4251328706741333,0.926108181476593
1631290418547,0.6862366795539856,0.2266435474157333,0.3940612375736236,0.926108181476593
1631290418605,0.6862366795539856,0.2205314040184021,0.3861719071865082,0.8930743932723999
1631290418758,0.6749371290206909,0.2167380899190902,0.3828044533729553,0.861930787563324
1631290418805,0.6672114729881287,0.2167380899190902,0.3828044533729553,0.8381425738334656
1631290418898,0.6657164692878723,0.2167380899190902,0.3828044533729553,0.828484058380127
1631290419041,0.6797550916671753,0.2171612679958343,0.3828044533729553,0.8142161965370178
1631290419158,0.7212032079696655,0.2462841272354126,0.3828044533729553,0.7964988350868225
1631290419220,0.6248641014099121,0.2294002175331115,0.0490102432668209,0.6681198477745056
1631290419275,0.6248641014099121,0.3076202869415283,0.1109596043825149,0.6451480984687805
1631290419304,0.6248641014099121,0.3607159554958343,0.1412589997053146,0.6306236982345581
1631290419654,0.6248641014099121,0.3876566886901855,0.1516385227441787,0.6220584511756897
1631290419693,0.6207709908485413,0.4022358953952789,0.1327220201492309,0.602515459060669
1631290419783,0.618126392364502,0.4271053671836853,0.1094521284103393,0.5626753568649292
1631290419959,0.5938980579376221,0.4495173096656799,0.1055196151137352,0.5349106788635254
1631290420031,0.5561767220497131,0.4495173096656799,0.1055196151137352,0.5069290995597839
1631290420136,0.5312771201133728,0.4495173096656799,0.1055196151137352,0.4350262284278869
1631290420220,0.5172295570373535,0.4495173096656799,0.1055196151137352,0.3174167573451996
1631290420289,0.51418137550354,0.6659426689147949,0.1055196151137352,0.2565184831619262
1631290420341,0.51418137550354,0.7712356448173523,0.1055196151137352,0.2565184831619262
1631290420395,0.51418137550354,0.8362779021263123,0.1055196151137352,0.2565184831619262
1631290420441,0.51418137550354,0.8455310463905334,0.0953816995024681,0.2565184831619262
1631290420554,0.51418137550354,0.8481695055961609,0.0833620354533195,0.2565184831619262
1631290420758,0.51418137550354,0.8485945463180542,0.0833620354533195,0.2565184831619262
1631290421009,0.51418137550354,0.8481729030609131,0.0833620354533195,0.2565184831619262
1631290421146,0.51418137550354,0.8481729030609131,0.0833620354533195,0.2565184831619262
1631290421391,0.51418137550354,0.8481729030609131,0.0833620354533195,0.2565184831619262
1631290421457,0.51418137550354,0.8481729030609131,0.0833620354533195,0.2565184831619262
1631290421526,0.51418137550354,0.8481603264808655,-0.1956973224878311,0.2565184831619262
1631290421717,0.51418137550354,0.8481603264808655,-0.0834240019321441,0.2565184831619262
1631290421877,0.51418137550354,0.9368317723274232,0.7883018255233765,0.2565184831619262
1631290421885,0.51418137550354,0.9368317723274232,0.7864998579025269,0.2565184831619262
1631290422002,0.8336098194122314,0.9368317723274232,0.7883018255233765,0.202644482254982
1631290422094,0.8336098194122314,0.9368317723274232,0.7883018255233765,0.2092832624912262
1631290422111,0.8336098194122314,0.9345399737358092,0.7883018255233765,0.2290920466184616
1631290422191,0.8336098194122314,0.8964306712150574,1.4742982387542725,0.2290920466184616
1631290422205,0.8336098194122314,0.8392217755317688,1.4742982387542725,0.2290920466184616
1631290422250,0.8336098194122314,0.809194803237915,1.4742982387542725,0.2290920466184616
1631290422476,0.8336098194122314,0.808332085609436,1.4742982387542725,0.2290920466184616
1631290422557,0.8336098194122314,0.808332085609436,1.4742982387542725,0.2290920466184616
1631290422584,0.8336098194122314,1.418720006942749,1.4742982387542725,0.2290920466184616
1631290422675,0.8336098194122314,1.418720006942749,1.4742982387542725,0.2290920466184616
1631290422769,0.8336098194122314,1.418720006942749,1.4742982387542725,0.2290920466184616
1631290422821,0.8336098194122314,1.418720006942749,1.4742982387542725,0.2290920466184616
1631290423206,0.8336098194122314,1.418720006942749,1.4742982387542725,0.1514180898666381
1631290423239,-0.0992634072899818,1.4344029426574707,1.478378415107727,0.0848762467503547
1631290423361,-0.0992634072899818,1.4344029426574707,1.478378415107727,0.0848762467503547
1631290423491,-0.0992634072899818,1.4344029426574707,1.478378415107727,0.0848762467503547
1631290423824,-0.0992634072899818,1.4344029426574707,1.478378415107727,0.0848762467503547
1631290423854,-0.0992634072899818,1.4344029426574707,1.478378415107727,0.0848762467503547
1631290423855,-0.0992634072899818,1.463173508644104,1.2724052667617798,0.0848762467503547
1631290423932,-0.0992634072899818,1.463173508644104,1.2724052667617798,0.0848762467503547
1631290424124,-0.0992634072899818,1.463173508644104,1.2724052667617798,0.0848762467503547
1631290424148,-0.0992634072899818,1.463173508644104,1.2724052667617798,0.0848762467503547
1631290424178,-0.0992634072899818,1.5520827770233154,1.2724052667617798,0.0848762467503547
1631290424337,-0.0992634072899818,1.524991154670715,1.2724052667617798,0.0848762467503547
1631290424469,-0.0992634072899818,1.524991154670715,1.2724052667617798,0.0848762467503547
1631290424591,0.5425326824188232,1.524991154670715,1.2724052667617798,0.0848762467503547
1631290424720,0.5425326824188232,1.524991154670715,1.2724052667617798,0.0848762467503547
1631290424907,0.5425326824188232,1.524991154670715,1.2724052667617798,0.0848762467503547
1631290424907,0.5425326824188232,1.506630301475525,1.237216591835022,0.0848762467503547
1631290424971,0.5425326824188232,1.506630301475525,1.237216591835022,0.0848762467503547
1631290425000,0.5425326824188232,1.5232114791870115,1.336894989013672,0.0848762467503547
1631290425032,0.5425326824188232,1.5232114791870115,1.336894989013672,0.0848762467503547
1631290425081,0.5425326824188232,1.5232114791870115,1.336894989013672,0.0848762467503547
1631290425116,0.5425326824188232,1.503409743309021,1.2874246835708618,0.0848762467503547
1631290425172,0.5425326824188232,1.503409743309021,1.2874246835708618,0.0848762467503547
1631290425258,0.5425326824188232,1.564368724822998,1.2874246835708618,0.0848762467503547
1631290425291,0.5425326824188232,1.564368724822998,1.2874246835708618,0.0848762467503547
1631290425378,0.5425326824188232,1.474467635154724,1.2874246835708618,0.0848762467503547
1631290425458,0.5425326824188232,1.474467635154724,1.2874246835708618,0.0848762467503547
1631290425791,0.5425326824188232,1.474467635154724,1.2874246835708618,0.0848762467503547
1631290425993,0.5425326824188232,1.474467635154724,1.2874246835708618,0.0848762467503547
1631290426056,0.5425326824188232,1.5274059772491455,1.2874246835708618,0.0848762467503547
1631290426238,0.5425326824188232,1.5274059772491455,1.2874246835708618,0.0848762467503547
1631290426286,0.5425326824188232,1.5274059772491455,1.2874246835708618,0.0848762467503547
1631290426380,0.5425326824188232,1.5274059772491455,1.2874246835708618,0.0848762467503547
1631290426465,0.5425326824188232,1.4813107252120972,0.6457955241203308,0.0848762467503547
1631290426475,0.5425326824188232,1.4813107252120972,0.6457955241203308,0.0848762467503547
1631290426582,0.5425326824188232,1.4813107252120972,0.6457955241203308,0.0848762467503547
1631290426585,0.5425326824188232,1.4813107252120972,0.6457955241203308,0.0848762467503547
1631290426691,0.5425326824188232,1.4160056114196775,0.6405442357063293,0.0848762467503547
1631290426693,0.5425326824188232,1.4813107252120972,0.6457955241203308,0.0848762467503547
1631290427024,0.5425326824188232,1.4160056114196775,0.5899746417999268,0.0848762467503547
1631290427074,0.5425326824188232,1.4160056114196775,0.4740287065505981,0.0848762467503547
1631290427139,0.5425326824188232,1.4160056114196775,0.4033690094947815,0.0848762467503547
1631290427333,0.5425326824188232,1.4160056114196775,0.3548271656036377,0.0848762467503547
1631290427355,0.5425326824188232,1.4160056114196775,0.3548271656036377,0.0848762467503547
1631290427509,0.5425326824188232,1.0764766931533811,0.3548271656036377,0.0848762467503547
1631290427604,0.5425326824188232,1.0764766931533811,0.3548271656036377,0.0848762467503547
1631290427650,0.5425326824188232,0.3452328145503998,0.3548271656036377,0.0848762467503547
1631290427712,0.5425326824188232,0.3325527608394623,0.3548271656036377,0.0848762467503547
1631290427740,0.5425326824188232,0.3137227594852447,0.3548271656036377,0.0848762467503547
1631290427787,0.5425326824188232,0.2826638221740722,0.3548271656036377,0.0848762467503547
1631290427893,0.5425326824188232,0.2657740116119385,0.3548271656036377,0.0848762467503547
1631290428049,0.5425326824188232,0.2815974354743957,0.3548271656036377,0.0848762467503547
1631290428171,0.5425326824188232,0.3150798678398132,0.3548271656036377,0.0848762467503547
1631290428232,0.5425326824188232,0.3278215527534485,0.3548271656036377,0.0848762467503547
1631290428301,0.5425326824188232,0.3278215527534485,0.3548271656036377,0.0848762467503547
1631290428466,0.5425326824188232,0.3278215527534485,-0.0908310115337371,0.0848762467503547
1631290428501,0.5425326824188232,0.3280068337917328,-0.0908310115337371,0.0848762467503547
1631290428680,0.5425326824188232,0.3280068337917328,-0.0908310115337371,0.0848762467503547
1631290428743,0.5425326824188232,0.3280068337917328,-0.0908310115337371,0.0848762467503547
1631290428769,0.5425326824188232,0.3224799036979675,-0.0908310115337371,0.0848762467503547
1631290428861,0.5425326824188232,0.3051742911338806,-0.0908310115337371,0.0848762467503547
1631290429022,0.5425326824188232,0.2756609916687011,-0.0908310115337371,0.0848762467503547
1631290429023,0.5425326824188232,0.2483014911413192,-0.0908310115337371,0.0848762467503547
1631290429311,-0.1123114898800849,0.2364431321620941,-0.0908310115337371,0.182031974196434
1631290429358,-0.0841820985078811,0.2332555204629898,-0.0908310115337371,0.1991829723119735
1631290429391,-0.0569351054728031,0.2301220893859863,-0.1023001968860626,0.2193669378757476
1631290429557,-0.044012289494276,0.2238186746835708,-0.1741463392972946,0.2285641878843307
1631290429592,-0.0167655833065509,0.1667356938123703,-0.1192630007863044,0.2943143248558044
1631290429674,0.1047627031803131,0.1210712641477584,-0.0625587552785873,0.467739999294281
1631290429900,0.3476142585277557,0.075243555009365,-0.0645045191049575,0.5864152908325195
1631290429960,0.6086320877075195,0.0184133108705282,-0.0505938865244388,0.6369581818580627
1631290430153,0.7663760185241699,-0.0339642316102981,0.0167998000979423,0.6478831768035889
1631290430342,0.8042938113212585,-0.0509312748908996,0.067892275750637,0.6478831768035889
1631290430396,0.8050438165664673,-0.0403160788118839,0.0812031105160713,0.6478831768035889
1631290430444,0.8067368865013123,-0.024842208251357,0.0960802212357521,0.6478831768035889
1631290430679,0.809904158115387,-0.0236349403858184,0.1051591783761978,0.6379996538162231
1631290430767,0.8175029754638672,-0.022548584267497,0.1051591783761978,0.6208314895629883
1631290430830,0.8226630091667175,-0.0143423769623041,0.1051591783761978,0.6186506748199463
1631290430837,0.8226630091667175,-0.0143423769623041,0.1051591783761978,0.6186506748199463
1631290430910,0.8226630091667175,-0.0143423769623041,0.1452353000640869,0.6186506748199463
1631290431024,0.8226630091667175,-0.0143423769623041,0.3082864582538605,0.6186506748199463
1631290431065,0.8226630091667175,-0.0146077079698443,0.4871783554553985,0.6182730793952942
1631290431228,0.8226630091667175,-0.0422766059637069,0.5688693523406982,0.6105296611785889
1631290431316,0.8226630091667175,-0.0780858248472213,0.5688693523406982,0.5982141494750977
1631290431439,0.8226630091667175,-0.0847255811095237,0.5688693523406982,0.5838125944137573
1631290431549,0.8183040618896484,-0.0863125547766685,0.5688693523406982,0.5666288137435913
1631290431566,0.8040828704833984,-0.077672891318798,0.5667580962181091,0.5220012068748474
1631290431657,0.7047073841094971,-0.0754091516137123,0.5540955066680908,0.4631585478782654
1631290431810,0.5001265406608582,-0.0810528919100761,0.5315585732460022,0.4631585478782654
1631290431867,0.5001265406608582,-0.0939920395612716,0.5464880466461182,0.4631585478782654
1631290432045,0.5001265406608582,-0.0940664559602737,0.5615735650062561,0.4631585478782654
1631290432170,0.5001265406608582,-0.1082924902439117,0.5706093311309814,0.4631585478782654
1631290432321,0.5001265406608582,-0.128432884812355,0.5706093311309814,0.4631585478782654
1631290432431,-0.1084624230861663,-0.1144783869385719,0.5706093311309814,0.4248348176479339
1631290432556,-0.0944338664412498,-0.0365265011787414,0.5706093311309814,0.4663666784763336
1631290432675,-0.0416324101388454,-0.0008077849633991,0.5726045966148376,0.5002253651618958
1631290432847,0.1047459319233894,-0.0050046625547111,0.5695776343345642,0.5017499923706055
1631290432919,0.2315372675657272,-0.011254409328103,0.534140944480896,0.5174691081047058
1631290432982,0.311516523361206,-0.0118747651576995,0.4000488221645355,0.5438306927680969
1631290433137,0.3647328317165375,-0.0118747651576995,0.2397819310426712,0.5568370223045349
1631290433208,0.3958059847354889,-0.0118747651576995,0.1610725224018097,0.5713533163070679
1631290433272,0.4420044124126434,-0.0118747651576995,0.138584166765213,0.5853976011276245
1631290433333,0.4749979674816131,-0.0118747651576995,0.1001923307776451,0.6193650364875793
1631290433431,0.4864451587200165,-0.0118747651576995,0.1132760271430015,0.654070258140564
1631290433695,0.4934310913085937,-0.0120284929871559,0.1217073127627372,0.6982341408729553
1631290433767,0.5215125679969788,-0.0171796306967735,0.1071679890155792,0.727117657661438
1631290433817,0.5439491868019104,-0.0167590398341417,0.1066306754946708,0.7348451018333435
1631290433854,0.562919557094574,0.0119842160493135,0.078646183013916,0.7505411505699158
1631290434090,0.6141055822372437,0.0638807564973831,0.0232047718018293,0.7668699026107788
1631290434160,0.6379090547561646,0.0825554654002189,-0.035432856529951,0.8008509278297424
1631290434213,0.6508973836898804,0.0665676668286323,-0.0468860268592834,0.8359255194664001
1631290434439,0.6619998812675476,0.0522136688232421,-0.0690815076231956,0.8528522253036499
1631290434469,0.6638080477714539,0.1266250759363174,-0.0645647868514061,0.8535330891609192
1631290434573,0.7032814025878906,0.3138443827629089,0.2802134454250335,0.8692405223846436
1631290434579,0.6654065251350403,0.2148588746786117,-0.0046524819917976,0.8594208359718323
1631290434707,0.7370971441268921,0.4072500765323639,0.4665060341358185,0.912672221660614
1631290434786,0.7369818687438965,0.4656506776809692,0.5039633512496948,0.9465171098709106
1631290434842,0.7311770915985107,0.4831925332546234,0.5039633512496948,0.9465171098709106
1631290434913,0.7363196611404419,0.4838966727256775,0.5039633512496948,0.9465171098709106
1631290435057,0.7899129986763,0.4858083426952362,0.5039633512496948,0.9465171098709106
1631290435218,0.8450241684913635,0.4866591393947601,0.5039633512496948,0.945826292037964
1631290435274,0.8918344378471375,0.4874343574047088,0.5039633512496948,0.9358786344528198
1631290435608,0.894624650478363,0.499142050743103,0.5039633512496948,0.9463307857513428
1631290435761,0.894624650478363,0.499142050743103,0.5039633512496948,0.944215714931488
1631290435891,0.894624650478363,0.499142050743103,0.5039633512496948,0.941656768321991
1631290435954,0.894624650478363,0.499142050743103,0.5039633512496948,0.941656768321991
1631290436263,0.894624650478363,0.499142050743103,0.5039633512496948,0.9296626448631288
1631290436407,1.2963320016860962,1.244768500328064,0.5039633512496948,0.9116546511650084
1631290436493,1.2963320016860962,1.244768500328064,0.5039633512496948,0.9076880812644958
1631290436518,1.2963320016860962,1.244768500328064,0.5351153016090393,0.9076880812644958
1631290436605,1.309858798980713,1.255505919456482,0.5310875773429871,0.9076880812644958
1631290436807,1.305719971656799,1.255505919456482,0.2746497690677643,0.8643795847892761
1631290436945,1.3961894512176514,1.3701493740081787,1.2543598413467407,1.2710427045822144
1631290437073,1.3961894512176514,1.3701493740081787,1.2543598413467407,1.2710427045822144
1631290437111,1.439100742340088,1.3852092027664185,1.3942043781280518,1.2710427045822144
1631290437177,1.439100742340088,1.3852092027664185,1.3942043781280518,1.39079487323761
1631290437347,1.4548736810684204,1.3897724151611328,1.4750076532363892,1.524064540863037
1631290437414,1.4548736810684204,1.3897724151611328,1.4750076532363892,1.5476608276367188
1631290437547,1.4548736810684204,1.3897724151611328,1.4750076532363892,1.5476608276367188
1631290437568,1.461333155632019,1.3897724151611328,1.4750076532363892,1.7337571382522583
1631290437593,1.461333155632019,1.3897724151611328,1.4750076532363892,2.1858487129211426
1631290437653,1.461333155632019,1.4291609525680542,1.4750076532363892,2.1858487129211426
1631290437704,1.4569591283798218,1.5659619569778442,1.56355619430542,2.1858487129211426
1631290437745,1.4569591283798218,1.7770508527755735,1.56355619430542,2.1858487129211426
1631290437945,1.4569591283798218,1.7770508527755735,1.56355619430542,2.1858487129211426
1631290437984,1.4569591283798218,1.7770508527755735,1.56355619430542,2.1858487129211426
1631290437985,1.4569591283798218,1.7770508527755735,1.56355619430542,2.1858487129211426
1631290438191,1.4114675521850586,1.7770508527755735,1.5583897829055786,2.1858487129211426
1631290438474,1.4114675521850586,1.7770508527755735,1.573636531829834,2.1858487129211426
1631290438488,1.3659747838974,1.7770508527755735,1.569892168045044,2.1858487129211426
1631290438527,1.3659747838974,1.7861322164535522,1.6112420558929443,2.1858487129211426
1631290438541,1.108757257461548,1.7857353687286377,1.605718016624451,2.1858487129211426
1631290438566,1.108757257461548,1.786361813545227,1.6256343126296997,2.1858487129211426
1631290438676,1.108757257461548,1.786361813545227,1.6256343126296997,2.1858487129211426
1631290438695,1.108757257461548,1.786361813545227,1.6256343126296997,2.1858487129211426
1631290438696,1.108757257461548,1.786361813545227,1.6256343126296997,2.1858487129211426
1631290438776,1.108757257461548,1.786361813545227,1.6256343126296997,2.1858487129211426
1631290438819,1.108757257461548,1.7737419605255127,1.6206940412521362,2.1858487129211426
1631290438996,1.108757257461548,1.6892855167388916,1.6206940412521362,2.1858487129211426
1631290439075,0.6372145414352417,1.6892855167388916,1.6206940412521362,2.1858487129211426
1631290439124,0.6488444805145264,1.6892855167388916,1.6206940412521362,1.4455513954162598
1631290439197,0.6635146737098694,1.6892855167388916,1.6206940412521362,1.4455513954162598
1631290439325,0.6689591407775879,1.6892855167388916,1.6206940412521362,1.4455513954162598
1631290439534,1.5925053358078003,2.021979331970215,1.6022673845291138,2.2551753520965576
1631290439785,1.5925053358078003,2.021979331970215,1.6022673845291138,2.2551753520965576
1631290439842,1.5925053358078003,2.0104055404663086,1.4670144319534302,2.2551753520965576
1631290439872,1.5925053358078003,2.0104055404663086,1.4670144319534302,2.2551753520965576
1631290440125,1.5925053358078003,2.0104055404663086,1.3779246807098389,2.2551753520965576
1631290440220,1.5925053358078003,2.0104055404663086,1.3779246807098389,2.2551753520965576
1631290440342,1.5925053358078003,2.0104055404663086,1.3779246807098389,2.2551753520965576
1631290440409,1.5925053358078003,2.0104055404663086,1.3779246807098389,2.2551753520965576
1631290440439,1.5925053358078003,2.0104055404663086,1.3779246807098389,2.2551753520965576
1631290440667,1.5925053358078003,2.0104055404663086,1.3779246807098389,2.2551753520965576
1631290440777,1.5925053358078003,2.0104055404663086,1.3779246807098389,2.2551753520965576
1631290440966,1.5925053358078003,2.0104055404663086,1.3779246807098389,2.2551753520965576
1631290441274,1.5925053358078003,2.0104055404663086,1.3779246807098389,2.2551753520965576
1631290441343,1.5925053358078003,2.0104055404663086,1.3779246807098389,2.2551753520965576
1631290441522,1.5925053358078003,2.0104055404663086,1.3779246807098389,2.2551753520965576
1631290441535,1.5925053358078003,1.4175724983215332,0.6022352576255798,2.2551753520965576
1631290441560,1.5925053358078003,0.1533587574958801,0.6022352576255798,2.2551753520965576
1631290441645,1.5925053358078003,0.1533587574958801,0.6022352576255798,2.2551753520965576
1631290441699,1.5925053358078003,0.1521755307912826,1.4064507484436035,2.2551753520965576
1631290441738,1.5925053358078003,0.1416227519512176,1.4064507484436035,2.2551753520965576
1631290441859,1.5925053358078003,0.1091124787926673,1.4064507484436035,2.2551753520965576
1631290441919,1.5925053358078003,0.0913644656538963,1.4064507484436035,2.2551753520965576
1631290441964,1.5925053358078003,0.0893983840942382,1.4064507484436035,2.2551753520965576
1631290442114,1.5925053358078003,0.0311565399169921,1.4064507484436035,2.2551753520965576
1631290442190,1.5925053358078003,-0.0311381909996271,1.4064507484436035,2.2551753520965576
1631290442301,1.5925053358078003,1.7279707193374634,1.4064507484436035,2.2551753520965576
1631290442378,1.5925053358078003,1.7271995544433594,1.4064507484436035,2.2551753520965576
1631290442462,1.5925053358078003,1.7271995544433594,1.4064507484436035,2.2551753520965576
1631290442612,2.3678855895996094,1.90155029296875,1.4356586933135986,1.850709080696106
1631290442669,2.3678855895996094,1.90155029296875,1.4356586933135986,1.854793667793274
1631290442733,2.3678855895996094,1.90155029296875,1.4356586933135986,1.854793667793274
1631290442787,2.3678855895996094,1.90155029296875,1.4356586933135986,1.854793667793274
1631290442961,2.3678855895996094,1.90155029296875,1.4356586933135986,1.854793667793274
1631290443038,2.3678855895996094,1.90155029296875,1.2129048109054563,1.867351055145264
1631290443084,2.3678855895996094,1.90155029296875,1.2129048109054563,1.867351055145264
1631290443238,2.3678855895996094,1.90155029296875,1.2129048109054563,1.867351055145264
1631290443328,2.3678855895996094,1.90155029296875,1.2129048109054563,1.867351055145264
1631290443539,2.3678855895996094,1.90155029296875,1.2129048109054563,1.867351055145264
1631290443625,2.3678855895996094,1.90155029296875,1.2129048109054563,1.867351055145264
1631290443729,2.3678855895996094,1.90155029296875,1.2129048109054563,1.867351055145264
1631290443825,2.3678855895996094,1.767798900604248,1.2129048109054563,1.8605637550354004
1631290443869,2.3678855895996094,1.767798900604248,1.367821216583252,1.8605637550354004
1631290443998,1.760871648788452,1.767798900604248,1.367821216583252,1.8605637550354004
1631290444092,1.2654982805252075,1.315102458000183,1.229603290557861,1.5385396480560305
1631290444611,0.1092428788542747,1.266268253326416,1.229603290557861,1.511324167251587
1631290444714,0.1092428788542747,1.266268253326416,1.229603290557861,1.511324167251587
1631290444983,0.1086920425295829,1.266268253326416,1.229603290557861,1.511324167251587
1631290445151,0.0953298285603523,1.266268253326416,1.229603290557861,1.511324167251587
1631290445185,0.0482750572264194,1.3516240119934082,1.364972472190857,1.335732340812683
1631290445217,-0.0434945300221443,2.1520230770111084,1.364972472190857,1.335732340812683
1631290445253,-0.1061407551169395,2.1520230770111084,1.364972472190857,1.1173840761184692
1631290445283,-0.1061407551169395,2.1584582328796387,1.7836722135543823,1.1173840761184692
1631290445324,-0.1061407551169395,2.1584582328796387,1.7836722135543823,1.1173840761184692
1631290445390,-0.1061407551169395,2.1584582328796387,1.7836722135543823,1.0899231433868408
1631290445427,-0.1061407551169395,2.1584582328796387,1.7836722135543823,1.0813060998916626
1631290445465,0.0791505128145217,2.1584582328796387,1.7836722135543823,1.3337799310684204
1631290445501,1.3409755229949951,2.1584582328796387,1.7885082960128784,1.3252874612808228
1631290445527,1.3409755229949951,2.438232183456421,1.7885082960128784,1.4839037656784058
1631290445572,1.3409755229949951,2.438232183456421,1.7958970069885254,1.52843177318573
1631290445603,1.3409755229949951,2.438232183456421,1.7958970069885254,1.533320069313049
1631290445745,1.3409755229949951,2.438232183456421,1.7958970069885254,1.9803714752197263
1631290445762,1.4996498823165894,2.438232183456421,1.7958970069885254,1.9803714752197263
1631290446002,1.4996498823165894,2.438232183456421,1.7958970069885254,1.9803714752197263
1631290446281,1.4996498823165894,2.438232183456421,1.7860209941864014,1.9803714752197263
1631290446508,1.4996498823165894,2.4367380142211914,1.7860209941864014,1.9803714752197263
1631290446801,1.4996498823165894,2.4367380142211914,1.7860209941864014,1.9803714752197263
1631290446885,1.4996498823165894,2.434060573577881,1.4182277917861938,1.9803714752197263
1631290446976,1.4996498823165894,2.434060573577881,1.4182277917861938,1.9803714752197263
1631290447022,1.4996498823165894,2.434060573577881,1.4182277917861938,1.9803714752197263
1631290447042,1.4996498823165894,2.434060573577881,1.4182277917861938,1.9803714752197263
1631290447108,1.4996498823165894,2.434060573577881,1.4182277917861938,1.9803714752197263
1631290447144,1.4996498823165894,2.434060573577881,1.3751420974731443,1.9803714752197263
1631290447199,1.4996498823165894,2.041287422180176,1.3751420974731443,1.9803714752197263
1631290447233,1.4996498823165894,2.0148541927337646,1.246901512145996,1.9803714752197263
1631290447282,1.4996498823165894,2.0148541927337646,0.7837082743644714,1.9803714752197263
1631290447317,1.4996498823165894,1.5147252082824707,0.7837082743644714,1.9803714752197263
1631290447365,1.4996498823165894,1.5034582614898682,0.7837082743644714,1.9803714752197263
1631290447420,1.4996498823165894,1.5034582614898682,0.7837082743644714,1.9803714752197263
1631290447464,1.4996498823165894,1.5034582614898682,0.7837082743644714,1.9803714752197263
1631290447533,1.4996498823165894,1.416642427444458,0.7837082743644714,1.9803714752197263
1631290447598,1.4996498823165894,1.401229977607727,0.7837082743644714,1.9803714752197263
1631290447662,1.4996498823165894,1.401229977607727,0.7837082743644714,1.9803714752197263
1631290447699,1.4996498823165894,1.401229977607727,0.7837082743644714,1.9803714752197263
1631290447757,1.4996498823165894,1.401229977607727,0.7837082743644714,1.9803714752197263
1631290447911,1.4996498823165894,1.401229977607727,0.7837082743644714,1.9803714752197263
1631290447936,1.4996498823165894,1.401229977607727,0.7837082743644714,1.9803714752197263
1631290448145,1.4996498823165894,1.401229977607727,0.7837082743644714,1.9803714752197263
1631290448170,1.4996498823165894,1.401229977607727,0.7837082743644714,1.9803714752197263
1631290448268,1.4996498823165894,1.401229977607727,0.7837082743644714,1.9803714752197263
1631290448358,1.4996498823165894,1.401229977607727,0.7837082743644714,1.9803714752197263
1631290448440,1.4996498823165894,1.401229977607727,0.7837082743644714,1.9803714752197263
1631290448588,1.0104767084121704,1.401229977607727,0.7837082743644714,1.9803714752197263
1631290448656,1.0104767084121704,1.401229977607727,0.7837082743644714,0.6171246767044067
1631290448762,1.0104767084121704,1.401229977607727,0.7837082743644714,0.6787416338920593
1631290448953,1.0104767084121704,1.401229977607727,0.7837082743644714,0.7244848012924194
1631290449074,1.0104767084121704,1.401229977607727,0.7837082743644714,0.7427778244018555
1631290449075,1.0104767084121704,1.401229977607727,0.7837082743644714,0.7427778244018555
1631290449195,1.0104767084121704,1.401229977607727,0.7837082743644714,0.7427778244018555
1631290449277,1.0104767084121704,1.401229977607727,0.7837082743644714,0.7427778244018555
1631290449410,1.0104767084121704,1.401229977607727,0.7837082743644714,0.7427778244018555
1631290449501,1.0104767084121704,1.401229977607727,0.7837082743644714,0.7427778244018555
1631290449596,1.0104767084121704,1.401229977607727,0.7837082743644714,0.7427778244018555
1631290449659,1.0104767084121704,0.0889216437935829,0.7837082743644714,0.7461298704147339
1631290449767,0.999930202960968,0.0926408991217613,0.7837082743644714,0.7479979395866394
1631290449911,1.0020809173583984,0.0661082938313484,0.7837082743644714,0.7474459409713745
1631290450000,0.9923195838928224,-0.065104492008686,0.7837082743644714,0.7454141974449158
1631290450087,0.3715911507606506,0.0133946919813752,-0.7818864583969116,0.7289044260978699
1631290450158,0.3753198385238647,0.0266295000910758,-0.7678635120391846,0.7215759754180908
1631290450308,0.3753198385238647,0.026733024045825,-0.7227608561515808,0.7508384585380554
1631290450406,0.3753198385238647,0.026733024045825,-0.7188471555709839,0.756384015083313
1631290450508,0.3753223121166229,0.026733024045825,-0.7188471555709839,0.7061794996261597
1631290450680,0.3753223121166229,0.026733024045825,-0.7128574848175049,0.6615541577339172
1631290450792,0.3753223121166229,0.026733024045825,-0.6920095086097717,0.6615541577339172
1631290450858,0.3753223121166229,0.026733024045825,-0.4730514585971832,0.6615541577339172
1631290450899,0.3753223121166229,0.0426402129232883,-0.1248363703489303,0.6615541577339172
1631290451151,0.3753223121166229,0.0850245952606201,0.1255829632282257,0.6615541577339172
1631290451252,0.3753223121166229,0.08274657279253,0.2358339726924896,0.6615541577339172
1631290451309,0.3753223121166229,0.0705538764595985,0.2532841265201568,0.6595655083656311
1631290451336,0.3753223121166229,0.0642171800136566,0.2535300850868225,0.6464283466339111
1631290451462,0.3443575203418731,0.0657490789890289,0.2535300850868225,0.6377984881401062
1631290451525,0.3075289130210876,0.0738612040877342,0.2587878704071045,0.6377984881401062
1631290451590,0.2863855063915252,0.0988911017775535,0.2645384669303894,0.6377984881401062
1631290451811,0.2863855063915252,0.0932145565748214,0.2647850811481476,0.6377984881401062
1631290451828,0.2863855063915252,0.0915026441216468,0.2670440673828125,0.6377984881401062
1631290451939,0.2863855063915252,0.0950971096754074,0.2673673033714294,0.6377984881401062
1631290452003,0.2863855063915252,0.098100759088993,0.2673673033714294,0.6377984881401062
1631290452125,0.2863855063915252,0.1137019470334053,0.2673673033714294,0.6377984881401062
1631290452266,0.1035585775971412,0.1146029904484748,0.2698583602905273,0.3275219798088074
1631290452391,0.1291776150465011,0.1146029904484748,0.2751734852790832,0.3279858231544494
1631290452423,0.1352793425321579,0.1146029904484748,0.2780840694904327,0.3282005488872528
1631290452492,0.1406381726264953,0.1144403368234634,0.274470180273056,0.3504946529865265
1631290452731,0.1444503217935562,0.0830615386366844,0.2312499433755874,0.3695845603942871
1631290452811,0.146201342344284,0.0448990501463413,0.116066500544548,0.3754846453666687
1631290452881,0.146201342344284,0.0408635884523391,0.0440151765942573,0.3759103715419769
1631290452993,0.1532585024833679,0.0408635884523391,0.0302076134830713,0.3759103715419769
1631290453055,0.1812394559383392,0.0408635884523391,0.0128690153360366,0.3759103715419769
1631290453120,0.2111315280199051,0.0394633635878562,-0.0037116617895662,0.3759103715419769
1631290453242,0.2626874148845672,0.0567278452217578,-0.0185306668281555,0.3759103715419769
1631290453318,0.2907732725143432,0.1434237509965896,-0.0261170417070388,0.3759103715419769
1631290453481,0.298696368932724,0.2356506288051605,-0.032285951077938,0.3759103715419769
1631290453549,0.3048436641693115,0.2992877662181854,0.0480094254016876,0.3759103715419769
1631290453618,0.3303840160369873,0.4421476125717163,0.2283581644296646,0.3198184967041015
1631290453836,0.3580606281757355,0.5436105728149414,0.3915345072746277,0.3847705125808716
1631290453913,0.3555560410022735,0.5781574249267578,0.4615447223186493,0.3643858134746551
1631290453961,0.3430602252483368,0.5899470448493958,0.4818717241287231,0.3520635664463043
1631290454047,0.320098340511322,0.5899471044540405,0.4808005094528198,0.336590051651001
1631290454178,0.3101431131362915,0.5899471044540405,0.4798753261566162,0.3198017179965973
1631290454258,0.3037432432174682,0.5899471044540405,0.4798753261566162,0.2964365184307098
1631290454399,0.3014021217823028,0.5899471044540405,0.4798753261566162,0.2701750099658966
1631290454560,0.3014021217823028,0.5899471044540405,0.4798753261566162,0.2557501196861267
1631290454595,0.3014021217823028,0.5899471044540405,0.4798753261566162,0.2517746388912201
1631290454639,0.3014021217823028,0.5899471044540405,0.4798753261566162,0.247270405292511
1631290454767,0.3014021217823028,0.5899471044540405,0.4798753261566162,0.244732528924942
1631290454958,0.286931961774826,0.5886704325675964,0.4798753261566162,0.244732528924942
1631290454958,0.286931961774826,0.58657306432724,0.4798753261566162,0.244732528924942
1631290455123,0.286931961774826,0.58657306432724,0.4798753261566162,0.244732528924942
1631290455241,0.286931961774826,0.5756502747535706,0.4798753261566162,0.244732528924942
1631290455327,0.286931961774826,0.5461608171463013,0.478488028049469,0.244732528924942
1631290455492,0.286931961774826,0.4657496213912964,0.5094035863876343,0.244732528924942
1631290455627,0.286931961774826,0.5058972239494324,0.4869310855865478,0.244732528924942
1631290455721,0.8980541229248047,0.476862758398056,0.5075290203094482,0.244732528924942
1631290455779,0.9073526263237,0.4818120896816253,0.5081458687782288,0.244732528924942
1631290455807,0.9104438424110411,0.4914649128913879,0.5081458687782288,0.244732528924942
1631290455854,0.9176166653633118,0.4967136681079864,0.5081458687782288,0.244732528924942
1631290456059,0.9374598860740662,0.5025602579116821,0.5081458687782288,0.244732528924942
1631290456099,0.948908269405365,0.5064612627029419,0.5081458687782288,0.244732528924942
1631290456176,0.9506775140762328,0.518571138381958,0.5081458687782288,0.244732528924942
1631290456329,0.9506775140762328,0.5419589877128601,0.5081458687782288,0.244732528924942
1631290456408,0.9506775140762328,0.5557940006256104,0.5208668112754822,0.244732528924942
1631290456525,0.9506775140762328,0.5693103671073914,0.5600924491882324,0.244732528924942
1631290456611,0.9506775140762328,0.5805652737617493,0.5861716270446777,0.244732528924942
1631290456774,0.9506775140762328,0.5849320292472839,0.5979164838790894,0.244732528924942
1631290456882,0.9506775140762328,0.5861383676528931,0.603905975818634,0.244732528924942
1631290456975,0.9506775140762328,0.5869588851928711,0.6182494759559631,0.244732528924942
1631290457075,0.9281578063964844,0.5686612725257874,0.6028889417648315,0.244732528924942
1631290457174,0.8448517918586731,0.5476840734481812,0.5610859394073486,0.244732528924942
1631290457296,0.7849124073982239,0.5476840734481812,0.5249906182289124,0.244732528924942
1631290457375,0.7637198567390442,0.5476840734481812,0.5127151012420654,0.244732528924942
1631290457438,0.7562923431396484,0.5461082458496094,0.5127151012420654,0.244732528924942
1631290457532,0.7562923431396484,0.5427984595298767,0.5127151012420654,0.244732528924942
1631290457588,0.7562923431396484,0.5418193936347961,0.5127151012420654,0.244732528924942
1631290457747,0.7562923431396484,0.5418193936347961,0.5127151012420654,0.244732528924942
1631290457843,0.7562923431396484,0.5418193936347961,0.5108627080917358,0.244732528924942
1631290457953,0.7562923431396484,0.5378175973892212,0.5028797388076782,0.244732528924942
1631290458003,0.7562923431396484,0.4752439260482788,0.4832171499729156,0.244732528924942
1631290458149,0.7562923431396484,0.4139276146888733,0.4724096655845642,0.244732528924942
1631290458276,0.7562923431396484,0.3653551340103149,0.5646427869796753,0.244732528924942
1631290458345,1.090681552886963,0.3046051263809204,0.6349726319313049,0.244732528924942
1631290458452,1.0917301177978516,0.2326544374227523,0.6309525966644287,0.244732528924942
1631290458542,1.0917301177978516,0.1554790437221527,0.6278652548789978,0.244732528924942
1631290458699,1.0917301177978516,0.1261921823024749,0.6278652548789978,0.244732528924942
1631290458832,1.0917301177978516,0.1194380596280098,0.6278652548789978,0.244732528924942
1631290458882,1.0917301177978516,0.1209978237748146,0.6278652548789978,0.244732528924942
1631290458912,1.092082977294922,0.1090469807386398,0.6278652548789978,0.244732528924942
1631290459142,1.0927319526672363,0.0881231352686882,0.6278652548789978,0.244732528924942
1631290459175,1.0927319526672363,0.068338356912136,0.6278652548789978,0.244732528924942
1631290459196,1.0927319526672363,0.0551408417522907,0.6278652548789978,0.244732528924942
1631290459311,1.092594861984253,0.0944259688258171,0.6278652548789978,0.244732528924942
1631290459442,1.092594861984253,0.1512345075607299,0.6278652548789978,0.244732528924942
1631290459563,1.092594861984253,0.2265415638685226,0.6278652548789978,0.244732528924942
1631290459671,1.092594861984253,0.2782836854457855,0.6278652548789978,0.244732528924942
1631290459758,1.0898714065551758,0.2784221172332763,0.6285712718963623,0.244732528924942
1631290459865,1.0599021911621094,0.2784221172332763,0.5727465748786926,0.244732528924942
1631290459929,0.9044256806373596,0.2842192053794861,0.4404377937316894,0.244732528924942
1631290460035,0.6752680540084839,0.292976826429367,0.338571161031723,0.244732528924942
1631290460152,0.5105862617492676,0.2961209714412689,0.2986441254615783,0.244732528924942
1631290460326,0.5105862617492676,0.2961209714412689,0.3547892272472381,0.244732528924942
1631290460417,0.5105862617492676,0.2961209714412689,0.5071553587913513,0.244732528924942
1631290460498,0.5105862617492676,0.2961209714412689,0.5071553587913513,0.244732528924942
1631290460545,0.5105862617492676,0.2961209714412689,0.5071553587913513,0.244732528924942
1631290460637,0.5105862617492676,0.310642808675766,0.5071553587913513,0.244732528924942
1631290460757,0.5105862617492676,0.310642808675766,0.5071553587913513,0.244732528924942
1631290460875,0.5105862617492676,0.310642808675766,0.5071553587913513,0.244732528924942
1631290461011,0.5105862617492676,0.310642808675766,0.5071553587913513,0.244732528924942
1631290461070,0.5105862617492676,0.3197461664676666,0.5245774984359741,0.244732528924942
1631290461159,0.5105862617492676,0.3348117470741272,0.5971039533615112,0.244732528924942
1631290461433,0.5105862617492676,0.3393169045448303,0.6362254619598389,0.244732528924942
1631290461536,0.5105862617492676,0.333562821149826,0.6391302943229675,0.244732528924942
1631290461614,0.5105862617492676,0.3346063792705536,0.640705943107605,0.244732528924942
1631290461653,0.5105862617492676,0.3356343805789947,0.640705943107605,0.244732528924942
1631290461691,0.5105862617492676,0.3268688023090362,0.640705943107605,0.8502350449562073
1631290461758,0.5105862617492676,0.3268688023090362,0.640705943107605,0.8725142478942871
1631290461858,0.5105862617492676,0.327745646238327,0.605585515499115,0.872870922088623
1631290461954,0.4911392331123352,0.3338116705417633,0.605585515499115,0.872870922088623
1631290462258,0.5370146632194519,0.3378747999668121,0.605585515499115,0.8739048838615417
1631290462396,0.5644624829292297,0.287509560585022,0.605585515499115,0.8802538514137268
1631290462459,0.581530749797821,0.2228988260030746,0.605585515499115,0.8947193026542664
1631290462460,0.5748728513717651,0.213137999176979,0.605585515499115,0.8868972659111023
1631290462511,0.5988848805427551,0.2413306832313537,0.605585515499115,0.9000248908996582
1631290462592,0.6174231171607971,0.2782449126243591,0.5832899808883667,0.9000248908996582
1631290462744,0.6435539722442627,0.3735308647155761,0.5716925859451294,0.9002044200897217
1631290462862,0.7369769215583801,0.4529881775379181,0.566390872001648,0.9049997329711914
1631290462919,0.7897138595581055,0.4669484794139862,0.4939440488815307,0.8411774039268494
1631290462952,0.7909543514251709,0.4715414345264435,0.4301720261573791,0.7818159461021423
1631290463044,0.7909543514251709,0.4715414345264435,0.3845437467098236,0.7388603091239929
1631290463217,0.7725074887275696,0.4715414345264435,0.363308310508728,0.7218760251998901
1631290463324,0.766460120677948,0.4715414345264435,0.3595875203609466,0.7177867293357849
1631290463420,0.769991934299469,0.4715414345264435,0.3595875203609466,0.7177867293357849
1631290463517,0.770515501499176,0.4715414345264435,0.3595875203609466,0.7177867293357849
1631290463639,0.770515501499176,0.4715414345264435,0.3615395128726959,0.7177867293357849
1631290463744,0.7703222036361694,0.4715414345264435,0.3612002730369568,0.7177867293357849
1631290463806,0.7647122740745544,0.4715414345264435,0.3587488234043121,0.6941606998443604
1631290464095,0.7496138215065002,0.4715414345264435,0.3519083559513092,0.6115602850914001
1631290464164,0.745032548904419,0.4715414345264435,0.349547266960144,0.5737726092338562
1631290464217,0.745032548904419,0.4715414345264435,0.345791608095169,0.5665286779403687
1631290464274,0.742230236530304,0.4715414345264435,0.3417581915855407,0.5652590394020081
1631290464312,0.7219170331954956,0.4677768647670746,0.3262058198451996,0.5451903939247131
1631290464419,0.6652204394340515,0.3713439404964447,0.2066631913185119,0.5127430558204651
1631290464555,0.5461759567260742,0.1608747243881225,0.0029462759848684,0.4497299194335937
1631290464631,0.4160489439964294,-0.032462041825056,-0.0204290207475423,0.3888333141803741
1631290464829,0.3634920418262481,-0.0769276693463325,0.0404002144932746,0.4052554666996002
1631290464868,0.3335689008235931,-0.0795201808214187,0.0850724354386329,0.4180538952350616
1631290464986,0.3224386572837829,-0.057413101196289,0.1089493855834007,0.430836945772171
1631290465016,0.3157654404640198,-0.0364362113177776,0.1228016912937164,0.4411548674106598
1631290465163,0.3111339211463928,-0.0364362113177776,0.1301406025886535,0.4511982202529907
1631290465310,0.301230251789093,-0.0393178164958953,0.1347910761833191,0.4426770806312561
1631290465418,0.2827532887458801,-0.0574411340057849,0.1388814747333526,0.455374926328659
1631290465442,0.2864301800727844,-0.0602717474102973,0.1394463926553726,0.478568285703659
1631290465610,0.3433394134044647,-0.0488206669688224,0.1394463926553726,0.4974041879177093
1631290465792,0.396880030632019,-0.0240102671086788,0.1377512663602829,0.4948167204856872
1631290465995,0.4330432713031769,-0.0135345133021473,0.1363356113433838,0.4851338267326355
1631290466032,0.4594269692897796,-0.0546418838202953,0.1363356113433838,0.4893305003643036
1631290466069,0.4594269692897796,-0.107241190969944,0.1363356113433838,0.4843455851078033
1631290466199,0.4594269692897796,-0.1267851591110229,0.1365343183279037,0.4843455851078033
1631290466222,0.4594269692897796,-0.1267851591110229,0.1763368248939514,0.4843455851078033
1631290466223,0.4594269692897796,-0.1267851591110229,0.2434147000312805,0.4837251007556915
1631290466529,0.4594269692897796,-0.1211191341280937,0.2796241044998169,0.481504887342453
1631290466559,0.4562044143676758,-0.0997088775038719,0.2478181570768356,0.477607786655426
1631290466638,0.4395090937614441,-0.0643705874681472,0.2017446607351303,0.4773164391517639
1631290466664,0.4171513617038727,-0.0351608283817768,0.1847686767578125,0.4699838757514953
1631290466795,0.3966307044029236,-0.0226520486176013,0.1826832443475723,0.4407312572002411
1631290466977,0.3698131442070007,-0.0149740166962146,0.1867733001708984,0.4114995002746582
1631290467056,0.3373986184597015,0.0068004499189555,0.1928476840257644,0.3926442861557007
1631290467290,0.3373986184597015,0.0288680903613567,0.1928476840257644,0.3926442861557007
1631290467335,0.3373986184597015,0.0323675833642482,0.1928476840257644,0.3926442861557007
1631290467387,0.3373986184597015,0.0289254896342754,0.1928476840257644,0.3926442861557007
1631290467448,0.3373986184597015,0.0304979030042886,0.1961801499128341,0.3926442861557007
1631290467518,0.3373986184597015,0.1516956835985183,0.2218956053256988,0.3926442861557007
1631290467603,0.3373986184597015,0.3549525439739227,0.3135132789611816,0.3694826960563659
1631290467756,0.1895827203989029,0.4322602748870849,0.4122625887393951,0.3891231715679168
1631290467847,0.1987144947052002,0.432430624961853,0.4504874348640442,0.399243026971817
1631290467906,0.2347905933856964,0.432430624961853,0.4504874348640442,0.4009131193161011
1631290468008,0.2632979452610016,0.432430624961853,0.4504874348640442,0.4009131193161011
1631290468052,0.2747887074947357,0.432430624961853,0.4504874348640442,0.4009131193161011
1631290468352,0.2791794240474701,0.432430624961853,0.4504874348640442,0.4009131193161011
1631290468492,0.2919631898403168,0.4310206472873688,0.4504874348640442,0.4009131193161011
1631290468712,0.3240334391593933,0.4310206472873688,0.4504874348640442,0.4009131193161011
1631290468759,0.3544993996620178,0.4310206472873688,0.4504874348640442,0.4027265012264251
1631290468892,0.3790916800498962,0.4310206472873688,0.4504874348640442,0.4215492904186249
1631290469064,0.4071925580501556,0.4310206472873688,0.4504874348640442,0.4555271863937378
1631290469187,0.4332503378391266,0.4310206472873688,0.4551168084144592,0.4273682236671448
1631290469256,0.440374493598938,0.4310206472873688,0.4621228277683258,0.3644072115421295
1631290469277,0.3998754024505615,0.4310206472873688,0.4645893275737762,0.3128112852573395
1631290469416,0.3577063381671905,1.2260401248931885,1.2769629955291748,0.2811246216297149
1631290469545,0.320927619934082,1.2260401248931885,1.2769629955291748,0.2615632712841034
1631290469630,0.2868295311927795,1.2260401248931885,1.2769629955291748,0.2515818178653717
1631290469849,0.2590727210044861,1.2260401248931885,1.2769629955291748,0.2346695661544799
1631290469987,0.2486770302057266,1.2260401248931885,1.2769629955291748,0.2213936597108841
1631290470077,0.2343753278255462,1.2260401248931885,1.2769629955291748,0.1994674652814865
1631290470162,0.2140959501266479,1.2260401248931885,1.2769629955291748,0.1369401216506958
1631290470168,0.2210002690553665,1.2260401248931885,1.2769629955291748,0.1711925864219665
1631290470234,0.2119853943586349,1.2260401248931885,1.2769629955291748,0.127513512969017
1631290470375,0.2119596749544143,1.2260401248931885,1.2769629955291748,0.1250848025083542
1631290470397,0.2119596749544143,1.2297468185424805,1.2769629955291748,0.1250848025083542
1631290470429,0.2119596749544143,1.2297468185424805,1.2769629955291748,0.1250848025083542
1631290470617,0.2119596749544143,1.2297468185424805,1.2769629955291748,0.1250848025083542
1631290470888,0.2119596749544143,1.2297468185424805,1.2769629955291748,0.1250848025083542
1631290470935,0.2119596749544143,1.2297468185424805,1.2769629955291748,0.1250848025083542
1631290471092,0.2119596749544143,0.8685548901557922,0.62044358253479,0.1250848025083542
1631290471204,0.2119596749544143,1.8387316465377808,0.62044358253479,0.1250848025083542
1631290471274,0.2119596749544143,1.8461930751800537,1.5094468593597412,0.1250848025083542
1631290471406,0.2119596749544143,1.8461930751800537,1.5094468593597412,0.1250848025083542
1631290471625,0.2119596749544143,1.8461930751800537,1.5094468593597412,0.1250848025083542
1631290471730,0.2119596749544143,1.8461930751800537,1.5103414058685305,0.1250848025083542
1631290471825,0.2119596749544143,1.8461930751800537,1.5103414058685305,0.1250848025083542
1631290471980,0.2119596749544143,1.8461930751800537,1.5103414058685305,0.1250848025083542
1631290472045,0.2119596749544143,1.8461930751800537,1.5103414058685305,0.1250848025083542
1631290472097,0.2119596749544143,1.8461930751800537,1.5103414058685305,0.1250848025083542
1631290472135,0.2119596749544143,1.8461930751800537,1.5103414058685305,0.1250848025083542
1631290472167,0.2119596749544143,1.8461930751800537,1.5103414058685305,0.1250848025083542
1631290472237,0.2119596749544143,1.8461930751800537,1.5103414058685305,0.1250848025083542
1631290472284,0.2119596749544143,1.8461930751800537,1.5103414058685305,0.1250848025083542
1631290472391,0.2119596749544143,1.8461930751800537,1.5103414058685305,0.1250848025083542
1631290472502,0.2119596749544143,1.8461930751800537,1.5103414058685305,0.1250848025083542
1631290472655,0.2119596749544143,1.5150212049484253,1.5103414058685305,0.1250848025083542
1631290472840,0.2119596749544143,0.787575364112854,0.8361626863479614,0.1250848025083542
1631290472958,0.2119596749544143,0.8217177391052246,0.8764662146568298,0.1250848025083542
1631290473040,0.2119596749544143,0.8217177391052246,0.8764662146568298,0.1250848025083542
1631290473096,0.2119596749544143,0.663500189781189,0.7241122126579285,0.1250848025083542
1631290473210,0.2119596749544143,0.663500189781189,1.2552158832550049,0.1250848025083542
1631290473272,0.2119596749544143,0.663500189781189,1.2552158832550049,0.1250848025083542
1631290473311,0.2119596749544143,1.437189698219299,1.2552158832550049,0.1250848025083542
1631290473478,0.2119596749544143,1.437189698219299,1.2552158832550049,0.1250848025083542
1631290473502,0.2119596749544143,1.437189698219299,1.2552158832550049,0.1250848025083542
