timestamp,TP9,AF7,AF8,TP10
1631290337187,0.8220889568328857,0.4714607000350952,0.8687403202056885,0.6818066835403442
1631290337242,0.8220889568328857,0.4714607000350952,0.8687403202056885,0.6818066835403442
1631290337339,0.8220889568328857,0.4714607000350952,0.8687403202056885,0.6818066835403442
1631290337425,0.8220889568328857,0.4714607000350952,0.8687403202056885,0.6818066835403442
1631290337665,0.8220889568328857,0.4714607000350952,0.8687403202056885,0.6818066835403442
1631290337738,0.8220889568328857,0.4714607000350952,0.8687403202056885,0.6818066835403442
1631290337800,0.8220889568328857,0.4714607000350952,0.8687403202056885,0.6818066835403442
1631290337894,0.8220889568328857,0.4714607000350952,0.8687403202056885,0.6818066835403442
1631290337957,0.8220889568328857,0.4714607000350952,0.8687403202056885,0.6818066835403442
1631290338075,0.8220889568328857,0.4714607000350952,0.8687403202056885,0.6818066835403442
1631290338220,0.8220889568328857,0.4714607000350952,0.4863626956939697,0.6818066835403442
1631290338325,0.8220889568328857,0.4714607000350952,0.4757364988327026,0.6818066835403442
1631290338388,0.8220889568328857,0.4714607000350952,0.4539468586444855,0.6818066835403442
1631290338492,0.8220889568328857,0.4714607000350952,0.4174135625362396,0.6818066835403442
1631290338662,0.8220889568328857,0.502537727355957,0.4174135625362396,0.6818066835403442
1631290338724,0.8220889568328857,0.4431029856204986,0.4174135625362396,0.6818066835403442
1631290338873,0.8220889568328857,0.4431029856204986,0.4174135625362396,0.6818066835403442
1631290338994,0.8220889568328857,0.4431029856204986,0.4174135625362396,0.6818066835403442
1631290339049,0.8220889568328857,0.4540302455425262,0.4174135625362396,0.6818066835403442
1631290339251,0.8220889568328857,0.4394600689411163,0.4174135625362396,0.6818066835403442
1631290339260,0.8220889568328857,0.4394513964653015,0.4174135625362396,0.6818066835403442
1631290339285,0.8220889568328857,0.4249338805675506,0.4174135625362396,0.6818066835403442
1631290339460,0.8220889568328857,0.4098652005195617,0.3897894322872162,0.6818066835403442
1631290339475,0.8220889568328857,0.3746805489063263,0.3708400428295135,0.6818066835403442
1631290339730,0.8220889568328857,0.3329879641532898,0.3477453887462616,0.6818066835403442
1631290339892,0.8220889568328857,0.3022230863571167,0.3477453887462616,0.6818066835403442
1631290339931,0.8220889568328857,0.2869251370429992,0.3477453887462616,0.6818066835403442
1631290339967,0.8220889568328857,0.3305729627609253,0.3477453887462616,0.6818066835403442
1631290340036,0.8220889568328857,0.4622209370136261,0.3477453887462616,0.6818066835403442
1631290340111,0.8220889568328857,0.6648045778274536,0.8682700991630554,0.6818066835403442
1631290340256,0.8220889568328857,0.8313146233558655,1.010775804519653,0.6818066835403442
1631290340359,0.8220889568328857,0.90944504737854,1.0672980546951294,0.6818066835403442
1631290340440,0.8220889568328857,0.9330592751502992,1.0610040426254272,0.6818066835403442
1631290340581,0.8220889568328857,0.9448906183242798,1.030789852142334,0.6818066835403442
1631290340605,0.8220889568328857,0.9492008090019226,1.0033637285232544,0.6818066835403442
1631290340694,0.8220889568328857,0.9584134221076964,0.984464943408966,0.6818066835403442
1631290340831,0.8220889568328857,0.9771238565444946,0.9839093685150146,0.6818066835403442
1631290340943,0.8220889568328857,1.00263512134552,0.9839093685150146,0.6818066835403442
1631290341124,0.8220889568328857,1.0341647863388062,0.9839093685150146,0.6818066835403442
1631290341154,0.8220889568328857,1.0705546140670776,0.9839093685150146,0.6818066835403442
1631290341234,0.8220889568328857,1.1096574068069458,0.9839093685150146,0.6818066835403442
1631290341342,0.8220889568328857,1.1512043476104736,1.0172547101974487,0.6818066835403442
1631290341646,0.8220889568328857,1.1871291399002075,1.0487030744552612,0.6818066835403442
1631290341687,0.8220889568328857,1.2005915641784668,1.0637184381484983,0.6818066835403442
1631290341841,0.8220889568328857,1.168184518814087,1.0383620262145996,0.6818066835403442
1631290341866,0.8220889568328857,1.0730206966400146,0.9601768851280212,0.6818066835403442
1631290342043,0.8220889568328857,0.925069272518158,1.0472582578659058,0.6818066835403442
1631290342159,0.8220889568328857,0.925069272518158,1.1604243516921997,0.6818066835403442
1631290342272,0.8220889568328857,0.925069272518158,1.2317426204681396,0.6818066835403442
1631290342390,0.8220889568328857,0.925069272518158,1.2611415386199951,0.6818066835403442
1631290342441,0.8220889568328857,0.925069272518158,1.2823619842529297,0.6818066835403442
1631290342462,0.8220889568328857,0.925069272518158,1.2948930263519287,0.6818066835403442
1631290342579,0.8220889568328857,0.925069272518158,1.2675710916519165,0.6818066835403442
1631290342763,0.8220889568328857,0.925069272518158,1.238581895828247,0.6818066835403442
1631290342804,0.8220889568328857,0.925069272518158,1.2104722261428833,0.6818066835403442
1631290342934,0.8220889568328857,0.925069272518158,1.1809210777282717,0.6818066835403442
1631290343001,0.8220889568328857,0.925069272518158,1.1474627256393433,0.6818066835403442
1631290343018,0.8220889568328857,0.925069272518158,1.1138495206832886,1.0979875326156616
1631290343063,0.8220889568328857,0.5802240967750549,1.0835434198379517,1.014160394668579
1631290343208,0.8220889568328857,0.5394221544265747,1.0568580627441406,0.943156599998474
1631290343277,0.3164418935775757,0.5012394189834595,1.034297227859497,0.8870837688446045
1631290343359,0.2643209993839264,0.4652500748634338,0.951000154018402,0.8413398861885071
1631290343457,0.2281723469495773,0.4383312463760376,0.8483352065086365,0.8015434741973877
1631290343560,0.2107888013124466,0.4340786337852478,0.761924684047699,0.7675498723983765
1631290343643,0.1979553699493408,0.4527599811553955,0.7063983678817749,0.7378512024879456
1631290343741,0.1872748434543609,0.4822092354297638,0.6498169302940369,0.709982693195343
1631290343983,0.1757695823907852,0.4970404803752899,0.5770384073257446,0.6843916773796082
1631290344024,0.163936972618103,0.4958745539188385,0.5056218504905701,0.6669443249702454
1631290344151,0.1507992297410965,0.4915017485618591,0.439422994852066,0.6611892580986023
1631290344151,0.1436483561992645,0.4913108050823211,0.3696459233760834,0.5513805150985718
1631290344277,0.1554185152053833,0.4588353931903839,0.3082520365715027,0.4406349062919616
1631290344341,0.1775767505168914,0.4371335506439209,0.2778989374637604,0.3807388842105865
1631290344526,0.1668901741504669,0.4218603670597076,0.2716509699821472,0.3710110783576965
1631290344575,0.1492661088705063,0.4073247909545898,0.2738186717033386,0.375449925661087
1631290344640,0.1418345272541046,0.4006759226322174,0.2881662547588348,0.3932691514492035
1631290344814,0.1458606719970703,0.4083745777606964,0.3066173195838928,0.4083830416202545
1631290344927,0.1597086489200592,0.4452377557754516,0.3858353495597839,0.4225230813026428
1631290344966,0.1741175204515457,0.5174872279167175,0.5352345108985901,0.4397098422050476
1631290345155,0.1826475113630294,0.6061414480209351,0.7249031662940979,0.4580561518669128
1631290345183,0.1923953741788864,0.685007631778717,0.9093686938285828,0.4789426028728485
1631290345257,0.2051463574171066,0.7676348090171814,1.0559958219528198,0.5072435736656189
1631290345423,0.2257296741008758,0.8784217238426208,1.155311942100525,0.5424752831459045
1631290345511,0.2569113969802856,0.8966149687767029,1.2161659002304075,0.5689994692802429
1631290345568,0.3062632083892822,0.9180686473846436,1.2518082857131958,0.5685156583786011
1631290345774,0.3062632083892822,0.9662818312644958,1.3051207065582275,0.5395597219467163
1631290345778,0.3062632083892822,0.9402214884757996,1.276574969291687,0.5395597219467163
1631290345908,0.3062632083892822,0.9994244575500488,1.3361707925796509,0.5395597219467163
1631290345977,0.3062632083892822,1.0395140647888184,1.369256615638733,0.5395597219467163
1631290346111,0.3062632083892822,1.086043357849121,1.4043322801589966,0.5395597219467163
1631290346145,0.3062632083892822,1.1372307538986206,1.4411027431488037,0.5395597219467163
1631290346447,0.3062632083892822,1.1932345628738403,1.48051118850708,0.5395597219467163
1631290346470,0.3062632083892822,1.249516487121582,1.5175427198410034,0.5395597219467163
1631290346654,0.3062632083892822,1.299567461013794,1.5569720268249512,0.5395597219467163
1631290346684,0.3062632083892822,1.299567461013794,1.546248197555542,0.5395597219467163
1631290346724,0.3062632083892822,1.299567461013794,1.5381183624267578,0.5395597219467163
1631290346807,0.3062632083892822,1.299567461013794,1.4834997653961182,0.5395597219467163
1631290346892,0.3062632083892822,1.299567461013794,1.4834997653961182,0.5395597219467163
1631290347028,0.3062632083892822,1.299567461013794,1.4834997653961182,0.5395597219467163
1631290347176,0.3062632083892822,1.299567461013794,1.4834997653961182,0.5395597219467163
1631290347238,0.3062632083892822,1.299567461013794,1.4834997653961182,0.5395597219467163
1631290347291,0.3062632083892822,1.299567461013794,1.4834997653961182,0.5395597219467163
1631290347391,0.3062632083892822,1.3415321111679075,0.9455251693725586,0.5395597219467163
1631290347543,0.3062632083892822,1.2549664974212646,0.8681156039237976,0.5395597219467163
1631290347643,0.3062632083892822,1.177941918373108,0.8127542734146118,0.5395597219467163
1631290347723,0.3062632083892822,1.1128871440887451,0.8082562685012817,0.5395597219467163
1631290347835,0.3062632083892822,1.0650547742843628,0.8082562685012817,0.5395597219467163
1631290347898,0.3062632083892822,1.0476412773132324,0.8082562685012817,0.5395597219467163
1631290347991,0.3062632083892822,1.0713359117507937,0.8082562685012817,0.5395597219467163
1631290348188,0.3062632083892822,1.1214535236358645,0.8082562685012817,0.5395597219467163
1631290348206,0.3062632083892822,1.1719279289245603,0.8082562685012817,0.5395597219467163
1631290348324,0.3062632083892822,1.2054903507232666,0.8082562685012817,0.5395597219467163
1631290348423,0.3062632083892822,1.2181482315063477,0.8082562685012817,0.5395597219467163
1631290348555,0.3062632083892822,1.2181024551391602,0.8082562685012817,0.5395597219467163
1631290348616,0.3062632083892822,1.1805424690246582,0.950401484966278,0.5395597219467163
1631290348875,0.3062632083892822,1.1519765853881836,1.0219669342041016,0.5395597219467163
1631290348942,0.3062632083892822,1.1451488733291626,1.090078592300415,0.5395597219467163
1631290349084,0.3062632083892822,1.194493055343628,1.2184665203094482,0.5395597219467163
1631290349099,0.3062632083892822,1.1620125770568848,1.1585549116134644,0.5395597219467163
1631290349115,0.3062632083892822,1.2347546815872192,1.2884440422058103,0.5395597219467163
1631290349307,0.3062632083892822,1.279512882232666,1.3575278520584106,0.5395597219467163
1631290349426,0.3062632083892822,1.3251835107803345,1.3575278520584106,0.5395597219467163
1631290349464,0.3062632083892822,1.3634601831436155,1.3575278520584106,0.5395597219467163
1631290349627,0.3062632083892822,1.3808937072753906,1.3575278520584106,0.5395597219467163
1631290349676,0.3062632083892822,1.3676681518554688,1.3575278520584106,0.5395597219467163
1631290349754,0.3062632083892822,1.3211606740951538,1.3575278520584106,0.5395597219467163
1631290349855,0.3062632083892822,1.3211606740951538,1.3575278520584106,0.5395597219467163
1631290350062,0.3062632083892822,1.3211606740951538,1.3575278520584106,0.5395597219467163
1631290350121,0.3062632083892822,1.3211606740951538,1.3575278520584106,0.5395597219467163
1631290350189,0.3062632083892822,1.3211606740951538,1.3575278520584106,0.5395597219467163
1631290350345,0.3062632083892822,1.3211606740951538,1.3575278520584106,0.5395597219467163
1631290350386,0.3062632083892822,1.3211606740951538,1.3575278520584106,0.5395597219467163
1631290350559,0.3062632083892822,1.3211606740951538,1.3575278520584106,0.5395597219467163
1631290350644,0.3062632083892822,1.3211606740951538,1.3575278520584106,0.5395597219467163
1631290350781,0.3062632083892822,1.3211606740951538,1.3575278520584106,0.5395597219467163
1631290350830,0.3062632083892822,0.4442957043647766,1.3575278520584106,0.5395597219467163
1631290350869,0.3062632083892822,0.5894078612327576,1.3575278520584106,0.5395597219467163
1631290350989,0.3062632083892822,0.6684274077415466,1.3575278520584106,0.5395597219467163
1631290351125,0.3062632083892822,0.6928609013557434,1.3575278520584106,0.5395597219467163
1631290351391,0.3062632083892822,0.6822175979614258,1.3575278520584106,0.5395597219467163
1631290351625,0.3062632083892822,0.6554954648017883,1.3575278520584106,0.5395597219467163
1631290351688,0.3062632083892822,0.5945640206336975,1.3575278520584106,0.5395597219467163
1631290351705,0.3062632083892822,0.6247681975364685,1.3575278520584106,0.5395597219467163
1631290351736,0.3062632083892822,0.5661694407463074,1.3575278520584106,0.5395597219467163
1631290351814,0.3062632083892822,0.537246584892273,1.3575278520584106,0.5395597219467163
1631290351877,0.3062632083892822,0.5102615356445312,1.3575278520584106,0.5395597219467163
1631290352025,0.3062632083892822,0.4865473210811615,1.3575278520584106,0.5395597219467163
1631290352071,0.3062632083892822,0.4878785908222198,0.3407284915447235,0.5395597219467163
1631290352207,0.3062632083892822,0.4828682839870453,0.2941880822181701,0.5395597219467163
1631290352237,0.3062632083892822,0.4583938419818878,0.2497944384813308,0.5395597219467163
1631290352285,0.3062632083892822,0.4004274308681488,0.2126872688531875,0.5395597219467163
1631290352464,0.3062632083892822,0.3001328408718109,0.1859888136386871,0.5395597219467163
1631290352563,-0.0020647074561566,0.1677001565694809,0.1644337326288223,0.5395597219467163
1631290352639,0.0590659826993942,0.0396867915987968,0.1455335915088653,0.6402931809425354
1631290352726,0.1599699556827545,-0.0494673773646354,0.1246267110109329,0.7275046110153198
1631290352875,0.3084191679954529,-0.1482211202383041,0.0741976276040077,0.776464581489563
1631290352883,0.2403957247734069,-0.103904016315937,0.1005997210741043,0.7702433466911316
1631290353026,0.3698020875453949,-0.1906811594963073,0.0486570447683334,0.7570809125900269
1631290353084,0.4212057888507843,-0.2314857989549636,0.0257715582847595,0.7262001633644104
1631290353407,0.451335608959198,-0.2551800608634949,-0.0386947654187679,0.6901231408119202
1631290353457,0.4640479683876037,-0.2690073251724243,-0.1225530728697776,0.6566867232322693
1631290353496,0.4595230519771576,-0.2837134599685669,-0.2006874680519104,0.6247758269309998
1631290353527,0.4507656097412109,-0.3004013299942016,-0.2587583065032959,0.6004595756530762
1631290353674,0.4470345079898834,-0.322389006614685,-0.3007225096225738,0.5889337658882141
1631290353707,0.461787074804306,-0.343299388885498,-0.3308868706226349,0.590441882610321
1631290353868,0.4839684069156647,-0.3571911156177521,-0.3584005236625671,0.6132972240447998
1631290353951,0.4990910589694977,-0.3648734986782074,-0.3923151791095733,0.625069260597229
1631290354001,0.5042686462402344,-0.389007031917572,-0.4299322962760925,0.6173591017723083
1631290354074,0.5001165866851807,-0.4350841641426086,-0.4731158316135406,0.5848385095596313
1631290354206,0.4897853136062622,-0.4785834550857544,-0.5109983682632446,0.532417356967926
1631290354349,0.4877709448337555,-0.465357631444931,-0.5336380004882812,0.4868421852588653
1631290354441,0.4986970126628876,-0.3827355504035949,-0.5362054109573364,0.4747378826141357
1631290354522,0.5142361521720886,-0.2815800011157989,-0.5260626673698425,0.4951275289058685
1631290354657,0.5268568992614746,-0.2015890628099441,-0.5136959552764893,0.5327550768852234
1631290354757,0.5333017110824585,-0.1553740799427032,-0.5045442581176758,0.569368302822113
1631290354863,0.5448337197303772,-0.1403208822011947,-0.4913468658924103,0.60316002368927
1631290355024,0.5680104494094849,-0.1382168680429458,-0.4699627161026001,0.6365756392478943
1631290355101,0.5993985533714294,-0.1305070221424102,-0.425690084695816,0.6663202047348022
1631290355190,0.6261613965034485,-0.1070545390248298,-0.3619248569011688,0.6903435587882996
1631290355242,0.6480089426040649,-0.072869524359703,-0.2937228679656982,0.7099189758300781
1631290355342,0.6732441782951355,-0.0395826324820518,-0.2327940762042999,0.7231833338737488
1631290355558,0.6886319518089294,0.0016357274726033,-0.1744771599769592,0.7256826162338257
1631290355601,0.7109906673431396,0.0533446259796619,-0.0923097133636474,0.7342975735664368
1631290355631,0.7372762560844421,0.1643437892198562,0.0349638015031814,0.7509751915931702
1631290355760,0.7627766728401184,0.1862972527742386,0.2033994644880294,0.7712822556495667
1631290355865,0.7811457514762878,0.2019242048263549,0.3617615401744842,0.7881922721862793
1631290355925,0.7872347831726074,0.2070605158805847,0.5246837735176086,0.7953506708145142
1631290356046,0.783588171005249,0.2039695978164672,0.6925443410873413,0.7970998287200928
1631290356178,0.776826024055481,0.2021922916173935,0.8505508303642273,0.7954877018928528
1631290356311,0.7828993797302246,0.2142409682273864,0.9766825437545776,0.8031309247016907
1631290356356,0.7949457764625549,0.245861530303955,1.0617045164108276,0.8158785700798035
1631290356419,0.8092420101165771,0.2900484204292297,1.1089383363723757,0.8330165147781372
1631290356559,0.8092420101165771,0.734628438949585,1.1299662590026855,0.8330165147781372
1631290356656,0.8092420101165771,0.83714359998703,1.137141227722168,0.8330165147781372
1631290356745,0.8092420101165771,0.8602398633956909,1.1381698846817017,0.8330165147781372
1631290356871,0.8092420101165771,0.8595866560935974,1.137252926826477,0.8330165147781372
1631290356985,0.8092420101165771,0.8500209450721741,1.135176420211792,0.8330165147781372
1631290357051,0.8092420101165771,0.8326529860496521,1.1309614181518557,0.8330165147781372
1631290357146,0.8092420101165771,0.7834539413452148,1.1222419738769531,0.8330165147781372
1631290357295,0.8092420101165771,0.7262852787971497,1.1059097051620483,0.8330165147781372
1631290357387,0.8092420101165771,0.6763865947723389,1.0830538272857666,0.8330165147781372
1631290357457,0.5065852999687195,0.6324617266654968,1.045735478401184,0.5760842561721802
1631290357525,0.4594682455062866,0.5931711792945862,0.9811923503875732,0.5468937754631042
1631290357760,0.4340352118015289,0.5572731494903564,0.8721379041671753,0.5023337006568909
1631290357837,0.4240967333316803,0.5239384770393372,0.7069668173789978,0.4539908468723297
1631290358097,0.4185117781162262,0.4929925203323364,0.4890135824680328,0.4114925563335418
1631290358130,0.4188762605190277,0.4644293189048767,0.2549892663955688,0.3945505917072296
1631290358207,0.4433428943157196,0.1010800451040268,0.0700257718563079,0.433621197938919
1631290358248,0.5066586136817932,-0.2668920159339905,-0.0309307407587766,0.5211277008056641
1631290358306,0.5066586136817932,-0.5172160863876343,-0.0672957748174667,0.5211277008056641
1631290358390,0.5066586136817932,-0.5640166997909546,-0.0812854319810867,0.5211277008056641
1631290358619,0.5066586136817932,-0.4261375367641449,-0.0748452916741371,0.5211277008056641
1631290358726,0.5066586136817932,-0.1349217593669891,-0.0464915409684181,0.5211277008056641
1631290358739,0.4735857546329498,0.1607932895421981,0.0087173897773027,0.5003772377967834
1631290358876,0.4624208211898803,0.3800126612186432,0.083820067346096,0.4926274716854095
1631290358926,0.4783045947551727,0.518319845199585,0.1535584330558776,0.4907771646976471
1631290358992,0.5067005157470703,0.5899044871330261,0.2023605108261108,0.4862897992134094
1631290359132,0.5424099564552307,0.6190441250801086,0.2247876524925232,0.4984229505062103
1631290359241,0.5802983045578003,0.6275743842124939,0.2290375828742981,0.5426569581031799
1631290359314,0.6215945482254028,0.6305012106895447,0.2227593809366226,0.618265688419342
1631290359368,0.6215945482254028,0.632706344127655,0.2087307572364807,0.618265688419342
1631290359474,0.6215945482254028,0.6345478892326355,0.1906498670578003,0.618265688419342
1631290359589,0.6215945482254028,0.6356274485588074,0.172955721616745,0.618265688419342
1631290359692,0.6215945482254028,0.6350603103637695,0.1580292284488678,0.618265688419342
1631290359975,0.6215945482254028,0.6332394480705261,0.1463062763214111,0.618265688419342
1631290360075,0.1912467032670974,0.6286817789077759,0.1377186626195907,-0.0917121991515159
1631290360146,0.1707661896944046,0.6151043772697449,0.1238788962364196,-0.1315963715314865
1631290360189,0.1338103711605072,0.5749815702438354,0.0983043238520622,-0.1660993248224258
1631290360239,0.094052255153656,0.4831936657428741,0.0530299879610538,-0.1880863308906555
1631290360308,0.0604798756539821,0.320271760225296,-0.0226237755268812,-0.1997715681791305
1631290360616,0.0356296971440315,0.074322335422039,-0.123138777911663,-0.1939136534929275
1631290360688,0.024627823382616,-0.2290438860654831,-0.2208833694458007,-0.1562285423278808
1631290360777,0.0303261037915945,-0.4961868822574615,-0.2831968367099762,-0.1060509160161018
1631290360903,0.0497456416487693,-0.6118608117103577,-0.3031362295150757,-0.0576325319707393
1631290361013,0.0736417397856712,-0.6260116100311279,-0.2877357006072998,-0.0186283439397811
1631290361110,0.0852545723319053,-0.6173509359359741,-0.2536598145961761,0.0068122176453471
1631290361163,0.0806322768330574,-0.6052258610725403,-0.2176475524902343,0.0198393370956182
1631290361224,0.0665027275681495,-0.5937389135360718,-0.1923775821924209,0.015567997470498
1631290361264,0.0480486266314983,-0.5775856375694275,-0.1786483526229858,0.0092267142608761
1631290361344,0.0292448103427886,-0.5671634674072266,-0.1744624376296997,0.0064541231840848
1631290361442,0.0127177033573389,-0.562123715877533,-0.1736100614070892,0.0079096835106611
1631290361696,0.0065935342572629,-0.5588423609733582,-0.1719618290662765,0.0129064545035362
1631290361777,0.0084714349359273,-0.5490723848342896,-0.1712709665298462,0.0242831315845251
1631290361932,0.0092607429251074,-0.5230752229690552,-0.1784716248512268,0.0436823740601539
1631290362037,0.0070021650753915,-0.4873867034912109,-0.2023424208164215,0.0661971569061279
1631290362081,0.0042749545536935,-0.4493878781795501,-0.2410010695457458,0.0816723182797432
1631290362223,0.0002259487082483,-0.4197511374950409,-0.2800696194171905,0.079302467405796
1631290362258,-0.0109781343489885,-0.4056482315063476,-0.3063200712203979,0.0657440871000289
1631290362333,-0.0303167719393968,-0.4108582735061645,-0.3203553259372711,0.0492771528661251
1631290362378,-0.0518687553703784,-0.4339045882225036,-0.3412686288356781,0.0355341099202632
1631290362461,-0.0659789741039276,-0.4667269587516784,-0.3754970729351043,0.0274219419807195
1631290362525,-0.0693256482481956,-0.5007084012031555,-0.4243966937065124,0.0219742394983768
1631290362652,-0.0756117030978202,-0.5234566330909729,-0.4653903841972351,0.0258259139955043
1631290362740,-0.0839285477995872,-0.5235867500305176,-0.4875003099441528,0.0343629941344261
1631290362858,-0.0857217162847518,-0.4984123408794403,-0.4897735714912414,0.039677046239376
1631290362949,-0.0720878839492797,-0.4628144204616546,-0.4846976697444916,0.0403905697166919
1631290363041,-0.053548127412796,-0.4317542314529419,-0.4820930957794189,0.0359271317720413
1631290363102,-0.0404963232576847,-0.4128211438655853,-0.4827270805835724,0.0243314728140831
1631290363334,-0.0340160131454467,-0.4071507751941681,-0.4883992969989776,0.0081580579280853
1631290363386,-0.0346259102225303,-0.4071154296398163,-0.5007137656211853,-0.0029452627059072
1631290363467,-0.0429664589464664,-0.4136154353618622,-0.5236396789550781,0.0057182256132364
1631290363560,-0.0576531440019607,-0.4280166625976562,-0.5565630197525024,0.041029330343008
1631290363672,-0.0751222148537635,-0.4469159245491028,-0.5885400772094727,0.0880005359649658
1631290363743,-0.0994916632771492,-0.4602455794811249,-0.6058517694473267,0.1240844577550888
1631290363873,-0.1183635592460632,-0.4676747024059295,-0.6026738286018372,0.121948666870594
1631290363991,-0.1384467780590057,-0.4648337960243225,-0.5300405621528625,0.1183585003018379
1631290364225,-0.1397336721420288,-0.2373643219470977,0.0012058091815561,0.1266146749258041
1631290364229,-0.1484016478061676,-0.406694233417511,-0.3161602020263672,0.1192577481269836
1631290364406,-0.1290797144174575,0.0110516110435128,0.2944805920124054,0.1393265277147293
1631290364453,-0.1441128104925155,0.2357633560895919,0.5185102224349976,0.1581935882568359
1631290364552,-0.2033251971006393,0.4095945358276367,0.6674109697341919,0.1866556704044342
1631290364582,-0.3040477037429809,0.5348100066184998,0.7646049857139587,0.2279826253652572
1631290364667,-0.4262161254882812,0.6346893310546875,0.847145140171051,0.2807154953479767
1631290364774,-0.5263784527778625,0.7213016152381897,0.9303838610649108,0.3368792533874511
1631290364934,-0.566976010799408,0.7943225502967834,1.0015908479690552,0.3915052413940429
1631290364966,-0.566976010799408,0.8403804302215576,1.0500763654708862,0.3915052413940429
1631290365061,-0.566976010799408,0.863825261592865,1.075959324836731,0.3915052413940429
1631290365226,-0.566976010799408,0.8739923238754272,1.085531234741211,0.3915052413940429
1631290365338,-0.566976010799408,0.8788588643074036,1.0914236307144165,0.3915052413940429
1631290365384,-0.566976010799408,0.8870552778244019,1.1085816621780396,0.3915052413940429
1631290365478,-0.566976010799408,0.9039565920829772,1.1415798664093018,0.3327080309391022
1631290365624,-0.566976010799408,0.927471160888672,1.1809675693511963,0.395849734544754
1631290365707,0.807578980922699,0.946858823299408,1.2100777626037598,0.4460150599479675
1631290365803,0.8364234566688538,0.9481320381164552,1.2153396606445312,0.4728248715400696
1631290365990,0.8222434520721436,0.9272856712341307,1.1968201398849487,0.476137638092041
1631290365991,0.7874965071678162,0.8879690170288086,1.1661735773086548,0.4771715104579925
1631290366073,0.7542650103569031,0.8397677540779114,1.1339807510375977,0.4840390980243683
1631290366302,0.7266969680786133,0.7806330323219299,1.0937610864639282,0.4938476979732513
1631290366382,0.7115551233291626,0.705379843711853,1.0389469861984253,0.5010845065116882
1631290366415,0.7042255997657776,0.6118602752685547,0.9750548601150512,0.503054141998291
1631290366546,0.6956948041915894,0.5285359025001526,0.9177775979042052,0.4966843724250793
1631290366671,0.678268313407898,0.4749538004398346,0.8806841373443604,0.4802175164222717
1631290366724,0.6534020304679871,0.4508116841316223,0.8651657104492188,0.4592355191707611
1631290366905,0.6279010772705078,0.4419979751110077,0.8544938564300537,0.4483542144298553
1631290366930,0.6420120000839233,0.4242689907550812,0.8232313990592957,0.4600558280944824
1631290366993,0.6367562413215637,0.3791120648384094,0.7521683573722839,0.4613726437091827
1631290367174,0.6008377075195312,0.3049750626087188,0.6385249495506287,0.4494327902793884
1631290367290,0.5383432507514954,0.2447355091571808,0.5174229145050049,0.4278487861156463
1631290367369,0.4679125845432281,0.2711574137210846,0.4805085062980652,0.4052295386791229
1631290367484,0.4229092001914978,0.3702437579631805,0.5447533130645752,0.3934919536113739
1631290367484,0.4142392575740814,0.4642539322376251,0.62889564037323,0.3805122077465057
1631290367641,0.4160970151424408,0.5190378427505493,0.6827227473258972,0.3517615497112274
1631290367775,0.4180739223957062,0.5414012670516968,0.7094061374664307,0.2981497645378113
1631290367860,0.3876858353614807,0.5474520325660706,0.7162895202636719,0.2134764939546585
1631290367970,0.3015080094337463,0.5499658584594727,0.7161034345626831,0.0806903317570686
1631290368183,0.3015080094337463,0.5505856275558472,0.7141898274421692,0.0806903317570686
1631290368213,0.3015080094337463,0.5512714385986328,0.71224045753479,0.0806903317570686
1631290368421,0.3015080094337463,0.5511577725410461,0.7110822796821594,0.0806903317570686
1631290368625,0.3015080094337463,0.5505648851394653,0.7104474902153015,0.0806903317570686
1631290368858,0.3015080094337463,0.5521774291992188,0.7105858325958252,0.0806903317570686
1631290368888,0.3015080094337463,0.5574524998664856,0.7130588293075562,0.0806903317570686
1631290369039,0.3015080094337463,0.563035249710083,0.7197595834732056,0.0806903317570686
1631290369107,0.3015080094337463,0.5562832951545715,0.7253894805908203,0.0806903317570686
1631290369183,0.3015080094337463,0.5188113451004028,0.7175419926643372,0.0806903317570686
1631290369243,0.3015080094337463,0.442053735256195,0.6887049674987793,0.0806903317570686
1631290369302,0.3015080094337463,0.5739798545837402,0.6444475650787354,0.0806903317570686
1631290369369,0.3015080094337463,0.5219871997833252,0.602752685546875,0.0806903317570686
1631290369404,0.3015080094337463,0.4955594837665558,0.5784323811531067,0.0806903317570686
1631290369454,0.3015080094337463,0.48676797747612,0.5703672766685486,0.0806903317570686
1631290369510,0.3015080094337463,0.484671950340271,0.5700451731681824,0.0806903317570686
1631290369608,0.3015080094337463,0.4864705204963684,0.5760821104049683,0.0806903317570686
1631290369755,0.3015080094337463,0.4929500520229339,0.595818817615509,0.0806903317570686
1631290369875,0.3015080094337463,0.5078375935554504,0.6391199231147766,0.0806903317570686
1631290369895,0.3015080094337463,0.530761182308197,0.704435408115387,0.0806903317570686
1631290369920,0.3015080094337463,0.5528997778892517,0.7718945741653442,0.0806903317570686
1631290370040,0.3015080094337463,0.5892401933670044,0.8199041485786438,0.0806903317570686
1631290370203,0.3015080094337463,0.5833204984664917,0.8351722359657288,0.0806903317570686
1631290370370,0.3015080094337463,0.560314953327179,0.8128830194473267,0.0806903317570686
1631290370446,0.3015080094337463,0.5279593467712402,0.7624335289001465,0.0806903317570686
1631290370475,0.3015080094337463,0.4974128901958465,0.7027926445007324,0.0806903317570686
1631290370543,0.3015080094337463,0.1635953187942505,0.6563882231712341,0.0806903317570686
1631290370751,0.3015080094337463,0.1507551670074463,0.6331907510757446,0.0806903317570686
1631290370845,0.3015080094337463,0.1493293493986129,0.6265368461608887,0.0806903317570686
1631290370973,0.3015080094337463,0.1513771265745163,0.6263852119445801,0.0806903317570686
1631290371071,-0.0555092990398407,0.1507392227649688,0.6261819005012512,0.0806903317570686
1631290371157,-0.0266485232859849,0.1460691839456558,0.6218061447143555,0.2032991349697113
1631290371208,-0.0256319902837276,0.1295656412839889,0.6039318442344666,0.1955548226833343
1631290371258,-0.0501411966979503,0.0891594290733337,0.5565910935401917,0.1643867939710617
1631290371378,-0.0737746432423591,0.0139817185699939,0.4611662030220032,0.1386095881462097
1631290371476,-0.0818565338850021,-0.0914548486471176,0.3053435385227203,0.1288614720106125
1631290371541,-0.0857138186693191,-0.3896650671958923,0.0957230031490325,0.1301223486661911
1631290371693,-0.0857138186693191,-0.5295898914337158,-0.1219255253672599,0.1301223486661911
1631290371907,-0.0857138186693191,-0.6234906315803528,-0.2123627662658691,0.1301223486661911
1631290371987,-0.0857138186693191,-0.6731582880020142,-0.0692282244563102,0.1301223486661911
1631290372074,-0.0857138186693191,-0.6599779725074768,0.2013500928878784,0.1301223486661911
1631290372139,-0.0857138186693191,-0.6153281331062317,0.4529421031475067,0.1301223486661911
1631290372193,-0.0778351798653602,-0.5692828297615051,0.6332769989967346,0.1301223486661911
1631290372295,-0.0707307681441307,-0.5446237921714783,0.7414700388908386,0.144902765750885
1631290372364,-0.0765225291252136,-0.5383777022361755,0.7943326234817505,0.140069842338562
1631290372544,-0.107084184885025,-0.5398000478744507,0.8137786984443665,0.1093151643872261
1631290372653,-0.1540958881378173,-0.5322057008743286,0.8195722699165344,0.0611637160181999
1631290372698,-0.1950441300868988,-0.498198539018631,0.8236122727394104,0.0314404629170894
1631290372868,-0.1950441300868988,-0.3997392356395721,0.8305405378341675,0.0314404629170894
1631290372879,-0.1950441300868988,-0.4505636394023895,0.8267121315002441,0.0314404629170894
1631290373053,-0.1950441300868988,-0.3527137041091919,0.8345304727554321,0.0314404629170894
1631290373119,-0.1950441300868988,-0.3028522431850433,0.8373962044715881,0.0314404629170894
1631290373244,-0.1950441300868988,-0.2378234416246414,0.838253915309906,0.0314404629170894
1631290373323,-0.1950441300868988,-0.1306433677673339,0.8371983766555786,0.0314404629170894
1631290373398,-0.1950441300868988,0.0294681321829557,0.8313117623329163,0.0314404629170894
1631290373509,-0.1950441300868988,0.2063304185867309,0.8139706254005432,0.0314404629170894
1631290373626,-0.1950441300868988,0.3533034026622772,0.7791323661804199,0.0314404629170894
1631290373840,-0.1950441300868988,0.4523859024047851,0.7293781638145447,0.0314404629170894
1631290373920,-0.1950441300868988,0.5053545832633972,0.6771602034568787,0.0314404629170894
1631290373978,-0.1950441300868988,0.527583122253418,0.6400343775749207,0.0314404629170894
1631290374041,-0.1950441300868988,0.534206211566925,0.6239826083183289,0.0314404629170894
1631290374079,-0.1950441300868988,0.5361050963401794,0.6199849843978882,0.0314404629170894
1631290374206,-0.1950441300868988,0.5344453454017639,0.6159760355949402,0.0314404629170894
1631290374429,-0.1950441300868988,0.5303627252578735,0.6117339134216309,0.0314404629170894
1631290374523,-0.1950441300868988,0.5259498357772827,0.6063511967658997,0.0314404629170894
1631290374590,-0.1950441300868988,0.5225763320922852,0.600653350353241,0.0314404629170894
1631290374668,-0.1950441300868988,0.5190609097480774,0.5965949892997742,0.0314404629170894
1631290374698,0.521071195602417,0.5115886926651001,0.5947714447975159,0.4949147403240204
1631290374894,0.521071195602417,0.4909641444683075,0.5896703004837036,0.7377835512161255
1631290375090,0.521071195602417,0.4410014748573303,0.5675652623176575,0.9072840213775636
1631290375141,0.521071195602417,0.3427311182022095,0.5092533230781555,0.9956191182136536
1631290375210,0.8385894298553467,0.183410495519638,0.4004601538181305,1.030962586402893
1631290375310,0.9126880168914796,-0.033749483525753,0.2448385208845138,1.034694790840149
1631290375473,0.9197848439216614,-0.2558299005031585,0.0885761529207229,1.025294065475464
1631290375545,0.9052140712738036,-0.3986598551273346,-0.004132299683988,1.010811686515808
1631290375719,0.8868363499641418,-0.4353445768356323,-0.0237079244107007,0.9958115816116332
1631290375860,0.8628683686256409,-0.4353346526622772,-0.0190129224210977,0.9799982905387878
1631290375925,0.8349811434745789,-0.4244166314601898,-0.0111916856840252,0.9635276794433594
1631290375962,0.8077086210250854,-0.4068703949451446,-0.0037187943235039,0.9453968405723572
1631290376060,0.8132799863815308,-0.4028310477733612,-5.753566074417904e-05,0.949675440788269
1631290376125,0.8135465979576111,-0.4151391088962555,0.0028602972161024,0.9491079449653624
1631290376310,0.8054443001747131,-0.4399560689926147,0.0040962724015116,0.9423006772994996
1631290376390,0.7654675245285034,-0.4661693274974823,0.003776024095714,0.9182204604148864
1631290376439,0.7383964657783508,-0.4845038652420044,-0.0014918239321559,0.8653968572616577
1631290376496,0.7106931805610657,-0.4947543740272522,-0.0162603054195642,0.7770957946777344
1631290376599,0.6836065053939819,-0.5032747387886047,-0.0422776192426681,0.6691976189613342
1631290376672,0.5357428193092346,-0.5115247368812561,-0.079637236893177,0.5597434043884277
1631290376844,0.3946194946765899,-0.5195039510726929,-0.1299339532852172,0.4633062779903412
1631290376927,0.2767149209976196,-0.5256901979446411,-0.19560207426548,0.3743492662906647
1631290376960,0.1776160150766372,-0.5208139419555664,-0.2666436731815338,0.2862604856491089
1631290377128,0.0808911621570587,-0.5059289932250977,-0.3247374296188354,0.1887335181236267
1631290377206,0.0092020211741328,-0.4883411824703216,-0.3409217298030853,0.0862761437892913
1631290377333,-0.0311242677271366,-0.468976616859436,-0.3237581551074981,-0.0195303931832313
1631290377415,-0.0643187314271926,-0.4501809179782867,-0.2918894290924072,-0.1169703751802444
1631290377529,-0.1012583002448082,-0.4210712015628814,-0.269603818655014,-0.1914140284061432
1631290377572,-0.1481177359819412,-0.3782355785369873,-0.2608263492584228,-0.221084862947464
1631290377708,-0.2122835516929626,-0.3303475081920624,-0.257608026266098,-0.2190720289945602
1631290377899,-0.2773030400276184,-0.2933295965194702,-0.2558556199073791,-0.1878345012664795
1631290378012,-0.3212752342224121,-0.2700116634368896,-0.2538181841373443,-0.1562780290842056
1631290378099,-0.3234033286571502,-0.2589347958564758,-0.2495044469833374,-0.135855957865715
1631290378179,-0.3065245747566223,-0.2542808055877685,-0.247533693909645,-0.1362527310848236
1631290378245,-0.2864065170288086,-0.2541136741638183,-0.2477884888648986,-0.1480249464511871
1631290378324,-0.2734758555889129,-0.2559027671813965,-0.248017817735672,-0.1508753001689911
1631290378526,-0.2623353600502014,-0.2618997097015381,-0.2548796236515045,-0.1403576135635376
1631290378657,-0.2442540377378463,-0.2752158939838409,-0.2664527297019958,-0.117460012435913
1631290378798,-0.2049988657236099,-0.2928235232830047,-0.2813811898231506,-0.0820473283529281
1631290379021,-0.1504041999578476,-0.307778000831604,-0.3034181296825409,-0.0430775992572307
1631290379143,-0.0899039208889007,-0.3173594176769256,-0.3346054852008819,-0.0067399237304925
1631290379147,-0.0257028322666883,-0.3231845498085022,-0.3706298470497131,0.0264134742319583
1631290379196,0.0345903187990188,-0.3351944386959076,-0.4021924436092376,0.0551875568926334
1631290379215,0.0902725532650947,-0.3669700622558594,-0.4303471744060516,0.0742871686816215
1631290379264,0.1317124813795089,-0.4194034337997436,-0.4579447507858276,0.0771031305193901
1631290379357,0.1553074419498443,-0.4742046892642975,-0.4854432940483093,0.0634591057896614
1631290379440,0.1610041260719299,-0.5135446190834045,-0.5058444738388062,0.0398922376334667
1631290379530,0.1553565710783004,-0.5283479690551758,-0.5145790576934814,0.0156787429004907
1631290379608,0.1479420214891433,-0.5276772975921631,-0.507622241973877,0.0050605488941073
1631290379759,0.1506666094064712,-0.5168092846870422,-0.4868626594543457,0.0097970766946673
1631290379854,0.1672588586807251,-0.5010517835617065,-0.4610492885112762,0.0186163745820522
1631290380031,0.1915928870439529,-0.4856645762920379,-0.42789426445961,0.0246748719364404
1631290380123,0.2101442962884903,-0.4708034992218017,-0.4041637480258941,0.0211756266653537
1631290380220,0.2091957181692123,-0.4601531028747558,-0.4010168612003326,-9.684934775577858e-05
1631290380306,0.1886538565158844,-0.4599510431289673,-0.4213409423828125,-0.041082926094532
1631290380393,0.1547105312347412,-0.474530279636383,-0.4501832127571106,-0.0975699424743652
1631290380569,0.1106936559081077,-0.5017595291137695,-0.4742040038108825,-0.1658720970153808
1631290380632,0.0628753080964088,-0.5259494185447693,-0.487383097410202,-0.2385759651660919
1631290380663,0.0168538000434637,-0.5306558609008789,-0.4913655519485473,-0.2983822226524353
1631290380826,-0.0099575910717248,-0.5142664313316345,-0.4945946037769317,-0.3343987464904785
1631290380883,-0.0065548298880457,-0.4825769066810608,-0.5032663345336914,-0.3510871827602386
1631290380959,0.0237470753490924,-0.4451825022697449,-0.5165273547172546,-0.3564279675483703
1631290381023,0.0623319260776042,-0.4053281247615814,-0.5298634171485901,-0.3617794513702392
1631290381136,0.0934303551912307,-0.3646800220012665,-0.5411356091499329,-0.3782056868076324
1631290381413,0.1085660308599472,-0.3327454030513763,-0.5596876740455627,-0.4065792262554168
1631290381426,0.1072657331824302,-0.3139359652996063,-0.5930204391479492,-0.438375174999237
1631290381596,0.093444138765335,-0.3035443425178528,-0.6379778981208801,-0.4583153128623962
1631290381691,0.0734835341572761,-0.2907332479953766,-0.67671138048172,-0.4517273902893066
1631290381985,0.0375375226140022,-0.2410029023885727,-0.6991644501686096,-0.379620611667633
1631290382008,0.0546463206410408,-0.2682203948497772,-0.6999350786209106,-0.4196685254573822
1631290382140,0.0207626558840274,-0.218917578458786,-0.6761977672576904,-0.3432572484016418
1631290382259,0.0061532403342425,-0.200707271695137,-0.6377667784690857,-0.3142096996307373
1631290382324,-0.00571502558887,-0.1891638785600662,-0.5948531627655029,-0.2934828400611877
1631290382368,-0.0178500618785619,-0.1830832213163375,-0.5617935061454773,-0.2766950726509094
1631290382438,-0.0377391576766967,-0.1838779002428054,-0.5424002408981323,-0.2642230689525604
1631290382583,-0.0711917504668235,-0.1943589150905609,-0.5341243147850037,-0.2595968544483185
1631290382719,-0.1200673580169677,-0.2144186496734619,-0.5340906381607056,-0.2644231915473938
1631290382858,-0.1750755906105041,-0.2425832748413086,-0.5373696684837341,-0.2725036442279815
1631290383039,-0.2241575717926025,-0.2783312201499939,-0.5436588525772095,-0.282794326543808
1631290383042,-0.2662643790245056,-0.3152529895305633,-0.5476188659667969,-0.2958800196647644
1631290383133,-0.3112566173076629,-0.3448385000228882,-0.5522043108940125,-0.3126357793807983
1631290383197,-0.3640206754207611,-0.3639140129089355,-0.5567841529846191,-0.3318942785263061
1631290383259,-0.4095829129219055,-0.3834092319011688,-0.56013023853302,-0.3505706191062927
1631290383397,-0.4315173923969269,-0.4200969040393829,-0.555978536605835,-0.3722205460071563
1631290383473,-0.43020960688591,-0.4791254997253418,-0.5515204668045044,-0.3903425931930542
1631290383609,-0.413107693195343,-0.546769917011261,-0.5624082684516907,-0.397245317697525
1631290383656,-0.3937223255634308,-0.6158789396286011,-0.5903810858726501,-0.3758065104484558
1631290383681,-0.3787411153316498,-0.6709703803062439,-0.6123402714729309,-0.3219444751739502
1631290383850,-0.3656801879405975,-0.7123981714248657,-0.5886437296867371,-0.2569695115089416
1631290383898,-0.3491062521934509,-0.7300577163696289,-0.524668276309967,-0.1969320029020309
1631290384073,-0.3207268118858337,-0.7246578335762024,-0.4362693727016449,-0.1469196230173111
1631290384257,-0.2801758944988251,-0.7069880962371826,-0.3591979444026947,-0.10529076308012
1631290384626,-0.2455272823572158,-0.6879462599754333,-0.3105136156082153,-0.0748559832572937
1631290384757,-0.2215982675552368,-0.6701498031616211,-0.285819411277771,-0.0461977124214172
1631290384904,-0.2043860256671905,-0.6527424454689026,-0.279717206954956,-0.0186497829854488
1631290384953,-0.1857809424400329,-0.6368060111999512,-0.2792881429195404,5.713512655347586e-05
1631290385043,1.530120849609375,1.5013235807418823,0.7365906238555908,1.9717611074447632
1631290385060,-0.1558727771043777,-0.6341971755027771,0.7361871600151062,0.7611491680145264
1631290385142,1.5311241149902344,1.5010933876037598,0.7377110719680786,1.972044587135315
1631290385210,1.532051682472229,1.500991940498352,0.7406527996063232,2.026200532913208
1631290385278,1.5329291820526123,1.5010815858840942,0.7450080513954163,2.027170419692993
1631290385326,1.5337519645690918,1.5013279914855957,0.7502530217170715,2.028160095214844
1631290385500,1.5343871116638184,1.5017186403274536,0.7548795342445374,2.028878927230835
1631290385788,1.5347729921340942,1.502203106880188,0.7573767304420471,2.029261827468872
1631290385892,1.5347213745117188,1.5027512311935425,0.7572479844093323,2.029360294342041
1631290385940,1.534165382385254,1.5033762454986572,0.7541894316673279,2.0292861461639404
1631290385980,2.0457677841186523,2.036966323852539,1.01235830783844,2.467212677001953
1631290385992,2.0348591804504395,2.024449110031128,1.0141183137893677,2.435330629348755
1631290386078,2.064150333404541,2.0571792125701904,1.1726781129837036,2.474127054214477
1631290386092,2.309881687164306,2.3058152198791504,2.0064496994018555,2.5982565879821777
1631290386166,2.30998969078064,2.3058290481567383,2.006760358810425,2.598229169845581
1631290386208,2.3103199005126958,2.3058247566223145,1.9856539964675903,2.5929958820343018
1631290386247,2.2342357635498047,2.2323029041290283,1.9861676692962649,2.482619524002075
1631290386369,2.2351863384246826,2.232339143753052,1.9866209030151367,2.4825704097747803
1631290386442,2.2360966205596924,2.232370138168335,1.9868731498718264,2.4644482135772705
1631290386477,2.23672103881836,2.23237943649292,1.9868874549865725,2.4641635417938232
1631290386525,2.237027883529663,2.232369899749756,1.9867348670959477,2.463843584060669
1631290386641,2.2371938228607178,2.232344388961792,1.9865273237228396,2.4635603427886963
1631290386741,2.2969846725463867,2.2936062812805176,2.088536024093628,2.659470319747925
1631290386909,2.2972357273101807,2.2934069633483887,2.088318109512329,2.678609609603882
1631290386933,2.297126293182373,2.293524742126465,2.0883922576904297,2.678619861602783
1631290387041,2.093699216842652,2.0884604454040527,2.071286201477051,2.493619680404663
1631290387328,2.0838377475738525,2.0773520469665527,2.0712897777557373,2.4637584686279297
1631290387458,2.06626558303833,2.058096408843994,2.053941249847412,2.4567267894744877
1631290387526,1.452045440673828,1.4179774522781372,1.4250611066818235,2.2734129428863525
1631290387641,1.452190637588501,1.418066382408142,1.424042582511902,2.2735111713409424
1631290387709,1.451000094413757,1.4182918071746826,1.422507882118225,2.273634433746338
1631290387759,1.4478726387023926,1.4184143543243408,1.420579195022583,2.273805618286133
1631290387802,1.4432169198989868,1.4183560609817505,1.418545842170715,2.2739739418029785
1631290387874,1.438068985939026,1.4182149171829224,1.416825771331787,2.2740824222564697
1631290387949,1.4337691068649292,1.4181039333343506,1.4158223867416382,2.2740674018859863
1631290388000,1.430906057357788,1.41803777217865,1.4154130220413208,2.27396559715271
1631290388298,1.4288634061813354,1.41796612739563,1.4153591394424438,2.273844718933105
1631290388410,0.1184409484267234,-0.5352243185043335,-0.4978959262371063,1.3408092260360718
1631290388498,0.0927815586328506,-0.525718629360199,-0.4741033315658569,0.0826799869537353
1631290388533,0.0988149344921112,-0.5015594363212585,-0.4459686875343323,0.1181217655539512
1631290388603,0.1141848266124725,-0.4675518870353699,-0.3683325052261352,0.1117043942213058
1631290388761,0.1291747391223907,-0.3512164652347564,-0.1750296056270599,0.0967786386609077
1631290388808,0.1389713436365127,-0.1378008425235748,0.0873409286141395,0.0855273306369781
1631290388921,0.1353048980236053,0.0832717418670654,0.3197808563709259,0.0814438536763191
1631290388989,0.118869662284851,0.2504854202270508,0.3443939387798309,0.0826666429638862
1631290389124,0.0817956253886222,0.3778561651706695,0.3720115721225738,0.0724914148449897
1631290389177,0.0050798314623534,0.4790290892124176,0.4038352966308594,0.0382646434009075
1631290389275,-0.1241189986467361,0.5625839233398438,0.4401156008243561,-0.0191346704959869
1631290389390,-0.2831352949142456,0.6294239163398743,0.4801331162452698,-0.0880408361554145
1631290389467,-0.4222680926322937,0.679585874080658,0.5233182907104492,-0.1295998990535736
1631290389707,-0.4222680926322937,0.7082703709602356,0.5699251890182495,-0.1156008690595626
1631290389743,-0.4222680926322937,0.7233999371528625,0.6208241581916809,-0.1156008690595626
1631290389779,-0.4222680926322937,0.7320506572723389,0.6788076162338257,-0.1156008690595626
1631290389893,-0.4222680926322937,0.7386484146118164,0.7486292719841003,-0.1156008690595626
1631290389923,-0.4222680926322937,0.7434730529785156,0.8349179029464722,-0.1156008690595626
1631290390124,-0.4222680926322937,0.7467575073242188,0.8349179029464722,-0.1156008690595626
1631290390222,-0.4222680926322937,0.7438836097717285,0.8349179029464722,-0.1156008690595626
1631290390241,-0.4222680926322937,0.7259807586669922,0.8349179029464722,-0.1156008690595626
1631290390462,-0.4222680926322937,0.6887097358703613,0.8349179029464722,-0.1156008690595626
1631290390464,0.4800062179565429,0.6374932527542114,-0.2478206306695938,0.7080597877502441
1631290390579,0.4508193433284759,0.5737617015838623,-0.1899106949567794,0.6573387980461121
1631290390632,0.4560675621032715,0.4960041344165802,-0.1298577487468719,0.6156138777732849
1631290390840,0.4864849746227264,0.4000850915908813,-0.077311672270298,0.5859557390213013
1631290391001,0.5114631652832031,0.2861784696578979,-0.0306930281221866,0.558786928653717
1631290391094,0.5219756960868835,0.1599572747945785,0.0041599618270993,0.5335977077484131
1631290391158,0.5148038864135742,0.0586328729987144,0.0287493299692869,0.5105125904083252
1631290391229,0.4965139329433441,-0.0125313811004161,0.0468996651470661,0.4895365238189697
1631290391308,0.4782987833023071,-0.066962756216526,0.0593084581196308,0.474066287279129
1631290391415,0.4717084765434265,-0.1191692799329757,0.0732978880405426,0.4641118049621582
1631290391569,0.4812890589237213,-0.1646142899990081,0.0873975679278373,0.4595949053764343
1631290391578,0.5042728185653687,-0.2006290555000305,0.1073762327432632,0.4580453932285309
1631290391726,0.5027763247489929,-0.2239110916852951,0.1549789309501648,0.4307334423065185
1631290391793,0.4995620846748352,-0.1772384941577911,0.246077224612236,0.3855380415916443
1631290391940,0.5014855861663818,0.0275289770215749,0.2672851085662842,0.3400783538818359
1631290392008,0.5127713084220886,0.0330100581049919,0.2883833050727844,0.3135451376438141
1631290392111,0.5287190675735474,0.0443444959819316,0.3061665594577789,0.3085946142673492
1631290392279,0.5336723327636719,0.060909416526556,0.3215637505054474,0.3083363771438598
1631290392358,0.5192610621452332,0.0809227526187896,0.3355777859687805,0.3033438920974731
1631290392475,0.4959067702293396,0.1023164540529251,0.3480959236621856,0.3041513860225677
1631290392502,0.4762871861457824,0.1252252459526062,0.3623847961425781,0.31233811378479
1631290392675,0.4824120998382568,0.1555362343788147,0.3809885680675506,0.3291386067867279
1631290392709,0.5249214172363281,0.1988623887300491,0.4054052233695984,0.3574211895465851
1631290392834,0.5249214172363281,0.2576912641525268,0.439602792263031,0.3574211895465851
1631290392890,0.5249214172363281,0.3307662606239319,0.4815996885299682,0.3574211895465851
1631290393088,0.5249214172363281,0.418783962726593,0.8959038853645325,0.3574211895465851
1631290393176,0.5249214172363281,0.9258817434310912,0.8959038853645325,0.3574211895465851
1631290393277,0.5249214172363281,1.2137373685836792,0.8959038853645325,0.3574211895465851
1631290393312,0.5249214172363281,1.4211715459823608,0.8959038853645325,0.3574211895465851
1631290393386,0.5249214172363281,1.5821655988693235,0.8959038853645325,0.3574211895465851
1631290393586,0.5249214172363281,1.629358172416687,0.8959038853645325,0.3574211895465851
1631290393634,0.5249214172363281,1.629358172416687,1.106971025466919,0.3574211895465851
1631290393754,0.5249214172363281,1.629358172416687,1.1517797708511353,0.3574211895465851
1631290393943,0.5249214172363281,1.629358172416687,1.1517797708511353,0.3574211895465851
1631290394123,0.5249214172363281,1.629358172416687,1.1517797708511353,0.3574211895465851
1631290394191,0.5249214172363281,1.6146948337554932,1.1517797708511353,0.3574211895465851
1631290394290,0.5249214172363281,1.5909229516983032,1.1517797708511353,0.3574211895465851
1631290394361,0.5249214172363281,1.5569849014282229,1.1643613576889038,0.3574211895465851
1631290394472,0.5249214172363281,1.5172637701034546,1.1528080701828003,0.3574211895465851
1631290394506,0.5249214172363281,1.4773404598236084,1.1252609491348269,0.3574211895465851
1631290394622,0.5249214172363281,1.438692331314087,1.051150918006897,0.3574211895465851
1631290394699,0.5249214172363281,1.405157446861267,1.009040355682373,0.3574211895465851
1631290394836,0.5249214172363281,1.353368878364563,0.9684062004089355,0.3574211895465851
1631290394916,0.5249214172363281,1.2765318155288696,0.9412793517112732,0.3574211895465851
1631290394980,0.5249214172363281,1.1558809280395508,0.9356896281242372,0.3574211895465851
1631290395156,0.5249214172363281,0.9759239554405212,0.9436162114143372,0.3574211895465851
1631290395241,0.5249214172363281,0.9724425673484802,0.9415110349655152,0.3574211895465851
1631290395307,0.5249214172363281,0.9677144885063172,0.8957183957099915,0.3574211895465851
1631290395338,1.14546537399292,0.9566310048103333,0.8890101313591003,1.2399200201034546
1631290395473,1.2638427019119265,0.9395638704299928,0.8687336444854736,1.3082574605941772
1631290395640,1.324864625930786,0.8177189230918884,0.8435009717941284,1.3358749151229858
1631290395715,1.338292121887207,0.6912682056427002,0.8170102834701538,1.333808660507202
1631290395774,1.3189185857772827,0.5923355221748352,0.7399126291275024,1.311277151107788
1631290395878,1.2841851711273191,0.5344612002372742,0.6757474541664124,1.278842806816101
1631290396010,1.2841851711273191,0.5027579069137573,0.6326109170913696,1.2402580976486206
1631290396210,1.2841851711273191,0.492586076259613,0.6060715317726135,1.2402580976486206
1631290396426,1.2841851711273191,0.4995536506175995,0.5982534885406494,1.2402580976486206
1631290396594,1.2841851711273191,0.5322062969207764,0.6055432558059692,1.2402580976486206
1631290396838,1.2841851711273191,0.5933831930160522,0.615338146686554,1.2402580976486206
1631290396960,1.2841851711273191,0.6667721271514893,0.6127320528030396,1.2402580976486206
1631290397005,1.3243736028671265,0.723933756351471,0.5885252952575684,1.269705295562744
1631290397060,1.3625153303146362,0.7494254112243652,0.5429608225822449,1.287537693977356
1631290397143,1.383791446685791,0.7499875426292419,0.4889780282974243,1.2812548875808716
1631290397178,1.3700964450836182,0.7377131581306458,0.4617800712585449,1.2404834032058716
1631290397407,1.308342456817627,0.7268378138542175,0.4807526767253876,1.1595990657806396
1631290397599,1.308342456817627,0.7394557595252991,0.6324153542518616,1.0399950742721558
1631290397620,1.308342456817627,0.7271037101745605,0.541321337223053,1.0399950742721558
1631290397702,1.308342456817627,0.7630515098571777,0.7406386733055115,1.0399950742721558
1631290397792,1.308342456817627,0.8079872131347656,0.8373525738716125,1.0399950742721558
1631290397811,1.308342456817627,0.8708928227424622,0.9292077422142028,1.0399950742721558
1631290397849,1.308342456817627,0.9741665124893188,1.071465015411377,1.0399950742721558
1631290397890,1.308342456817627,1.0290639400482178,1.141279697418213,1.0399950742721558
1631290397938,1.308342456817627,1.06461763381958,1.2077399492263794,1.0399950742721558
1631290397974,1.308342456817627,1.073974609375,1.2642130851745603,1.0399950742721558
1631290398045,1.308342456817627,1.0587562322616575,1.3040707111358645,1.0399950742721558
1631290398146,1.308342456817627,1.0318808555603027,1.330728530883789,1.0399950742721558
1631290398208,1.308342456817627,1.008891463279724,1.3467204570770264,1.0399950742721558
1631290398328,1.308342456817627,0.996559739112854,1.3561432361602783,1.0399950742721558
1631290398413,1.308342456817627,1.103866696357727,1.3626821041107178,1.0399950742721558
1631290398589,1.308342456817627,1.106724977493286,1.3715925216674805,1.0399950742721558
1631290398642,1.308342456817627,1.1343636512756348,1.4043307304382324,1.0399950742721558
1631290398759,1.308342456817627,1.1547542810440063,1.41924786567688,1.0399950742721558
1631290398891,1.308342456817627,1.1961287260055542,1.4285290241241455,1.0399950742721558
1631290398938,1.308342456817627,1.2497639656066897,1.4360661506652832,1.0399950742721558
1631290398983,1.308342456817627,1.2961221933364868,1.439660668373108,1.0399950742721558
1631290399179,1.308342456817627,1.2786210775375366,1.4028067588806152,1.0399950742721558
1631290399366,1.308342456817627,1.2751412391662598,1.3904753923416138,1.0399950742721558
1631290399460,1.308342456817627,1.2759593725204468,1.3634434938430786,1.0399950742721558
1631290399504,1.308342456817627,1.2869203090667725,1.3211442232131958,1.0399950742721558
1631290399535,1.308342456817627,1.3101352453231812,1.2763595581054688,1.0399950742721558
1631290399692,1.308342456817627,1.3425028324127195,1.2389869689941406,1.0399950742721558
1631290399757,1.308342456817627,1.3824735879898071,1.2325210571289062,1.0399950742721558
1631290399841,1.308342456817627,1.4316297769546509,1.2325210571289062,1.0399950742721558
1631290399925,1.308342456817627,1.379446268081665,1.2325210571289062,1.0399950742721558
1631290400158,1.308342456817627,1.4493173360824585,1.2325210571289062,1.0399950742721558
1631290400197,1.308342456817627,1.4978458881378174,1.2325210571289062,1.0399950742721558
1631290400277,1.308342456817627,1.4978458881378174,1.2325210571289062,1.0399950742721558
1631290400336,1.308342456817627,1.4978458881378174,1.2325210571289062,1.0399950742721558
1631290400405,1.308342456817627,1.4978458881378174,1.2325210571289062,1.0399950742721558
1631290400557,1.308342456817627,1.4978458881378174,1.2325210571289062,1.0399950742721558
1631290400670,1.308342456817627,1.4978458881378174,1.2325210571289062,1.0399950742721558
1631290400762,1.308342456817627,1.4978458881378174,1.2325210571289062,1.0399950742721558
1631290400828,1.308342456817627,1.4978458881378174,1.2325210571289062,1.0399950742721558
1631290400906,1.308342456817627,1.4978458881378174,1.2325210571289062,1.0399950742721558
1631290401030,1.308342456817627,1.4978458881378174,1.2325210571289062,1.0399950742721558
1631290401152,1.308342456817627,1.4978458881378174,1.2325210571289062,1.0399950742721558
1631290401263,1.308342456817627,1.4978458881378174,1.2325210571289062,1.0399950742721558
1631290401366,1.308342456817627,1.4978458881378174,1.2325210571289062,1.0399950742721558
1631290401424,1.308342456817627,1.4978458881378174,1.2325210571289062,1.0399950742721558
1631290401560,1.308342456817627,1.4978458881378174,1.2325210571289062,1.0399950742721558
1631290401692,1.308342456817627,1.1218163967132568,1.2325210571289062,1.0399950742721558
1631290401800,1.308342456817627,1.063886284828186,1.2325210571289062,0.6146284341812134
1631290401912,1.308342456817627,1.0107805728912354,1.2325210571289062,0.5535730123519897
1631290401940,1.1269601583480835,0.9577980637550354,1.2325210571289062,0.5148501992225647
1631290402049,1.0475804805755615,0.9073561429977416,1.2325210571289062,0.4876240193843841
1631290402135,0.9794477820396424,0.8597864508628845,0.467958003282547,0.4644555151462555
1631290402262,0.9185327291488647,0.8153184056282043,0.3941113352775574,0.438267171382904
1631290402373,0.8638148903846741,0.7746865153312683,0.3313062191009521,0.4076221883296966
1631290402475,0.8154395222663879,0.7379002571105957,0.2825372815132141,0.3757035434246063
1631290402554,0.7738721370697021,0.7047066688537598,0.246754840016365,0.3469722867012024
1631290402709,0.738152027130127,0.6751418113708496,0.2226870357990265,0.3249042332172394
1631290402759,0.7071365118026733,0.6495136618614197,0.2056621611118316,0.3106354773044586
1631290402822,0.6798598766326904,0.517954409122467,0.1914391368627548,0.3027122318744659
1631290403013,0.4710833132266998,0.364213228225708,0.1762218624353408,0.2425465136766433
1631290403053,0.1443687528371811,0.2106847912073135,0.1750475019216537,0.1669910252094268
1631290403144,0.1527957022190094,0.1261774450540542,0.2169488966464996,0.1209428384900093
1631290403328,0.1912803947925567,0.1250491440296173,0.3445639610290527,0.1241802647709846
1631290403422,0.2590049803256988,0.222433403134346,0.4904137551784515,0.2160381823778152
1631290403466,0.4539983868598938,0.404580295085907,0.6408624649047852,0.4391633570194244
1631290403596,0.6885296702384949,0.5939231514930725,0.7402891516685486,0.7048407793045044
1631290403706,0.8825500011444092,0.7530455589294434,0.7961550354957581,0.9214643836021424
1631290403794,1.0175987482070925,0.8568158149719238,0.8220789432525635,1.0635772943496704
1631290403877,1.046339511871338,0.9133499264717102,0.8493396639823914,1.09134840965271
1631290403973,1.0774770975112915,0.9466988444328308,0.8987725377082825,1.122113585472107
1631290404252,1.1106419563293457,0.9760065078735352,0.9577919840812684,1.155484914779663
1631290404374,1.1462337970733645,1.0009435415267944,1.007961988449097,1.1912668943405151
1631290404408,1.167297601699829,1.0194947719573977,1.038127899169922,1.2297091484069824
1631290404450,1.1745057106018066,1.0291168689727783,1.0509551763534546,1.2283591032028198
1631290404487,1.21258544921875,1.0327324867248535,1.0545647144317627,1.2701365947723389
1631290404541,1.253760814666748,1.0350464582443235,1.0552682876586914,1.3177707195281982
1631290404696,1.3001068830490112,1.0391066074371338,1.0520247220993042,1.372081995010376
1631290404807,1.3487571477890017,1.050305962562561,1.0381460189819336,1.4336776733398438
1631290404935,1.3932702541351318,1.0684293508529663,1.0091702938079834,1.4962247610092163
1631290405116,1.4161463975906372,1.0816524028778076,0.9707703590393066,1.5391788482666016
1631290405162,1.3873575925827026,1.0766561031341553,0.9372298121452332,1.5391788482666016
1631290405244,1.3873575925827026,1.0452184677124023,0.9161787629127502,1.5391788482666016
1631290405305,1.3873575925827026,1.001338005065918,0.908960223197937,1.5391788482666016
1631290405476,1.3873575925827026,0.9640307426452636,0.8952025175094604,1.5391788482666016
1631290405536,1.3873575925827026,0.935985267162323,0.8508795499801636,1.5391788482666016
1631290405708,1.3873575925827026,0.9040132761001588,0.7757126092910767,1.5391788482666016
1631290405725,1.3873575925827026,0.8721606135368347,0.6840336322784424,1.5391788482666016
1631290405806,1.3873575925827026,0.8445338606834412,0.60776686668396,0.4576437771320343
1631290405931,1.3873575925827026,0.8272590637207031,0.56649249792099,0.5733686685562134
1631290406072,0.2153832018375396,0.8182805776596069,0.5520941019058228,0.593762218952179
1631290406114,0.2109078466892242,0.809669554233551,0.54143887758255,0.5954811573028564
1631290406214,0.2037093490362167,0.7909993529319763,0.5253812074661255,0.5767024159431458
1631290406333,0.2037093490362167,0.748670220375061,0.494249552488327,0.5767024159431458
1631290406393,0.2037093490362167,0.6699236035346985,0.4470256268978119,0.5767024159431458
1631290406497,0.2037093490362167,0.556674063205719,0.3974071443080902,0.5767024159431458
1631290406672,0.2037093490362167,0.4480990767478943,0.3868832886219024,0.5767024159431458
1631290406825,0.2037093490362167,0.4123258888721466,0.4403599798679352,0.5767024159431458
1631290406902,0.2037093490362167,0.4536714851856231,0.5302680134773254,0.5767024159431458
1631290406951,0.2037093490362167,0.5087359547615051,0.6069146990776062,0.5767024159431458
1631290407010,0.2037093490362167,0.5406345129013062,0.6537923216819763,0.5767024159431458
1631290407189,0.2037093490362167,0.5592359304428101,0.6711459159851074,0.5918881297111511
1631290407411,0.1713080704212188,0.5674824118614197,0.6789934635162354,0.6009470820426941
1631290407412,0.1726490259170532,0.5738773941993713,0.6897813081741333,0.5993849039077759
1631290407466,0.1726490259170532,0.5857023596763611,0.7047010660171509,0.5993849039077759
1631290407547,0.1726490259170532,0.6054175496101379,0.73225337266922,0.5993849039077759
1631290407609,0.1726490259170532,0.633919358253479,0.7714446783065796,0.5993849039077759
1631290407743,0.1726490259170532,0.669548511505127,0.8190971612930298,0.5993849039077759
1631290407908,0.1726490259170532,0.7134042978286743,0.8729574680328369,0.1861772239208221
1631290407958,0.5089601874351501,0.7543382048606873,0.9236692786216736,0.234013482928276
1631290408029,0.4510652422904968,0.777176022529602,0.960072934627533,0.2884851098060608
1631290408167,0.3998469412326813,0.7682260274887085,0.9687526822090148,0.3226373791694641
1631290408195,0.3669651448726654,0.7302415370941162,0.9499725699424744,0.3247658610343933
1631290408293,0.3521632254123688,0.676798939704895,0.910068929195404,0.3050255477428436
1631290408606,0.3406891524791717,0.62715744972229,0.8663450479507446,0.2801333367824554
1631290408649,0.3270595371723175,0.595267117023468,0.8329150080680847,0.2601788938045501
1631290408689,0.3076444566249847,0.5791798830032349,0.818712055683136,0.2491124719381332
1631290408735,0.2854490876197815,0.572109580039978,0.812813937664032,0.2382862418889999
1631290408838,0.2672566175460815,0.5672255158424377,0.8046908378601074,0.2237641662359237
1631290409049,0.2528055012226105,0.5566440224647522,0.7919288277626038,0.208472803235054
1631290409141,0.2402085810899734,0.537988007068634,0.7662690281867981,0.1923203021287918
1631290409312,0.1785387992858886,0.508871853351593,0.7252368927001953,0.1809785664081573
1631290409448,0.113300509750843,0.4654384553432464,0.6637340188026428,0.174476608633995
1631290409495,0.0732359513640403,0.3961835503578186,0.5650952458381653,0.1682268679141998
1631290409724,0.0707244724035263,0.3029167354106903,0.4144240021705627,0.1476133465766906
1631290409890,0.069751538336277,0.2072346210479736,0.2043114304542541,0.1056115701794624
1631290410125,0.0763791427016258,0.1820297688245773,0.0380856208503246,0.0518931522965431
1631290410174,0.0752533376216888,0.2644372582435608,0.1207623705267906,0.013159112073481
1631290410223,0.0578209459781646,0.4152910411357879,0.3813149929046631,0.0030654836446046
1631290410269,0.0352117680013179,0.5643253326416016,0.6163695454597473,0.0084459958598017
1631290410299,0.0156542547047138,0.6717574596405029,0.7804331183433533,0.0113718640059232
1631290410350,0.0122067928314208,1.559522271156311,0.807707667350769,-0.0036501996219158
1631290410461,0.0248051416128873,1.563122034072876,0.8374983668327332,-0.0196359306573867
1631290410521,0.0354950167238712,1.5645934343338013,0.8705995082855225,-0.0176626816391944
1631290410760,0.0420572087168693,1.566686511039734,0.9832261204719543,-0.0004947911365889
1631290410818,0.0498133264482021,1.5717436075210571,1.0203956365585327,-0.0004947911365889
1631290410838,0.0498133264482021,1.5822397470474243,1.061111330986023,-0.0004947911365889
1631290410945,0.0498133264482021,1.5965806245803833,1.1060640811920166,-0.0004947911365889
1631290410948,0.0498133264482021,1.6130578517913818,1.1560735702514648,-0.0004947911365889
1631290411037,0.0498133264482021,1.6286381483078003,1.2120686769485474,-0.0004947911365889
1631290411093,0.0498133264482021,1.6565381288528442,1.2753583192825315,-0.0004947911365889
1631290411242,0.0498133264482021,1.6854941844940186,1.3429609537124634,-0.0004947911365889
1631290411410,0.0498133264482021,1.7145897150039673,1.4036940336227417,-0.0004947911365889
1631290411444,0.0498133264482021,1.7431224584579468,1.4036940336227417,-0.0004947911365889
1631290411575,0.0498133264482021,1.7482349872589111,1.4036940336227417,-0.0004947911365889
1631290411608,0.0498133264482021,1.7545214891433716,1.4036940336227417,-0.0004947911365889
1631290411688,0.0498133264482021,1.1790673732757568,1.4036940336227417,-0.0004947911365889
1631290411825,0.0498133264482021,1.2104005813598633,1.4036940336227417,-0.0004947911365889
1631290411964,0.0498133264482021,1.254374623298645,1.009308695793152,-0.0004947911365889
1631290412022,0.0498133264482021,1.2630271911621094,0.6927438378334045,-0.0004947911365889
1631290412144,0.0498133264482021,1.254039287567139,0.7070890665054321,-0.0004947911365889
1631290412314,0.0498133264482021,1.219559907913208,0.7014868855476379,-0.0004947911365889
1631290412456,0.0498133264482021,1.1576108932495115,0.672555148601532,-0.0004947911365889
1631290412488,0.0498133264482021,1.0631929636001587,0.6316624283790588,-0.0004947911365889
1631290412519,0.0498133264482021,0.9370594024658204,0.5874225497245789,-0.0004947911365889
1631290412593,0.0498133264482021,0.8937786221504211,0.5483253598213196,-0.0004947911365889
1631290412714,0.6932448744773865,0.8589078783988953,0.5276310443878174,0.4475327134132385
1631290412987,0.6586318016052246,0.8415740132331848,0.5443165898323059,0.622839093208313
1631290413057,0.6714350581169128,0.8467797040939331,0.5977001190185547,0.8146857619285583
1631290413239,0.7010201811790466,0.7812062501907349,0.671877920627594,0.9578555226325988
1631290413296,0.7010201811790466,0.7117469310760498,0.7375053763389587,0.9578555226325988
1631290413341,0.7010201811790466,0.7117469310760498,0.7913781404495239,0.9578555226325988
1631290413554,0.7010201811790466,0.7117469310760498,0.8417085409164429,0.9578555226325988
1631290413591,0.7010201811790466,0.7774401903152466,0.8810477256774902,0.9578555226325988
1631290413643,0.7010201811790466,0.8737202286720276,0.9064976572990416,0.9578555226325988
1631290413680,0.7010201811790466,0.8893909454345703,0.9226046800613404,0.9578555226325988
1631290413823,0.7010201811790466,0.9370384216308594,0.9449645280838012,0.9578555226325988
1631290413830,0.7010201811790466,0.9095932841300964,0.9350742101669312,0.9578555226325988
1631290413919,0.6387019157409668,0.97248637676239,0.9595723152160645,1.0053911209106443
1631290414034,0.619885265827179,0.994949221611023,0.9880881309509276,1.0702449083328247
1631290414159,0.6518135070800781,1.018507480621338,1.0408891439437866,1.1515462398529053
1631290414360,0.6518135070800781,1.0784592628479004,1.172743797302246,1.1515462398529053
1631290414375,0.6518135070800781,1.0509657859802246,1.1116236448287964,1.1515462398529053
1631290414444,0.6518135070800781,1.0835883617401123,1.183911919593811,1.1515462398529053
1631290414577,0.6518135070800781,1.056812763214111,1.18606436252594,1.1515462398529053
1631290414693,0.6518135070800781,1.003542184829712,1.164454698562622,1.1515462398529053
1631290414780,0.6518135070800781,0.9624620079994202,1.1322535276412964,0.9433063864707948
1631290414946,0.6518135070800781,0.9244243502616882,1.0935513973236084,0.8795948624610901
1631290415258,0.6518135070800781,0.8459752202033997,1.0547019243240356,0.8162519931793213
1631290415477,0.6518135070800781,0.6788386702537537,1.0181723833084106,0.7569456696510315
1631290415751,0.6518135070800781,0.6461108326911926,0.9857531785964966,0.7055858969688416
1631290415833,0.6518135070800781,0.6149690747261047,0.9579498767852784,0.6610150933265686
1631290415871,0.6518135070800781,0.585371196269989,0.9381287693977356,0.621350884437561
1631290415930,-0.3059144020080566,0.5588498115539551,0.9164950847625732,0.5848760008811951
1631290415965,-0.3407213091850281,0.5147363543510437,0.876083254814148,0.5507540106773376
1631290416019,1.2687127590179443,1.0181982517242432,1.149653434753418,1.059633731842041
1631290416081,1.212627649307251,0.9961264729499816,1.073919415473938,2.077918291091919
1631290416207,1.1827346086502075,0.973557472229004,0.9841547012329102,2.048257350921631
1631290416243,1.1827346086502075,0.9686993956565856,0.9841547012329102,2.045545816421509
1631290416437,1.1827346086502075,0.9964641332626344,0.9841547012329102,2.0430939197540283
1631290416527,1.1827346086502075,1.0509535074234009,0.995764434337616,2.0418527126312256
1631290416620,1.1827346086502075,1.1117981672286987,1.0233831405639648,2.041855335235596
1631290416692,1.1827346086502075,1.1588550806045532,1.061690330505371,2.0423853397369385
1631290416761,1.1827346086502075,1.3434802293777466,1.1059417724609375,2.043494462966919
1631290416817,1.1827346086502075,1.3684749603271484,1.1554241180419922,2.0552568435668945
1631290416854,1.236979365348816,1.409904718399048,1.2112250328063965,2.0850632190704346
1631290416912,1.3021867275238037,1.4119234085083008,1.2760415077209473,2.1170897483825684
1631290416947,1.3805396556854248,1.413348913192749,1.2839399576187134,2.151703119277954
1631290417027,1.3877761363983154,1.413946270942688,1.288601636886597,2.1532957553863525
1631290417118,1.393614411354065,1.413637638092041,1.2916709184646606,2.1542909145355225
1631290417188,0.5095934867858887,1.2639333009719849,0.3433544337749481,2.1273193359375
1631290417251,0.4771541953086853,1.2621726989746094,0.3200669288635254,0.8581029176712036
1631290417475,0.26161590218544,1.257663011550903,0.1057923287153244,0.8732543587684631
1631290417518,0.2658575177192688,1.2459286451339722,0.0676702335476875,0.8855563998222351
1631290417590,0.4084440171718597,1.2263407707214355,0.1492247432470321,0.9124394059181212
1631290417934,0.4051595032215118,1.1879103183746338,0.1173982620239257,0.906971514225006
1631290417992,0.4048487842082977,1.1381478309631348,0.0859254449605941,0.8922486901283264
1631290418040,0.3990898430347442,1.0903784036636353,0.0557138472795486,0.876863956451416
1631290418081,0.3808631300926208,0.6724399328231812,0.0298341792076826,0.8563787341117859
1631290418109,0.354899525642395,0.5315119624137878,0.0129142673686146,0.5358202457427979
1631290418262,0.3279086053371429,0.0247684884816408,0.011466403491795,0.5113089084625244
1631290418308,0.3010343015193939,-0.0263473819941282,0.027497274801135,0.4873625338077545
1631290418547,0.2764614224433899,-0.0618472062051296,0.0126036275178194,0.464591383934021
1631290418609,0.2478303462266922,-0.0786186158657074,0.0203055161982774,0.3994122147560119
1631290418780,0.2271206825971603,-0.0792450606822967,0.0257505122572183,0.3549832999706268
1631290418804,0.220394879579544,-0.075213573873043,0.0211106371134519,0.3178484141826629
1631290418899,0.2153418809175491,-0.0745329782366752,0.0116631016135215,0.2711219787597656
1631290419042,0.2074752300977707,-0.0796123594045639,0.0081549640744924,0.2085382938385009
1631290419159,0.1983112096786499,-0.0814371332526207,0.016022166237235,0.1435963362455368
1631290419219,0.0796765759587287,-0.1579772680997848,-0.0023934680502861,-0.0225008577108383
1631290419259,0.0447912849485874,-0.104845218360424,0.1394940167665481,-0.0523513630032539
1631290419305,-0.0041162762790918,0.0515642762184143,0.3534099459648132,-0.074796661734581
1631290419651,-0.0805068761110305,0.5792379975318909,0.6296482682228088,-0.1498571336269378
1631290419691,-0.0554582513868808,0.3206488490104675,0.6022080183029175,-0.1092022880911827
1631290419786,-0.0746794566512107,0.7749240398406982,0.6578919291496277,-0.1859031617641449
1631290419960,-0.0525902956724166,0.901728093624115,0.6853800415992737,-0.2145187109708786
1631290420023,-0.0159669537097215,0.9299550652503968,0.7110067009925842,-0.2351126670837402
1631290420136,0.02786704339087,0.9603673219680786,0.736667811870575,-0.2523806393146515
1631290420220,0.0769949331879615,0.9934029579162598,0.7671394348144531,-0.2643211185932159
1631290420303,0.1180308386683464,1.0864931344985962,0.8072708249092102,-0.2792378664016723
1631290420342,0.1180308386683464,1.1726393699645996,0.8586442470550537,-0.2792378664016723
1631290420397,0.1180308386683464,1.2438225746154783,0.9213945269584656,-0.2792378664016723
1631290420444,0.1180308386683464,1.2944070100784302,0.9963961839675904,-0.2792378664016723
1631290420576,0.1180308386683464,1.3222695589065552,1.0862005949020386,-0.2792378664016723
1631290420758,0.1180308386683464,1.3328709602355957,1.0862005949020386,-0.2792378664016723
1631290421009,0.1180308386683464,1.3330942392349243,1.0862005949020386,-0.2792378664016723
1631290421152,0.1180308386683464,1.3236583471298218,1.0862005949020386,-0.2792378664016723
1631290421392,0.1180308386683464,1.296078085899353,1.0862005949020386,-0.2792378664016723
1631290421466,0.1180308386683464,1.244825005531311,1.0862005949020386,-0.2792378664016723
1631290421524,0.1180308386683464,1.1717450618743896,-0.1446580737829208,-0.2792378664016723
1631290421735,0.1180308386683464,1.0915108919143677,-0.1887079179286956,-0.2792378664016723
1631290421877,0.1180308386683464,1.0538371801376345,0.3384036719799042,-0.2792378664016723
1631290421886,0.1180308386683464,1.0843926668167114,0.3986877202987671,-0.2792378664016723
1631290422005,0.5506550073623657,1.0251199007034302,0.2873638570308685,0.3604389131069183
1631290422094,0.4812491238117218,0.9403457045555116,0.2487687319517135,0.3414663970470428
1631290422110,0.4386613368988037,0.8182910084724426,0.217653140425682,0.3100417852401733
1631290422189,0.4386613368988037,0.4655586183071136,1.119118332862854,0.3100417852401733
1631290422205,0.4386613368988037,0.6650088429450989,1.1516348123550415,0.3100417852401733
1631290422254,0.4386613368988037,0.2974400222301483,1.1021056175231934,0.3100417852401733
1631290422475,0.4386613368988037,0.2399127036333084,1.1021056175231934,0.3100417852401733
1631290422557,0.4386613368988037,0.280521810054779,1.1021056175231934,0.3100417852401733
1631290422582,0.4386613368988037,1.2060410976409912,1.132498264312744,0.3100417852401733
1631290422677,0.4386613368988037,1.2122297286987305,1.1689090728759766,0.3100417852401733
1631290422768,0.4386613368988037,1.216645121574402,1.209366798400879,0.3100417852401733
1631290422826,0.4386613368988037,1.219570279121399,1.2199194431304932,0.3100417852401733
1631290423202,0.4827525615692138,1.2214574813842771,1.2248430252075195,0.31904137134552
1631290423250,-0.0461317300796508,1.2403085231781006,1.25453519821167,0.2974157929420471
1631290423367,-0.0461317300796508,1.242530107498169,1.2590123414993286,0.2974157929420471
1631290423491,-0.0461317300796508,1.245519757270813,1.263607382774353,0.2974157929420471
1631290423823,-0.0461317300796508,1.2491921186447144,1.2696377038955688,0.2974157929420471
1631290423857,-0.0461317300796508,1.334505915641785,1.0598516464233398,0.2974157929420471
1631290423866,-0.0461317300796508,1.2531816959381104,1.2790533304214478,0.2974157929420471
1631290423950,-0.0461317300796508,1.3359193801879885,1.074938416481018,0.2974157929420471
1631290424143,-0.0461317300796508,1.3327298164367676,1.0348610877990725,0.2974157929420471
1631290424149,-0.0461317300796508,1.3353053331375122,1.0669313669204712,0.2974157929420471
1631290424180,-0.0461317300796508,1.5362157821655271,1.001908540725708,0.2974157929420471
1631290424341,-0.0461317300796508,1.310124397277832,0.9720020294189452,0.2974157929420471
1631290424469,-0.0461317300796508,1.3106144666671753,0.9469653367996216,0.2974157929420471
1631290424591,1.50470769405365,1.3108693361282349,0.9256868958473206,0.2974157929420471
1631290424720,1.50470769405365,1.3102350234985352,0.9192574620246888,0.2974157929420471
1631290424907,1.50470769405365,1.3092198371887207,0.9206228852272034,0.2974157929420471
1631290424907,1.50470769405365,1.2809325456619265,0.8482077121734619,0.2974157929420471
1631290424959,1.50470769405365,1.2818586826324463,0.8735575675964355,0.2974157929420471
1631290425002,1.50470769405365,1.6112663745880127,1.07232928276062,0.2974157929420471
1631290425038,1.50470769405365,1.6120740175247192,1.0965598821640017,0.2974157929420471
1631290425082,1.50470769405365,1.618354558944702,1.1111063957214355,0.2974157929420471
1631290425116,1.50470769405365,1.5803124904632568,0.9626789093017578,0.2974157929420471
1631290425177,1.50470769405365,1.5834290981292725,0.970791220664978,0.2974157929420471
1631290425270,1.50470769405365,1.6391057968139648,0.994562327861786,0.2974157929420471
1631290425292,1.50470769405365,1.6433231830596924,1.0319545269012451,0.2974157929420471
1631290425375,1.50470769405365,1.4946190118789673,1.0682659149169922,0.2974157929420471
1631290425473,1.50470769405365,1.4962323904037476,1.0948365926742554,0.2974157929420471
1631290425791,1.50470769405365,1.5000439882278442,1.116506576538086,0.2974157929420471
1631290426023,1.50470769405365,1.508920192718506,1.1410980224609375,0.2974157929420471
1631290426061,1.50470769405365,1.591028094291687,1.1667641401290894,0.2974157929420471
1631290426237,1.50470769405365,1.600316047668457,1.1849548816680908,0.2974157929420471
1631290426290,1.50470769405365,1.6179057359695437,1.192273497581482,0.2974157929420471
1631290426378,1.50470769405365,1.6187365055084229,1.2062299251556396,0.2974157929420471
1631290426459,1.50470769405365,1.2976548671722412,1.084280014038086,0.2974157929420471
1631290426476,1.50470769405365,1.298147439956665,1.0811532735824585,0.2974157929420471
1631290426558,1.50470769405365,1.2932735681533811,1.0845729112625122,0.2974157929420471
1631290426574,1.50470769405365,1.3071167469024658,1.099084973335266,0.2974157929420471
1631290426691,1.50470769405365,1.2651433944702148,1.11712646484375,0.2974157929420471
1631290426693,1.50470769405365,1.3316932916641235,1.1142035722732544,0.2974157929420471
1631290427024,1.50470769405365,1.2820451259613037,1.1038745641708374,0.2974157929420471
1631290427076,1.50470769405365,1.3035863637924194,1.0881378650665283,0.2974157929420471
1631290427142,1.50470769405365,1.3285752534866333,1.0868619680404663,0.2974157929420471
1631290427332,1.50470769405365,1.351979374885559,1.092550277709961,0.2974157929420471
1631290427364,1.50470769405365,1.3702569007873535,1.092550277709961,0.2974157929420471
1631290427511,1.50470769405365,1.140305757522583,1.092550277709961,0.2974157929420471
1631290427603,1.50470769405365,1.1080399751663208,1.092550277709961,0.2974157929420471
1631290427651,1.50470769405365,1.0230963230133057,1.092550277709961,0.2974157929420471
1631290427703,1.50470769405365,1.0162286758422852,1.092550277709961,0.2974157929420471
1631290427741,1.50470769405365,1.0111453533172607,1.092550277709961,0.2974157929420471
1631290427793,1.50470769405365,0.9967032670974731,1.092550277709961,0.2974157929420471
1631290427893,1.50470769405365,0.965241312980652,1.092550277709961,0.2974157929420471
1631290428049,1.50470769405365,0.9039173722267152,1.092550277709961,0.2974157929420471
1631290428179,1.50470769405365,0.7872966527938843,1.092550277709961,0.2974157929420471
1631290428233,1.50470769405365,0.5027862191200256,1.092550277709961,0.2974157929420471
1631290428305,1.50470769405365,0.5117285847663879,1.092550277709961,0.2974157929420471
1631290428467,1.50470769405365,0.5037050247192383,1.0239555835723877,0.2974157929420471
1631290428501,1.50470769405365,0.4867822527885437,0.9606018662452698,0.2974157929420471
1631290428693,1.50470769405365,0.4679659307003021,0.8930144906044006,0.2974157929420471
1631290428743,1.50470769405365,0.4473014175891876,0.8324040174484253,0.2974157929420471
1631290428771,1.50470769405365,0.3843018710613251,0.77625972032547,0.2974157929420471
1631290428862,1.50470769405365,0.3390847146511078,0.725918173789978,0.2974157929420471
1631290429017,1.50470769405365,0.2642502188682556,0.6417322754859924,0.2974157929420471
1631290429029,1.50470769405365,0.2941513657569885,0.6810696721076965,0.2974157929420471
1631290429310,-0.0474961102008819,0.2483443468809127,0.6078055500984192,-0.0822250545024871
1631290429357,0.0206686463207006,0.2355634719133377,0.5788718461990356,-0.0475165992975235
1631290429391,0.0582866221666336,0.2092102169990539,0.5247308015823364,-0.0134929800406098
1631290429557,0.0849118903279304,0.1501254290342331,0.3785651922225952,0.0140775274485349
1631290429592,0.1171373203396797,0.0458798296749591,0.3530320525169372,0.0313440524041652
1631290429674,0.1595566719770431,-0.0964120775461196,0.3273108899593353,0.0490721948444843
1631290429901,0.2013166546821594,-0.2470182180404663,0.0676458925008773,0.0639573484659195
1631290429959,0.2313669174909591,-0.3667739927768707,-0.1967890858650207,0.0763098821043968
1631290430153,0.2447786629199981,-0.4412563145160675,-0.3759380578994751,0.0871120244264602
1631290430345,0.2421006858348846,-0.4946866035461426,-0.4416181445121765,0.1034553721547126
1631290430396,0.2337462902069091,-0.525481641292572,-0.4545243978500366,0.1443530768156051
1631290430442,0.2263153195381164,-0.533755898475647,-0.4165214002132416,0.2088489532470703
1631290430685,0.2400363236665725,-0.5420562624931335,-0.3649088442325592,0.2938180267810821
1631290430766,0.2525259554386139,-0.5480378270149231,-0.3079972863197326,0.3640154302120209
1631290430829,0.2666226923465729,-0.513690710067749,-0.1584420651197433,0.4029866755008697
1631290430841,0.2595605254173279,-0.5398301482200623,-0.2591913938522339,0.3829423785209656
1631290430912,0.2700368165969848,-0.4518256783485412,0.0202141273766756,0.4219890832901001
1631290431018,0.2747560739517212,-0.3377858698368072,0.3012920618057251,0.4411016404628753
1631290431063,0.2796113491058349,-0.1995243430137634,0.5898014903068542,0.4617880284786224
1631290431228,0.2782075703144073,-0.0811075642704963,0.8147835731506348,0.4865279793739319
1631290431319,0.2621136903762817,-0.0064834323711693,0.9610443711280824,0.5137718319892883
1631290431439,0.2290364503860473,0.0277104992419481,1.0421319007873535,0.545894980430603
1631290431550,0.1848262399435043,0.0333456397056579,1.0782191753387451,0.5850262641906738
1631290431577,0.1444994360208511,0.0258388966321945,1.0907883644104004,0.6339638829231262
1631290431675,0.1304588466882705,0.0151573615148663,1.0941182374954224,0.6922553181648254
1631290431807,0.136046901345253,0.0058212871663272,1.095177412033081,0.6922553181648254
1631290431867,0.136046901345253,5.21872570971027e-05,1.095151424407959,0.6922553181648254
1631290432048,0.136046901345253,-0.0017313816351816,1.0949290990829468,0.6922553181648254
1631290432174,0.136046901345253,-0.0007952860323712,1.0943386554718018,0.6922553181648254
1631290432322,0.136046901345253,0.0025948658585548,1.0934587717056274,0.6922553181648254
1631290432430,-0.1925965249538421,0.0067224595695734,1.0890165567398071,-0.0032167278695851
1631290432556,-0.0255585685372352,0.0025262585841119,1.0763760805130005,0.1644713133573532
1631290432676,0.0940010249614715,-0.0244259797036647,1.039847493171692,0.271927922964096
1631290432847,0.1654147803783416,-0.0805554613471031,0.9572945237159728,0.3365834653377533
1631290432920,0.1976596862077713,-0.1547717601060867,0.8074109554290771,0.3750679194927215
1631290432981,0.1967182606458664,-0.2176113277673721,0.580303430557251,0.3944981098175049
1631290433138,0.1802867501974105,-0.2471612393856048,0.2855660915374756,0.4000757336616516
1631290433209,0.1632834374904632,-0.2448158115148544,-0.0096725393086671,0.3945674896240234
1631290433269,0.1469586938619613,-0.2366569340229034,-0.2041432410478592,0.3769425451755523
1631290433333,0.1290754079818725,-0.2270748168230056,-0.28692227602005,0.3516685962677002
1631290433430,0.1110605299472808,-0.2100176215171814,-0.3340267241001129,0.3250235617160797
1631290433698,0.0958239734172821,-0.1830225139856338,-0.3590326309204101,0.3013507127761841
1631290433768,0.1080036982893943,-0.1511870771646499,-0.3764737844467163,0.3001138865947723
1631290433821,0.1233785599470138,-0.1250868886709213,-0.3845296204090118,0.2965295612812042
1631290433855,0.1447054892778396,-0.1026512756943702,-0.3669616878032684,0.2944624125957489
1631290434091,0.1658196300268173,-0.0720245540142059,-0.3277685642242431,0.2958195209503174
1631290434156,0.2037262618541717,-0.0183120816946029,-0.2619242966175079,0.3187271952629089
1631290434213,0.2738485634326935,0.0495838224887847,-0.1804898381233215,0.3835039734840393
1631290434413,0.3586519658565521,0.1114259511232376,-0.1073099970817565,0.4644598662853241
1631290434468,0.4312122762203216,0.1460071206092834,-0.0534563474357128,0.5255048871040344
1631290434573,0.5221886038780212,0.2417851835489273,0.2171098589897155,0.5794610381126404
1631290434592,0.4784917533397674,0.178779199719429,0.0443516299128532,0.5609241127967834
1631290434707,0.5820818543434143,0.3352559208869934,0.4121458530426025,0.5939227938652039
1631290434785,0.6499224901199341,0.4314714968204498,0.5795023441314697,0.6156922578811646
1631290434843,0.7108952403068542,0.5109439492225647,0.6083536148071289,0.641301691532135
1631290434906,0.7535743713378906,0.5592559576034546,0.6390918493270874,0.6624407172203064
1631290435058,0.7879401445388794,0.5950180888175964,0.6716670989990234,0.6813168525695801
1631290435218,0.8295223116874695,0.6449481844902039,0.705888569355011,0.6992638111114502
1631290435275,0.8771122694015503,0.7097641825675964,0.7422993183135986,0.7140433192253113
1631290435607,0.914288341999054,0.7654423117637634,0.7802544832229614,0.7212293148040771
1631290435760,0.9316683411598206,0.7986429929733276,0.8208557367324829,0.7185577750205994
1631290435892,0.9304504990577698,0.8090164661407471,0.8635771870613098,0.69585782289505
1631290435955,0.916756272315979,0.804732620716095,0.8706234097480774,0.6496253609657288
1631290436263,0.8984782695770264,0.7951526045799255,0.8661354780197144,0.5888506174087524
1631290436407,1.5258903503417969,1.5176087617874146,0.8591768741607666,0.5355321168899536
1631290436496,1.5241806507110596,1.5159584283828735,0.8360093235969543,0.5041366815567017
1631290436520,1.5245628356933594,1.5156307220458984,0.788571298122406,0.5003622174263
1631290436605,1.5312178134918213,1.5203964710235596,0.6275151968002319,0.487896054983139
1631290436805,1.524398922920227,1.5139228105545044,0.233809694647789,0.4637247323989868
1631290436940,1.5532207489013672,1.5453555583953855,0.8648086786270142,0.7810222506523132
1631290437077,1.548009753227234,1.5406177043914795,0.8215882778167725,0.7689215540885925
1631290437107,1.822243094444275,1.8217871189117432,1.7401351928710938,0.7577455639839172
1631290437174,1.8205503225326536,1.8195722103118896,1.7022627592086792,1.6452852487564087
1631290437347,1.9960397481918333,1.9871573448181152,1.7409875392913818,1.7062839269638062
1631290437413,1.99297559261322,1.983930706977844,1.7069780826568604,1.7437145709991455
1631290437571,1.996995568275452,1.9886189699172971,1.6637184619903564,2.104480504989624
1631290437571,1.991029143333435,1.9816218614578247,1.6755084991455078,1.7434470653533936
1631290437592,1.998828887939453,1.991826295852661,1.6622881889343262,2.500604152679444
1631290437661,2.0276968479156494,2.136984348297119,1.6616361141204834,2.5303237438201904
1631290437708,1.926995158195496,2.0837645530700684,1.7485567331314087,2.5621743202209477
1631290437746,1.9600847959518437,2.2928214073181152,1.7779841423034668,2.596566915512085
1631290437944,1.9954029321670528,2.298360109329224,1.808421015739441,2.633918523788452
1631290437984,2.075080633163452,2.299846172332764,1.8496856689453125,2.720649003982544
1631290437994,2.0303609371185303,2.299753189086914,1.842739582061768,2.6750590801239014
1631290438191,2.1074888706207275,2.29349422454834,1.831547498703003,2.7670605182647705
1631290438476,2.1645703315734863,2.309332847595215,1.8820066452026367,2.8249447345733643
1631290438490,1.96102511882782,2.240192174911499,1.551797866821289,2.891774892807007
1631290438520,2.0352792739868164,2.3781275749206543,1.6775233745574951,2.913409471511841
1631290438536,0.9465316534042358,2.3195154666900635,1.5888773202896118,2.9992635250091557
1631290438566,0.9465316534042358,2.345310926437378,1.7351480722427368,2.9992635250091557
1631290438675,0.9465316534042358,2.4245591163635254,1.7194148302078247,2.9992635250091557
1631290438689,0.9465316534042358,2.345643758773804,1.7377244234085083,2.9992635250091557
1631290438695,0.9465316534042358,2.4259493350982666,1.719380021095276,2.9992635250091557
1631290438777,0.9465316534042358,2.355607509613037,1.719391942024231,2.9992635250091557
1631290438821,0.9465316534042358,2.3339219093322754,1.5983656644821167,2.9992635250091557
1631290438996,0.9465316534042358,2.14832067489624,1.5643017292022705,2.9992635250091557
1631290439075,0.3046223223209381,2.140159845352173,1.5329599380493164,2.9992635250091557
1631290439122,0.2803637981414795,2.13556170463562,1.5039050579071045,1.5354219675064087
1631290439195,0.2834782302379608,2.1352689266204834,1.4917508363723757,1.4455347061157229
1631290439323,0.2923219799995422,2.135028600692749,1.4811748266220093,1.370413899421692
1631290439534,2.0166447162628174,2.414842367172241,1.6075509786605835,2.762489557266236
1631290439769,2.0166447162628174,2.432104587554932,1.605645775794983,2.762489557266236
1631290439838,2.0166447162628174,2.312487840652466,1.484892964363098,2.762489557266236
1631290439871,2.0166447162628174,2.309114933013916,1.4869464635849,2.762489557266236
1631290440125,2.0166447162628174,2.28132963180542,1.2747095823287964,2.762489557266236
1631290440203,2.072486400604248,2.281512498855591,1.2990961074829102,2.762489557266236
1631290440340,2.072486400604248,2.16064190864563,1.3385498523712158,2.762489557266236
1631290440408,2.072486400604248,2.162319660186768,1.3778438568115234,2.762489557266236
1631290440458,2.072486400604248,2.164379358291626,1.4069288969039917,2.762489557266236
1631290440668,2.139026403427124,2.166637659072876,1.4383111000061035,2.8290257453918457
1631290440773,2.2176764011383057,2.168619155883789,1.4721397161483765,2.907695770263672
1631290440966,2.3134398460388184,2.1699118614196777,1.5087968111038208,3.003515243530273
1631290441273,2.3134398460388184,2.1998324394226074,1.5489641427993774,3.003515243530273
1631290441343,2.3134398460388184,2.23193359375,1.5935789346694946,3.003515243530273
1631290441518,2.3134398460388184,1.3649640083312988,1.1441034078598022,3.003515243530273
1631290441535,2.3134398460388184,2.2665486335754395,1.643886685371399,3.003515243530273
1631290441574,2.3134398460388184,0.8267815113067627,1.209241509437561,3.003515243530273
1631290441651,2.3134398460388184,0.8643167614936829,1.2831487655639648,3.003515243530273
1631290441700,2.3134398460388184,0.9047363996505736,1.5106462240219116,3.003515243530273
1631290441739,2.3134398460388184,0.9433895349502563,1.5807983875274658,3.003515243530273
1631290441857,2.3134398460388184,0.9782188534736632,1.5807983875274658,3.003515243530273
1631290441921,2.3134398460388184,1.0059539079666138,1.5807983875274658,3.003515243530273
1631290441964,2.3134398460388184,1.0214601755142212,1.5807983875274658,3.003515243530273
1631290442117,2.3134398460388184,0.913701593875885,1.5807983875274658,3.003515243530273
1631290442192,2.3134398460388184,0.7516051530838013,1.2497847080230713,3.003515243530273
1631290442300,2.3134398460388184,2.111768245697021,1.1584956645965576,3.003515243530273
1631290442376,2.3134398460388184,2.10474157333374,1.0856941938400269,3.003515243530273
1631290442473,2.3134398460388184,2.10474157333374,1.0253345966339111,3.003515243530273
1631290442612,3.2109477519989014,2.513069629669189,1.7794820070266724,2.5944690704345703
1631290442670,3.116819381713867,2.4457108974456787,1.7289581298828125,2.5091164112091064
1631290442735,3.0376527309417725,2.3788321018218994,1.6836066246032717,2.4303231239318848
1631290442788,2.970731735229492,2.3208818435668945,1.6426050662994385,2.3637444972991943
1631290442961,2.9127774238586426,2.269751071929932,1.6054495573043823,2.306020975112915
1631290443040,2.8616702556610107,2.224010467529297,1.5389487743377686,2.3055992126464844
1631290443083,2.8159587383270264,2.1826508045196533,1.5050814151763916,2.259915828704834
1631290443241,2.774606943130493,2.144930362701416,1.4735456705093384,2.2887039184570312
1631290443329,2.736855983734131,2.110290288925171,1.4439672231674194,2.250988483428955
1631290443539,2.7021443843841557,2.078274965286255,1.443957805633545,2.216302394866944
1631290443625,2.6700267791748047,2.078076839447021,1.4436136484146118,2.184683561325073
1631290443728,2.6401350498199463,2.077829122543335,1.4430598020553589,2.154807806015014
1631290443824,2.6562020778656006,1.922070026397705,1.4427820444107056,2.114697217941284
1631290443867,2.688284397125244,1.9400827884674072,1.4812787771224976,2.114694833755493
1631290443975,1.9873286485672,1.9108911752700808,1.484026312828064,2.144423484802246
1631290444093,0.6431073546409607,0.8520999550819397,0.589494526386261,1.643651247024536
1631290444610,-0.1812819838523864,0.6716679334640503,0.6703583598136902,1.6449790000915527
1631290444714,-0.1503245681524276,0.7297302484512329,0.743722677230835,1.672296404838562
1631290444982,-0.126460462808609,0.7748454809188843,0.7924608588218689,1.6954602003097534
1631290445151,-0.1119120642542839,0.8002316355705261,0.815605878829956,1.7096096277236938
1631290445190,-0.1034173965454101,1.5265518426895142,1.023863673210144,1.575960636138916
1631290445222,-0.0933417156338691,2.3474338054656982,1.0240846872329712,1.617027997970581
1631290445254,-0.0683060958981514,2.3479623794555664,1.0231645107269287,1.0231918096542358
1631290445284,-0.0683060958981514,2.4787585735321045,1.6398319005966189,1.0726920366287231
1631290445326,-0.0683060958981514,2.4787707328796387,1.6398391723632812,1.1289633512496948
1631290445392,-0.0683060958981514,2.478775978088379,1.6398658752441406,1.1828575134277344
1631290445429,-0.0683060958981514,2.478809356689453,1.6398437023162842,1.184719204902649
1631290445466,-0.1215812563896179,2.4788832664489746,1.6395020484924316,1.9807037115097048
1631290445502,2.059009552001953,2.474128246307373,1.9011075496673584,1.980502367019653
1631290445531,1.981003761291504,2.8682801723480225,1.8997784852981567,2.0369529724121094
1631290445574,1.981003761291504,2.910251379013061,1.9239752292633057,2.012505054473877
1631290445607,1.981003761291504,2.911567449569702,1.9360662698745728,1.9819118976593015
1631290445745,1.981003761291504,2.9755213260650635,1.9320796728134155,2.488703966140747
1631290445771,2.040967464447021,2.981125593185425,1.9319339990615845,2.515675544738769
1631290446004,2.040967464447021,2.9809648990631104,1.930514216423035,2.5637688636779785
1631290446281,2.040967464447021,2.968404769897461,1.909590244293213,2.5637688636779785
1631290446508,2.040967464447021,2.872279644012451,1.9392194747924805,2.5637688636779785
1631290446804,2.040967464447021,2.883995294570923,1.9713019132614136,2.5637688636779785
1631290446885,2.040967464447021,2.837265729904175,1.7782727479934692,2.5637688636779785
1631290446977,2.1076009273529053,2.8380043506622314,1.8159042596817017,2.5637688636779785
1631290447025,2.186387062072754,2.8382296562194824,1.8571550846099851,2.5637688636779785
1631290447046,2.28281307220459,2.838456392288208,1.9028027057647705,2.621638774871826
1631290447110,2.28281307220459,2.849472999572754,1.9538674354553225,2.610351800918579
1631290447146,2.28281307220459,2.879383087158203,1.2987347841262815,2.6893298625946045
1631290447202,2.28281307220459,2.4877068996429443,1.3645868301391602,2.7513961791992188
1631290447234,2.28281307220459,2.3782646656036377,1.0957493782043457,2.7513961791992188
1631290447284,2.28281307220459,2.409072160720825,0.5489782691001892,2.7513961791992188
1631290447318,2.28281307220459,1.939361810684204,0.5489782691001892,2.7513961791992188
1631290447367,2.28281307220459,1.8760714530944824,0.5489782691001892,2.7513961791992188
1631290447422,2.28281307220459,1.9271270036697388,0.5489782691001892,2.7513961791992188
1631290447466,2.28281307220459,1.984894037246704,0.5489782691001892,2.7513961791992188
1631290447538,2.28281307220459,2.0080339908599854,0.5489782691001892,2.7513961791992188
1631290447606,2.28281307220459,1.7799221277236938,0.5489782691001892,2.7513961791992188
1631290447664,2.28281307220459,1.8715877532958984,0.5489782691001892,2.7513961791992188
1631290447701,2.28281307220459,1.8715877532958984,0.5489782691001892,2.7513961791992188
1631290447757,2.28281307220459,1.8715877532958984,0.5489782691001892,2.7513961791992188
1631290447913,2.28281307220459,1.8715877532958984,0.5489782691001892,2.7513961791992188
1631290447940,2.28281307220459,1.8715877532958984,0.5489782691001892,2.7513961791992188
1631290448142,2.28281307220459,1.8715877532958984,0.5489782691001892,2.7513961791992188
1631290448170,2.28281307220459,1.8715877532958984,0.5489782691001892,2.7513961791992188
1631290448269,2.28281307220459,1.8715877532958984,0.5489782691001892,2.7513961791992188
1631290448357,2.28281307220459,1.8715877532958984,0.5489782691001892,2.7513961791992188
1631290448441,2.28281307220459,1.8715877532958984,0.5489782691001892,2.7513961791992188
1631290448588,0.9376147985458374,1.8715877532958984,0.5489782691001892,2.7513961791992188
1631290448652,0.9376147985458374,1.8715877532958984,0.5489782691001892,0.2871828377246856
1631290448762,0.9376147985458374,1.8715877532958984,0.5489782691001892,0.3231644928455353
1631290448953,0.9376147985458374,1.8715877532958984,0.5489782691001892,0.3380694687366485
1631290449070,0.9376147985458374,1.8715877532958984,0.5489782691001892,0.3847203850746155
1631290449078,0.9376147985458374,1.8715877532958984,0.5489782691001892,0.3587775528430938
1631290449205,0.9376147985458374,1.8715877532958984,0.5489782691001892,0.4071644246578216
1631290449276,0.9376147985458374,1.8715877532958984,0.5489782691001892,0.4157987534999847
1631290449409,0.9376147985458374,1.8715877532958984,0.5489782691001892,0.4042501747608185
1631290449500,0.9587439894676208,1.8715877532958984,0.5489782691001892,0.3824548125267029
1631290449598,0.9331835508346558,1.8715877532958984,0.5489782691001892,0.3600336015224457
1631290449658,0.890532374382019,0.579274594783783,0.5489782691001892,0.3382854461669922
1631290449767,0.8888480067253113,0.5122715830802917,0.5489782691001892,0.317553162574768
1631290449911,0.8667576909065247,0.4545921981334686,0.5489782691001892,0.3051092624664306
1631290450000,0.7823164463043213,0.1923771202564239,0.5489782691001892,0.2950264513492584
1631290450089,0.6026670932769775,0.1480502486228943,0.0552496165037155,0.2814691364765167
1631290450158,0.594099760055542,0.1237515956163406,0.0066513926722109,0.2591477930545807
1631290450313,0.5856040716171265,0.1040339171886444,-0.0355088673532009,0.2275221794843673
1631290450390,0.5730516314506531,0.0802050605416297,-0.0784395411610603,0.1899338364601135
1631290450509,0.5605922341346741,0.0535452738404274,-0.1213447302579879,0.1408525109291076
1631290450680,0.5605922341346741,0.0357543602585792,-0.1542970985174179,0.0928474590182304
1631290450791,0.5605922341346741,0.0407783463597297,-0.1637391299009323,0.0244994424283504
1631290450855,0.5605922341346741,0.1093309000134468,-0.112582616508007,-0.0502853468060493
1631290450902,0.5605922341346741,0.2477150112390518,0.0135827222838997,-0.0951878651976585
1631290451160,0.4649657011032104,0.3977738618850708,0.1666162759065628,-0.1085583716630935
1631290451254,0.4111857712268829,0.5098638534545898,0.2907583713531494,-0.1120163053274154
1631290451308,0.4030534625053406,0.59119713306427,0.3656472861766815,-0.1086392253637313
1631290451338,0.4091126620769501,0.6321775317192078,0.3971386253833771,-0.0989250391721725
1631290451461,0.4311529099941253,0.6485432386398315,0.4110886752605438,-0.0844328850507736
1631290451541,0.464324802160263,0.6570392847061157,0.4179621934890747,-0.0854447484016418
1631290451587,0.4754504263401031,0.6635637879371643,0.4236926436424255,-0.1340231001377105
1631290451809,0.4754504263401031,0.6694374084472656,0.4308012127876282,-0.1340231001377105
1631290451833,0.4754504263401031,0.675588846206665,0.439957320690155,-0.1340231001377105
1631290451942,0.4754504263401031,0.6801710724830627,0.4478127062320709,-0.1340231001377105
1631290452019,0.4754504263401031,0.6828343272209167,0.452564388513565,-0.1340231001377105
1631290452125,0.4754504263401031,0.6818933486938477,0.4532028436660766,-0.1340231001377105
1631290452265,-0.0428292602300643,0.6760271191596985,0.4491592943668365,0.0226153638213872
1631290452391,-0.0131961610168218,0.6555211544036865,0.4346513152122497,-0.0083398297429084
1631290452423,0.0106269409880042,0.6031859517097473,0.3954705595970154,-0.0328542850911617
1631290452497,0.0377414971590042,0.5043436288833618,0.3163146078586578,-0.046834047883749
1631290452731,0.0688691586256027,0.3557484745979309,0.1926215589046478,-0.0542834550142288
1631290452809,0.0922244787216186,0.1856181472539901,0.0416962914168834,-0.0574478507041931
1631290452883,0.105913259088993,0.0522432476282119,-0.0935338884592056,-0.0657634437084198
1631290452994,0.1007854044437408,-0.0215560887008905,-0.1701425015926361,-0.0790524706244468
1631290453054,0.0889634862542152,-0.0653900802135467,-0.1968711912631988,-0.0920964255928993
1631290453136,0.0802772492170333,-0.1055648773908615,-0.2171895653009414,-0.1023473739624023
1631290453223,0.0825192779302597,-0.1501861661672592,-0.2405079156160354,-0.0965974703431129
1631290453323,0.0991609096527099,-0.1988986283540725,-0.2503494322299957,-0.0679339542984962
1631290453483,0.1311116963624954,-0.2197892516851425,-0.1880928128957748,-0.0267852861434221
1631290453564,0.1615444719791412,-0.1778250634670257,-0.0459201410412788,0.0211764052510261
1631290453618,0.1843362599611282,-0.0400767996907234,0.1608348190784454,0.0887526050209999
1631290453836,0.2043588161468505,0.1328925341367721,0.3664218187332153,0.1840793490409851
1631290453913,0.2115629017353058,0.3071994483470917,0.5101903676986694,0.2007448375225067
1631290453963,0.2182714343070984,0.4395403861999511,0.6130566596984863,0.2198795527219772
1631290454046,0.22189262509346,0.5656901597976685,0.6395821571350098,0.2398641854524612
1631290454177,0.2201751321554184,0.5904569625854492,0.6677316427230835,0.2611863315105438
1631290454257,0.2177018076181411,0.616328775882721,0.6981219053268433,0.2843544781208038
1631290454397,0.218235433101654,0.6446468234062195,0.7319484353065491,0.3137893676757812
1631290454562,0.2356644868850708,0.6772776246070862,0.769638180732727,0.3512672781944275
1631290454594,0.2658122181892395,0.7142398953437805,0.81142258644104,0.3960621953010559
1631290454639,0.3009626269340515,0.7554337978363037,0.8586620688438416,0.4487291872501373
1631290454766,0.3307356536388397,0.8009287118911743,0.911241352558136,0.5030665993690491
1631290454958,0.3419350981712341,0.8059279322624207,0.969575822353363,0.5533835291862488
1631290454958,0.3419350981712341,0.8070827126502991,0.9643375873565674,0.5533835291862488
1631290455123,0.3419350981712341,0.8131751418113708,0.9398844838142396,0.5533835291862488
1631290455239,0.3419350981712341,0.8114588260650635,0.8813483119010925,0.5533835291862488
1631290455329,0.3419350981712341,0.7973272204399109,0.7897120118141174,0.5533835291862488
1631290455492,0.3419350981712341,0.769275963306427,0.73050457239151,0.5533835291862488
1631290455626,0.3419350981712341,0.7480472922325134,0.7234768867492676,0.5533835291862488
1631290455720,1.3677453994750977,0.6944049000740051,0.8078736662864685,0.5533835291862488
1631290455765,1.3565536737442017,0.7149074077606201,0.8358460664749146,0.5533835291862488
1631290455810,1.317874312400818,0.7068697810173035,0.8254901766777039,0.5533835291862488
1631290455855,1.266430377960205,0.680895984172821,0.798574686050415,0.5533835291862488
1631290456059,1.2153217792510986,0.650469183921814,0.7686022520065308,0.5533835291862488
1631290456101,1.168095350265503,0.6174871921539307,0.7386772036552429,0.5533835291862488
1631290456180,1.1250567436218262,0.5969071984291077,0.7324442863464355,0.5533835291862488
1631290456328,1.0876874923706057,0.6014066934585571,0.7678547501564026,0.5533835291862488
1631290456406,1.0876874923706057,0.6547961831092834,0.8333582282066345,0.5533835291862488
1631290456527,1.0876874923706057,0.7247293591499329,0.9164606928825378,0.5533835291862488
1631290456614,1.0876874923706057,0.7849780917167664,0.9835284352302552,0.5533835291862488
1631290456778,1.0876874923706057,0.8329392671585083,1.0363329648971558,0.5533835291862488
1631290456883,1.0801115036010742,0.8702625036239624,1.0820631980895996,0.5533835291862488
1631290456973,1.0343098640441897,0.8913455009460449,1.1222599744796753,0.5533835291862488
1631290457075,0.9352346658706664,0.8917497396469116,1.150426745414734,0.5533835291862488
1631290457175,0.7711389064788818,0.8778769373893738,1.159519076347351,0.5533835291862488
1631290457295,0.5435066223144531,0.8609907031059265,1.1580771207809448,0.5533835291862488
1631290457375,0.2951354086399078,0.8504992127418518,1.1770392656326294,0.5533835291862488
1631290457439,0.124810554087162,0.8495389819145203,1.2036787271499634,0.5533835291862488
1631290457535,0.124810554087162,0.8512461185455322,1.23492431640625,0.5533835291862488
1631290457589,0.124810554087162,0.8552080988883972,1.233001470565796,0.5533835291862488
1631290457747,0.124810554087162,0.8532239198684692,1.224089741706848,0.5533835291862488
1631290457842,0.124810554087162,0.8372977375984192,1.198375225067139,0.5533835291862488
1631290457952,0.124810554087162,0.8004817962646484,1.1524909734725952,0.5533835291862488
1631290458002,0.124810554087162,0.7480807304382324,1.0979619026184082,0.5533835291862488
1631290458152,0.124810554087162,0.7017014026641846,1.053583741188049,0.5533835291862488
1631290458274,0.124810554087162,0.6813167333602905,1.0280730724334717,0.5533835291862488
1631290458347,1.0952417850494385,0.6859208345413208,1.0050605535507202,0.5533835291862488
1631290458453,1.1791114807128906,0.700035572052002,0.9589833617210388,0.5533835291862488
1631290458541,1.1974679231643677,0.7113683223724365,0.8878100514411926,0.5533835291862488
1631290458700,1.1729015111923218,0.7131707668304443,0.8213873505592346,0.5533835291862488
1631290458832,1.1293129920959473,0.7110541462898254,0.7806854844093323,0.5533835291862488
1631290458882,1.0830299854278564,0.7070296406745911,0.7536666393280029,0.5533835291862488
1631290458912,1.0399528741836548,0.6985049843788147,0.7262718081474304,0.5533835291862488
1631290459142,1.0011457204818726,0.6910779476165771,0.7011642456054688,0.5533835291862488
1631290459174,1.0011457204818726,0.6844867467880249,0.7042462229728699,0.5533835291862488
1631290459197,1.0255944728851318,0.6803632378578186,0.7066918611526489,0.5533835291862488
1631290459292,1.058760643005371,0.6814402937889099,0.7086439728736877,0.5533835291862488
1631290459442,1.058760643005371,0.6927603483200073,0.7049348950386047,0.5533835291862488
1631290459565,1.058760643005371,0.7110179662704468,0.6899138689041138,0.5533835291862488
1631290459682,1.058760643005371,0.7196115851402283,0.6474508047103882,0.5533835291862488
1631290459764,1.0286266803741455,0.6970723867416382,0.5601742267608643,0.5533835291862488
1631290459864,0.9365301132202148,0.6323457360267639,0.4163067638874054,0.5533835291862488
1631290459929,0.7630184292793274,0.5359036326408386,0.2241351753473281,0.5533835291862488
1631290460035,0.4983051717281341,0.4409510195255279,0.0253569800406694,0.5533835291862488
1631290460151,0.1803384125232696,0.3848319351673126,-0.0651847347617149,0.5533835291862488
1631290460330,0.1803384125232696,0.385091483592987,0.0414143204689025,0.5533835291862488
1631290460418,0.1803384125232696,0.4052913188934326,0.3007863759994507,0.5533835291862488
1631290460498,0.1803384125232696,0.4384695887565613,0.318742424249649,0.5533835291862488
1631290460544,0.1803384125232696,0.4756064414978027,0.3382643461227417,0.5533835291862488
1631290460637,0.1803384125232696,0.6797853708267212,0.3604911863803863,0.5533835291862488
1631290460758,0.1803384125232696,0.7773681282997131,0.3866902887821197,0.5533835291862488
1631290460876,0.1803384125232696,0.8156313300132751,0.418083518743515,0.5533835291862488
1631290461011,0.1803384125232696,0.8222094774246216,0.4594824314117431,0.5533835291862488
1631290461070,0.1803384125232696,0.8105754852294922,0.4988408088684082,0.5533835291862488
1631290461159,0.1803384125232696,0.7768824696540833,0.5465900301933289,0.5533835291862488
1631290461433,0.1803384125232696,0.7357496023178101,0.5967063903808594,0.5533835291862488
1631290461541,0.1803384125232696,0.7031072378158569,0.6446754932403564,0.5533835291862488
1631290461616,0.1803384125232696,0.6873139142990112,0.6887990236282349,0.5533835291862488
1631290461654,0.1803384125232696,0.6829351186752319,0.723979115486145,0.5533835291862488
1631290461693,0.1803384125232696,0.6809235215187073,0.7349419593811035,0.945161759853363
1631290461759,0.1803384125232696,0.6486358046531677,0.7016465663909912,0.8698363900184631
1631290461858,0.1803384125232696,0.6199265122413635,0.5605876445770264,0.8114044666290283
1631290461954,0.4082089960575104,0.5946677327156067,0.5236325263977051,0.7649133801460266
1631290462259,0.4162062108516693,0.5722911357879639,0.4875205159187317,0.7297026515007019
1631290462396,0.4102518558502197,0.3939900398254394,0.4538108706474304,0.7081895470619202
1631290462460,0.3797743618488312,0.0758685395121574,0.3965782225131988,0.6887524127960205
1631290462460,0.3935928642749786,0.2101315110921859,0.4232479035854339,0.69681715965271
1631290462513,0.372588962316513,0.0014136832905933,0.3691213726997375,0.6758207678794861
1631290462593,0.4089790284633636,-0.0091367308050394,0.3641235828399658,0.6630623936653137
1631290462743,0.5081083178520203,0.1181111112236976,0.3988179862499237,0.659688413143158
1631290462862,0.6303688287734985,0.2988893985748291,0.4735973179340362,0.6705408692359924
1631290462921,0.7217289805412292,0.4527288675308227,0.5529530048370361,0.5942240357398987
1631290462955,0.7691597938537598,0.5521672964096069,0.6044334173202515,0.5695449113845825
1631290463044,0.7771701216697693,0.6012644171714783,0.6248663663864136,0.5721677541732788
1631290463221,0.7737061381340027,0.6182300448417664,0.6277145743370056,0.5674730539321899
1631290463324,0.7695987224578857,0.6218581199645996,0.6254329681396484,0.5650810599327087
1631290463422,0.7624877691268921,0.6190872192382812,0.6224568486213684,0.5628263354301453
1631290463515,0.7542771100997925,0.6141781210899353,0.6224799156188965,0.5585044622421265
1631290463638,0.747370719909668,0.6085274815559387,0.6242331862449646,0.5480429530143738
1631290463744,0.7424646615982056,0.6028944253921509,0.6266907453536987,0.5284779667854309
1631290463811,0.7381439805030823,0.5994105339050293,0.6292374730110168,0.5032123327255249
1631290464097,0.7320069074630737,0.5983500480651855,0.6308915615081787,0.4809241890907287
1631290464167,0.7239959836006165,0.5943752527236938,0.6283565163612366,0.4701307117938995
1631290464219,0.702548086643219,0.5746997594833374,0.6109002232551575,0.4603432714939117
1631290464274,0.6451518535614014,0.5190610885620117,0.5586872696876526,0.4313470721244812
1631290464314,0.529869556427002,0.4082179367542267,0.4503928124904632,0.3660100102424621
1631290464419,0.3535806238651275,0.228507250547409,0.2725991308689117,0.2679644823074341
1631290464556,0.131935179233551,-0.0192798674106597,0.032836053520441,0.1541157513856887
1631290464626,-0.0571827180683612,-0.2828629612922668,-0.2272449433803558,0.0611529983580112
1631290464829,-0.1258181184530258,-0.4626576602458954,-0.4175017774105072,0.0155633930116891
1631290464829,-0.1215560138225555,-0.5319746136665344,-0.5041588544845581,-0.0057173673994839
1631290464985,-0.1143428459763526,-0.5036314129829407,-0.5203918814659119,-0.0218934714794158
1631290465019,-0.1223204061388969,-0.4478814303874969,-0.5350541472434998,-0.0263032168149948
1631290465160,-0.1456059515476226,-0.4016607105731964,-0.5531355142593384,-0.0074233366176486
1631290465309,-0.178445503115654,-0.3742697238922119,-0.5801624059677124,0.0149012207984924
1631290465408,-0.2012695670127868,-0.3692072033882141,-0.620309591293335,0.0268938094377517
1631290465427,-0.2089677453041076,-0.381272941827774,-0.6676363945007324,0.0176258403807878
1631290465610,-0.2103917002677917,-0.3996586799621582,-0.7037191390991211,-0.0005138120031915
1631290465792,-0.2093983292579651,-0.4186553955078125,-0.6994473338127136,-0.0105967298150062
1631290465998,-0.199498564004898,-0.4255485534667969,-0.6470807194709778,0.0035804351791739
1631290466034,-0.1757818013429641,-0.4171742498874664,-0.5614516139030457,0.0355642773211002
1631290466071,-0.1595546007156372,-0.3772170841693878,-0.4040316939353943,0.0589556097984313
1631290466183,-0.1386061757802963,-0.2816433012485504,-0.1452023386955261,0.0885415598750114
1631290466214,-0.119894690811634,-0.1203038692474365,0.2283383160829544,0.1171374693512916
1631290466220,-0.1136994138360023,0.0607488267123699,0.572686493396759,0.1393142193555832
1631290466529,-0.1258989423513412,0.2089863568544387,0.8246324062347412,0.1587121337652206
1631290466555,-0.1515703797340393,0.3036476671695709,0.9843829274177552,0.1736718863248825
1631290466641,-0.1781432628631591,0.3499154448509216,1.0707746744155884,0.184603676199913
1631290466667,-0.1971949785947799,0.3662339448928833,1.1079241037368774,0.1846087127923965
1631290466794,-0.2013493180274963,0.3700196444988251,1.1196645498275757,0.1871296912431717
1631290466967,-0.1925352662801742,0.3713266849517822,1.1226168870925903,0.1971305757761001
1631290467057,-0.175222098827362,0.3740432560443878,1.1246906518936155,0.219545230269432
1631290467296,-0.175222098827362,0.3767512440681457,1.1259407997131348,0.219545230269432
1631290467338,-0.175222098827362,0.3789571821689605,1.126811146736145,0.219545230269432
1631290467389,-0.175222098827362,0.3830243051052093,1.1280356645584106,0.219545230269432
1631290467455,-0.175222098827362,0.3998569846153259,1.1329753398895264,0.219545230269432
1631290467522,-0.175222098827362,0.4385349452495575,1.146128535270691,0.219545230269432
1631290467607,-0.175222098827362,0.4986072480678558,1.1672024726867676,0.4205894470214844
1631290467757,0.5403503775596619,0.5582373142242432,1.1786246299743652,0.4516006410121918
1631290467846,0.6404095888137817,0.5940084457397461,1.157351851463318,0.4491989612579345
1631290467910,0.6868955492973328,0.5986399054527283,1.092321515083313,0.4169940650463104
1631290468009,0.6932200789451599,0.5834448337554932,0.9940754175186156,0.3724815547466278
1631290468052,0.6701306104660034,0.5667158365249634,0.8979875445365906,0.3320448398590088
1631290468352,0.6371735334396362,0.5592962503433228,0.8400213122367859,0.302236258983612
1631290468491,0.6059726476669312,0.5561211705207825,0.8196879625320435,0.2838963568210602
1631290468712,0.5844096541404724,0.5576934218406677,0.8167375922203064,0.2720735371112823
1631290468759,0.569182813167572,0.5610718727111816,0.8153510093688965,0.2598170042037964
1631290468908,0.5554665923118591,0.5653886795043945,0.8147516250610352,0.2427602857351303
1631290469050,0.5405101776123047,0.5693414807319641,0.8134576082229614,0.2211913019418716
1631290469189,0.5237224102020264,0.5699352622032166,0.8104313611984253,0.1965195685625076
1631290469256,0.5216799974441528,0.5596519112586975,0.79933762550354,0.1637686640024185
1631290469274,0.5345509052276611,0.5289344787597656,0.7663559913635254,0.1293051838874817
1631290469415,0.5295683145523071,0.7756264209747314,0.8591811656951904,0.0690600872039794
1631290469550,0.4932924211025238,0.7315537333488464,0.8061679005622864,-0.0135245407000184
1631290469633,0.4269550740718841,0.7037675976753235,0.8019829392433167,-0.092155247926712
1631290469850,0.3437826633453369,0.7236691117286682,0.8763773441314697,-0.1254526674747467
1631290469987,0.2686494290828705,0.7867937684059143,0.9820062518119812,-0.1144683510065078
1631290470080,0.2373033314943313,0.8548372983932495,1.0760302543640137,-0.0939654856920242
1631290470162,0.2586539983749389,0.9376589059829712,1.2171427011489868,-0.1128472611308097
1631290470184,0.2417898923158645,0.9093835949897766,1.1494117975234983,-0.0876729935407638
1631290470235,0.2552140057086944,0.9676489233970642,1.2456269264221191,-0.1773060709238052
1631290470372,0.2269861996173858,0.999462902545929,1.2764109373092651,-0.2737081348896026
1631290470401,0.2269861996173858,1.0483059883117676,1.3100087642669678,-0.2737081348896026
1631290470428,0.2269861996173858,1.0553653240203855,1.3468958139419556,-0.2737081348896026
1631290470618,0.2269861996173858,1.0569192171096802,1.38737154006958,-0.2737081348896026
1631290470885,0.2269861996173858,1.056918382644653,1.4318078756332395,-0.2737081348896026
1631290470934,0.2269861996173858,1.0563385486602783,1.4308977127075195,-0.2737081348896026
1631290471122,0.2269861996173858,0.8761782646179199,1.361309051513672,-0.2737081348896026
1631290471208,0.2269861996173858,2.069580316543579,1.3444156646728516,-0.2737081348896026
1631290471275,0.2269861996173858,2.1145756244659424,1.5760736465454102,-0.2737081348896026
1631290471409,0.2269861996173858,2.1114611625671387,1.5333116054534912,-0.2737081348896026
1631290471623,0.2269861996173858,2.10686469078064,1.4760199785232544,-0.2737081348896026
1631290471728,0.2269861996173858,2.103762626647949,1.4365439414978027,-0.2737081348896026
1631290471824,0.2269861996173858,2.1009416580200195,1.3798542022705078,-0.2737081348896026
1631290471980,0.2269861996173858,2.070082664489746,1.3357006311416626,-0.2737081348896026
1631290472047,0.2269861996173858,2.070082664489746,1.3357006311416626,-0.2737081348896026
1631290472101,0.2269861996173858,2.070082664489746,1.3357006311416626,-0.2737081348896026
1631290472137,0.2269861996173858,2.1005046367645264,1.3357006311416626,-0.2737081348896026
1631290472172,0.2269861996173858,2.1374106407165527,1.3357006311416626,-0.2737081348896026
1631290472242,0.2269861996173858,2.17846417427063,1.3357006311416626,-0.2737081348896026
1631290472286,0.2269861996173858,2.179600954055786,1.3357006311416626,-0.2737081348896026
1631290472392,0.2269861996173858,2.180772066116333,1.3851723670959473,-0.2737081348896026
1631290472500,0.2269861996173858,2.182101011276245,1.4424573183059692,-0.2737081348896026
1631290472658,0.2269861996173858,1.3157638311386108,1.5086945295333862,-0.2737081348896026
1631290472840,0.2269861996173858,0.733739972114563,0.8354582190513611,-0.2737081348896026
1631290472960,0.2269861996173858,0.8025320172309875,1.1545617580413818,-0.2737081348896026
1631290473044,0.2269861996173858,0.8441528677940369,1.285984992980957,-0.2737081348896026
