timestamp,TP9,AF7,AF8,TP10
1631290337187,0.0429716445505619,0.4569320976734161,0.36138716340065,0.337879866361618
1631290337239,0.0429716445505619,0.4569320976734161,0.36138716340065,0.337879866361618
1631290337340,0.0429716445505619,0.4569320976734161,0.36138716340065,0.337879866361618
1631290337420,0.0429716445505619,0.4569320976734161,0.36138716340065,0.337879866361618
1631290337665,0.0429716445505619,0.4569320976734161,0.36138716340065,0.337879866361618
1631290337737,0.0429716445505619,0.4569320976734161,0.36138716340065,0.337879866361618
1631290337804,0.0429716445505619,0.4569320976734161,0.36138716340065,0.337879866361618
1631290337892,0.0429716445505619,0.4569320976734161,0.36138716340065,0.337879866361618
1631290337957,0.0429716445505619,0.4569320976734161,0.36138716340065,0.337879866361618
1631290338075,0.0429716445505619,0.4569320976734161,0.36138716340065,0.337879866361618
1631290338220,0.0429716445505619,0.4569320976734161,-0.1166430413722992,0.337879866361618
1631290338328,0.0429716445505619,0.4569320976734161,-0.1107832342386245,0.337879866361618
1631290338389,0.0429716445505619,0.4569320976734161,-0.1140978336334228,0.337879866361618
1631290338496,0.0429716445505619,0.4569320976734161,-0.1274424940347671,0.337879866361618
1631290338662,0.0429716445505619,0.5435740947723389,-0.1274424940347671,0.337879866361618
1631290338727,0.0429716445505619,0.4735341370105743,-0.1274424940347671,0.337879866361618
1631290338873,0.0429716445505619,0.4735341370105743,-0.1274424940347671,0.337879866361618
1631290338995,0.0429716445505619,0.4735341370105743,-0.1274424940347671,0.337879866361618
1631290339050,0.0429716445505619,0.4441883563995361,-0.1274424940347671,0.337879866361618
1631290339244,0.0429716445505619,0.3350617587566376,-0.1274424940347671,0.337879866361618
1631290339244,0.0429716445505619,0.2546573579311371,-0.1274424940347671,0.337879866361618
1631290339270,0.0429716445505619,0.1945006102323532,-0.1274424940347671,0.337879866361618
1631290339463,0.0429716445505619,0.1617166996002197,-0.1441749036312103,0.337879866361618
1631290339475,0.0429716445505619,0.1181596517562866,-0.1376607418060302,0.337879866361618
1631290339731,0.0429716445505619,0.079792745411396,-0.1328753232955932,0.337879866361618
1631290339892,0.0429716445505619,0.0547535605728626,-0.1328753232955932,0.337879866361618
1631290339921,0.0429716445505619,0.0643040686845779,-0.1328753232955932,0.337879866361618
1631290339969,0.0429716445505619,0.1536809504032135,-0.1328753232955932,0.337879866361618
1631290340037,0.0429716445505619,0.3341346085071563,-0.1328753232955932,0.337879866361618
1631290340111,0.0429716445505619,0.5474568009376526,0.3922572731971741,0.337879866361618
1631290340256,0.0429716445505619,0.7076277136802673,0.4561674892902374,0.337879866361618
1631290340361,0.0429716445505619,0.7756385207176208,0.4692215919494629,0.337879866361618
1631290340442,0.0429716445505619,0.7921165227890015,0.4431906342506408,0.337879866361618
1631290340581,0.0429716445505619,0.7990765571594238,0.3985398709774017,0.337879866361618
1631290340605,0.0429716445505619,0.7925742864608765,0.3558236360549927,0.337879866361618
1631290340693,0.0429716445505619,0.785352349281311,0.320138931274414,0.337879866361618
1631290340826,0.0429716445505619,0.8079381585121155,0.2939390540122986,0.337879866361618
1631290340943,0.0429716445505619,0.8363972306251526,0.2939390540122986,0.337879866361618
1631290341126,0.0429716445505619,0.869484543800354,0.2939390540122986,0.337879866361618
1631290341153,0.0429716445505619,0.905736804008484,0.2939390540122986,0.337879866361618
1631290341238,0.0429716445505619,0.9445295333862304,0.2939390540122986,0.337879866361618
1631290341343,0.0429716445505619,0.9832637906074524,0.3168102204799652,0.337879866361618
1631290341652,0.0429716445505619,1.0120904445648191,0.3262589275836944,0.337879866361618
1631290341688,0.0429716445505619,1.0079537630081177,0.3026250898838043,0.337879866361618
1631290341842,0.0429716445505619,0.9444945454597472,0.2258152812719345,0.337879866361618
1631290341867,0.0429716445505619,0.7987411022186279,0.0881507620215416,0.337879866361618
1631290342043,0.0429716445505619,0.5517528057098389,0.5343851447105408,0.337879866361618
1631290342160,0.0429716445505619,0.5517528057098389,0.7616421580314636,0.337879866361618
1631290342273,0.0429716445505619,0.5517528057098389,0.8965696692466736,0.337879866361618
1631290342391,0.0429716445505619,0.5517528057098389,0.9747113585472108,0.337879866361618
1631290342441,0.0429716445505619,0.5517528057098389,1.0222764015197754,0.337879866361618
1631290342465,0.0429716445505619,0.5517528057098389,1.0552794933319092,0.337879866361618
1631290342578,0.0429716445505619,0.5517528057098389,1.021942377090454,0.337879866361618
1631290342765,0.0429716445505619,0.5517528057098389,0.9955233931541444,0.337879866361618
1631290342805,0.0429716445505619,0.5517528057098389,0.970733880996704,0.337879866361618
1631290342934,0.0429716445505619,0.5517528057098389,0.9425752758979796,0.337879866361618
1631290343007,0.0429716445505619,0.5517528057098389,0.9104011058807372,0.337879866361618
1631290343042,0.0429716445505619,0.5517528057098389,0.8781748414039612,0.731964111328125
1631290343059,0.0429716445505619,-0.2658138871192932,0.8483916521072388,0.6718394160270691
1631290343208,0.0429716445505619,-0.2133168131113052,0.8209229111671448,0.616787850856781
1631290343277,0.1551508903503418,-0.1837349981069564,0.7953650951385498,0.566666841506958
1631290343359,0.091138519346714,-0.1742970794439315,0.7164962887763977,0.5217204093933105
1631290343459,0.0773341804742813,-0.1764042973518371,0.6264673471450806,0.4832059442996979
1631290343560,0.1049835383892059,-0.1848725825548172,0.5368483066558838,0.4514362514019012
1631290343645,0.1488718837499618,-0.1947893798351287,0.4590060114860534,0.4245932698249817
1631290343740,0.1858963668346405,-0.1975907981395721,0.3920502960681915,0.4005327820777893
1631290343993,0.2102833241224289,-0.1911397874355316,0.326105386018753,0.3792487680912018
1631290344024,0.22971111536026,-0.1850368827581405,0.2496830075979232,0.3640589118003845
1631290344151,0.2813017666339874,-0.1967281699180603,0.0554781928658485,0.2724602222442627
1631290344151,0.253411591053009,-0.1868609488010406,0.1555080115795135,0.3559485673904419
1631290344276,0.3054391145706177,-0.2040403038263321,-0.0169291049242019,0.1974849700927734
1631290344341,0.319113165140152,-0.1934123784303665,-0.0390680320560932,0.1393581330776214
1631290344526,0.3062599599361419,-0.169032409787178,-0.0320337153971195,0.1028710976243019
1631290344574,0.3135955035686493,-0.1384800672531128,-0.0170075483620166,0.0885501950979232
1631290344644,0.3355824649333954,-0.1097387820482254,-0.0003961597103625,0.0856141969561576
1631290344814,0.3657628893852234,-0.0812798738479614,0.0232990179210901,0.092070423066616
1631290344928,0.3964799046516418,-0.0274570174515247,0.0829057618975639,0.1050248816609382
1631290344968,0.4216984808444977,0.0929872244596481,0.2079483866691589,0.1199035197496414
1631290345153,0.4377683103084564,0.2584179043769836,0.3632729351520538,0.1335822790861129
1631290345183,0.4452967941761017,0.4239006042480469,0.5018889904022217,0.1474348604679107
1631290345257,0.4508412778377533,0.5531687140464783,0.6100390553474426,0.1650554090738296
1631290345422,0.4610607624053955,0.6391755938529968,0.6954487562179565,0.1862141489982605
1631290345514,0.4744182825088501,0.6640424132347107,0.7642756700515747,0.1998123377561569
1631290345569,0.4795590341091156,0.6920738220214844,0.8136767148971558,0.1950472891330719
1631290345777,0.4795590341091156,0.7238988280296326,0.8412514328956604,0.1695828288793563
1631290345778,0.4795590341091156,0.7588650584220886,0.8676024079322815,0.1695828288793563
1631290345907,0.4795590341091156,0.7959882020950317,0.8948673009872437,0.1695828288793563
1631290345977,0.4795590341091156,0.8344883918762207,0.9237274527549744,0.1695828288793563
1631290346111,0.4795590341091156,0.8751131892204285,0.9548398852348328,0.1695828288793563
1631290346136,0.4795590341091156,0.9210954308509828,0.9893287420272828,0.1695828288793563
1631290346432,0.4795590341091156,0.9755144119262696,1.027065634727478,0.1695828288793563
1631290346467,0.4795590341091156,1.0359395742416382,1.062772512435913,0.1695828288793563
1631290346658,0.4795590341091156,1.0896388292312622,1.0871120691299438,0.1695828288793563
1631290346680,0.4795590341091156,1.0896388292312622,1.085018515586853,0.1695828288793563
1631290346724,0.4795590341091156,1.0896388292312622,1.0723798274993896,0.1695828288793563
1631290346807,0.4795590341091156,1.0896388292312622,1.048555612564087,0.1695828288793563
1631290346895,0.4795590341091156,1.0896388292312622,1.048555612564087,0.1695828288793563
1631290347019,0.4795590341091156,1.0896388292312622,1.048555612564087,0.1695828288793563
1631290347185,0.4795590341091156,1.0896388292312622,1.048555612564087,0.1695828288793563
1631290347241,0.4795590341091156,1.0896388292312622,1.048555612564087,0.1695828288793563
1631290347308,0.4795590341091156,1.0896388292312622,1.048555612564087,0.1695828288793563
1631290347391,0.4795590341091156,1.1999152898788452,0.6936575174331665,0.1695828288793563
1631290347543,0.4795590341091156,1.1100722551345823,0.6183452010154724,0.1695828288793563
1631290347643,0.4795590341091156,1.0346474647521973,0.5564433932304382,0.1695828288793563
1631290347726,0.4795590341091156,0.980591118335724,0.5255875587463379,0.1695828288793563
1631290347837,0.4795590341091156,0.9691022634506226,0.5255875587463379,0.1695828288793563
1631290347898,0.4795590341091156,1.0195814371109009,0.5255875587463379,0.1695828288793563
1631290347991,0.4795590341091156,1.104038953781128,0.5255875587463379,0.1695828288793563
1631290348184,0.4795590341091156,1.1776361465454102,0.5255875587463379,0.1695828288793563
1631290348206,0.4795590341091156,1.2221342325210571,0.5255875587463379,0.1695828288793563
1631290348325,0.4795590341091156,1.2429239749908447,0.5255875587463379,0.1695828288793563
1631290348407,0.4795590341091156,1.2513387203216553,0.5255875587463379,0.1695828288793563
1631290348566,0.4795590341091156,1.2527669668197632,0.5255875587463379,0.1695828288793563
1631290348616,0.4795590341091156,1.2346941232681274,0.7185331583023071,0.1695828288793563
1631290348875,0.4795590341091156,1.226781129837036,0.8023080229759216,0.1695828288793563
1631290348943,0.4795590341091156,1.2358036041259766,0.865975558757782,0.1695828288793563
1631290349084,0.4795590341091156,1.2976596355438232,0.9862760305404664,0.1695828288793563
1631290349087,0.4795590341091156,1.2619348764419556,0.9267903566360474,0.1695828288793563
1631290349118,0.4795590341091156,1.3379374742507937,1.059114933013916,0.1695828288793563
1631290349307,0.4795590341091156,1.3797725439071655,1.141594648361206,0.1695828288793563
1631290349426,0.4795590341091156,1.4154247045516968,1.141594648361206,0.1695828288793563
1631290349464,0.4795590341091156,1.4303784370422363,1.141594648361206,0.1695828288793563
1631290349627,0.4795590341091156,1.4140080213546753,1.141594648361206,0.1695828288793563
1631290349674,0.4795590341091156,1.369714856147766,1.141594648361206,0.1695828288793563
1631290349757,0.4795590341091156,1.3148725032806396,1.141594648361206,0.1695828288793563
1631290349861,0.4795590341091156,1.3148725032806396,1.141594648361206,0.1695828288793563
1631290350063,0.4795590341091156,1.3148725032806396,1.141594648361206,0.1695828288793563
1631290350121,0.4795590341091156,1.3148725032806396,1.141594648361206,0.1695828288793563
1631290350190,0.4795590341091156,1.3148725032806396,1.141594648361206,0.1695828288793563
1631290350346,0.4795590341091156,1.3148725032806396,1.141594648361206,0.1695828288793563
1631290350387,0.4795590341091156,1.3148725032806396,1.141594648361206,0.1695828288793563
1631290350560,0.4795590341091156,1.3148725032806396,1.141594648361206,0.1695828288793563
1631290350646,0.4795590341091156,1.3148725032806396,1.141594648361206,0.1695828288793563
1631290350781,0.4795590341091156,1.3148725032806396,1.141594648361206,0.1695828288793563
1631290350829,0.4795590341091156,0.0419372282922267,1.141594648361206,0.1695828288793563
1631290350871,0.4795590341091156,0.1863067299127578,1.141594648361206,0.1695828288793563
1631290350989,0.4795590341091156,0.2594219148159027,1.141594648361206,0.1695828288793563
1631290351125,0.4795590341091156,0.2754249572753906,1.141594648361206,0.1695828288793563
1631290351391,0.4795590341091156,0.254164844751358,1.141594648361206,0.1695828288793563
1631290351625,0.4795590341091156,0.2169048190116882,1.141594648361206,0.1695828288793563
1631290351688,0.4795590341091156,0.1410240978002548,1.141594648361206,0.1695828288793563
1631290351708,0.4795590341091156,0.1772715598344802,1.141594648361206,0.1695828288793563
1631290351739,0.4795590341091156,0.1097881272435188,1.141594648361206,0.1695828288793563
1631290351816,0.4795590341091156,0.0840137600898742,1.141594648361206,0.1695828288793563
1631290351879,0.4795590341091156,0.0635595172643661,1.141594648361206,0.1695828288793563
1631290352025,0.4795590341091156,0.0466994903981685,1.141594648361206,0.1695828288793563
1631290352071,0.4795590341091156,0.0511403419077396,-0.183052510023117,0.1695828288793563
1631290352206,0.4795590341091156,0.0523720756173133,-0.1785222887992859,0.1695828288793563
1631290352236,0.4795590341091156,0.0345024466514587,-0.1836725026369094,0.1695828288793563
1631290352282,0.4795590341091156,-0.0139997247606515,-0.1872081458568573,0.1695828288793563
1631290352464,0.4795590341091156,-0.0938507840037345,-0.1810262501239776,0.1695828288793563
1631290352563,0.3696381151676178,-0.186084434390068,-0.1646113842725753,0.1695828288793563
1631290352641,0.3707175850868225,-0.2564882934093475,-0.1485309451818466,0.4452859163284302
1631290352726,0.3467236161231994,-0.2836025953292846,-0.1429518312215805,0.3791781663894653
1631290352875,0.293535977602005,-0.2591114044189453,-0.1616020053625106,0.3052703440189361
1631290352877,0.3171201050281524,-0.2783479988574981,-0.1498489081859588,0.3261300921440124
1631290353025,0.2760109901428222,-0.2389471232891082,-0.1682984977960586,0.3174842894077301
1631290353084,0.2601924240589142,-0.2269534319639206,-0.1685730814933776,0.3522990942001343
1631290353408,0.2448958307504654,-0.2277571260929107,-0.1672202199697494,0.3945647776126861
1631290353459,0.233377456665039,-0.2382754534482956,-0.1718197613954544,0.429693728685379
1631290353497,0.2326046824455261,-0.2495087385177612,-0.188757061958313,0.4519364535808563
1631290353528,0.2451565414667129,-0.2544685304164886,-0.2091983407735824,0.4629856944084167
1631290353674,0.2647270858287811,-0.2522943615913391,-0.2186843156814575,0.4724130928516388
1631290353724,0.2887913584709167,-0.2493296414613723,-0.2078623920679092,0.4902331829071045
1631290353870,0.2944838106632232,-0.2542092204093933,-0.1859341263771057,0.5174786448478699
1631290353951,0.278109610080719,-0.2710264325141907,-0.1711868047714233,0.5378287434577942
1631290354001,0.2494908422231674,-0.2962953448295593,-0.1768457293510437,0.5495992302894592
1631290354076,0.2241668552160263,-0.3206111490726471,-0.1997580230236053,0.557475745677948
1631290354206,0.2128187865018844,-0.3335980474948883,-0.2252940535545349,0.5653945803642273
1631290354349,0.2126571983098983,-0.3307811021804809,-0.2421993166208267,0.5712165832519531
1631290354459,0.2181184440851211,-0.3132321536540985,-0.2537185847759247,0.570635199546814
1631290354521,0.2284551262855529,-0.2880376577377319,-0.271865963935852,0.5621653199195862
1631290354659,0.2433366179466247,-0.2631602585315704,-0.3006371259689331,0.5456753373146057
1631290354761,0.2579391598701477,-0.243352323770523,-0.3296305537223816,0.5227757692337036
1631290354863,0.268924742937088,-0.2273568958044052,-0.3431100845336914,0.49948650598526
1631290355024,0.274783730506897,-0.213636115193367,-0.3383394777774811,0.4805035591125488
1631290355101,0.2745666205883026,-0.2010248601436615,-0.3305662274360657,0.4639694988727569
1631290355195,0.2711334824562073,-0.1918374001979828,-0.3417657315731048,0.440648078918457
1631290355240,0.267956793308258,-0.1861245334148407,-0.3812563121318817,0.3983202278614044
1631290355341,0.2786553800106048,-0.1818854659795761,-0.4309004545211792,0.3351827263832092
1631290355558,0.2809168398380279,-0.1669966280460357,-0.4488601088523865,0.2785778641700744
1631290355609,0.2945109605789184,-0.120345190167427,-0.4032225310802459,0.2332529574632644
1631290355632,0.3144001960754394,-0.0352002345025539,-0.2984574139118194,0.2115693837404251
1631290355756,0.3353256285190582,-0.0196233745664358,-0.1406420469284057,0.2069770395755767
1631290355867,0.3544890880584717,-0.0076064690947532,0.0680254623293876,0.2103045433759689
1631290355926,0.3702913224697113,-0.0030139167793095,0.2785917520523071,0.2183854132890701
1631290356046,0.3813210725784302,-0.0035817550960928,0.4472312927246094,0.2265458554029464
1631290356176,0.3892054855823517,-0.0008519811672158,0.5655801892280579,0.2297177165746688
1631290356334,0.4015689194202423,0.0138604287058115,0.6436451077461243,0.2233866304159164
1631290356356,0.4224065542221069,0.0389718413352966,0.694369912147522,0.1967812776565551
1631290356421,0.4461501836776733,0.0682230964303016,0.7273287773132324,0.1388168185949325
1631290356560,0.4461501836776733,0.4262779057025909,0.7464393973350525,0.1388168185949325
1631290356656,0.4461501836776733,0.4988303184509277,0.7562348246574402,0.1388168185949325
1631290356744,0.4461501836776733,0.5084574818611145,0.7617334723472595,0.1388168185949325
1631290356872,0.4461501836776733,0.5046581625938416,0.7647724747657776,0.1388168185949325
1631290356985,0.4461501836776733,0.4943881928920746,0.7647572755813599,0.1388168185949325
1631290357052,0.4461501836776733,0.4673250019550323,0.7608801126480103,0.1388168185949325
1631290357140,0.4461501836776733,0.4102340936660766,0.7524099946022034,0.1388168185949325
1631290357305,0.4461501836776733,0.3632814288139343,0.7356926798820496,0.1388168185949325
1631290357387,0.4461501836776733,0.3258968889713287,0.7003610730171204,0.1388168185949325
1631290357466,0.0639038309454917,0.29472216963768,0.6361507177352905,-0.136499673128128
1631290357525,0.1023476794362068,0.2652990520000458,0.5415747761726379,-0.0485691092908382
1631290357779,0.1408517807722091,0.2349532693624496,0.4243917763233185,0.0145802963525056
1631290357842,0.1748305261135101,0.204139694571495,0.2956353724002838,0.058279164135456
1631290358099,0.2138686776161193,0.1758599579334259,0.1645257174968719,0.095684677362442
1631290358132,0.2626729905605316,0.1525501161813736,0.0384197533130645,0.1363269388675689
1631290358208,0.3126372992992401,-0.1501260697841644,-0.0621696412563324,0.182484433054924
1631290358249,0.3470242917537689,-0.3307043015956878,-0.1264210343360901,0.2220114916563034
1631290358291,0.3470242917537689,-0.3791655004024505,-0.1692182123661041,0.2220114916563034
1631290358390,0.3470242917537689,-0.3787970840930938,-0.2027225494384765,0.2220114916563034
1631290358619,0.3470242917537689,-0.3231381773948669,-0.223245084285736,0.2220114916563034
1631290358723,0.3470242917537689,-0.1520735025405883,-0.2126543223857879,0.2220114916563034
1631290358739,0.3660207092761993,0.0781593397259712,-0.1650152206420898,0.2520864903926849
1631290358875,0.391198456287384,0.2743993401527405,-0.1025277897715568,0.2871080338954925
1631290358926,0.421154111623764,0.4046134352684021,-0.0552319809794425,0.3180654942989349
1631290358991,0.4520865380764007,0.4761281311511993,-0.0374131724238395,0.3429584801197052
1631290359124,0.4802233278751373,0.5096099376678467,-0.0447233915328979,0.3639015257358551
1631290359242,0.5094501376152039,0.5259984731674194,-0.0618745684623718,0.385082334280014
1631290359316,0.543702244758606,0.5364634394645691,-0.0782746151089668,0.4122467935085296
1631290359371,0.543702244758606,0.543673574924469,-0.0940656587481498,0.4122467935085296
1631290359476,0.543702244758606,0.5485970973968506,-0.1105465739965438,0.4122467935085296
1631290359590,0.543702244758606,0.5516648888587952,-0.1222356110811233,0.4122467935085296
1631290359691,0.543702244758606,0.5527669787406921,-0.1220835670828819,0.4122467935085296
1631290359975,0.543702244758606,0.5524200201034546,-0.1121718809008598,0.4122467935085296
1631290360077,-0.1720196902751922,0.5509815216064453,-0.1029606238007545,0.3604992032051086
1631290360146,-0.22956383228302,0.5436075925827026,-0.1039766296744346,0.3331488370895386
1631290360191,-0.2665334939956665,0.5146327614784241,-0.1256060451269149,0.305023044347763
1631290360240,-0.2893785834312439,0.4442490041255951,-0.1771210432052612,0.2779532968997955
1631290360307,-0.2975205183029175,0.3208910226821899,-0.2599559724330902,0.2500028908252716
1631290360632,-0.2873386740684509,0.1521699875593185,-0.3590642213821411,0.2219552397727966
1631290360688,-0.2672446370124817,-0.0265895072370767,-0.4474245011806488,0.2036668956279754
1631290360777,-0.2514787316322326,-0.1665422469377517,-0.5045145153999329,0.2018190771341323
1631290360904,-0.2487632185220718,-0.2564279735088348,-0.5354546904563904,0.213936910033226
1631290361014,-0.2517102360725403,-0.3137937486171722,-0.5509119629859924,0.2286343872547149
1631290361109,-0.2462587356567382,-0.3514629006385803,-0.5557112693786621,0.2357836663722992
1631290361166,-0.2276463061571121,-0.3815006017684936,-0.5543676018714905,0.2316184490919113
1631290361226,-0.2308317571878433,-0.4073257446289062,-0.5577632188796997,0.2078644037246704
1631290361272,-0.1989425122737884,-0.4235568642616272,-0.5773666501045227,0.1683900654315948
1631290361344,-0.1556635499000549,-0.4291788339614868,-0.6151703596115112,0.1248838901519775
1631290361441,-0.1210819035768508,-0.4323361217975616,-0.6572595834732056,0.093405894935131
1631290361696,-0.1000663340091705,-0.4361714124679565,-0.6824350953102112,0.0814914405345916
1631290361779,-0.0847085490822792,-0.428803950548172,-0.6854836344718933,0.0850747898221015
1631290361933,-0.0663088783621788,-0.3974121212959289,-0.674200713634491,0.0938053205609321
1631290362037,-0.046496145427227,-0.3464367687702179,-0.6523621082305908,0.1008111983537674
1631290362081,-0.0326540432870388,-0.2912646532058716,-0.6127903461456299,0.1045021787285804
1631290362223,-0.0293285083025693,-0.2443791031837463,-0.5555585622787476,0.1074070110917091
1631290362258,-0.0337797589600086,-0.2097952663898468,-0.4905573725700378,0.1215499863028526
1631290362325,-0.0376321375370025,-0.1860855221748352,-0.4289448857307434,0.1556600034236908
1631290362378,-0.0395502634346485,-0.1726958751678466,-0.37803715467453,0.2027890086174011
1631290362463,-0.0448270216584205,-0.168215811252594,-0.3429091274738312,0.2451624721288681
1631290362525,-0.0595153793692588,-0.1723555028438568,-0.3255298435688019,0.2724043428897857
1631290362652,-0.0874142423272132,-0.1822926551103592,-0.3221733868122101,0.287261813879013
1631290362740,-0.124828964471817,-0.1902276277542114,-0.3250561356544494,0.2971350848674774
1631290362858,-0.1604544222354889,-0.187337189912796,-0.3278530538082123,0.3038064539432525
1631290362949,-0.1845150142908096,-0.1730591207742691,-0.329571396112442,0.3050926029682159
1631290363040,-0.1939638257026672,-0.1556981801986694,-0.3330061733722687,0.2995862960815429
1631290363102,-0.1928029209375381,-0.1439423263072967,-0.3401395082473755,0.2874909937381744
1631290363326,-0.186812087893486,-0.1422482877969741,-0.3531317114830017,0.271916002035141
1631290363386,-0.1778765767812729,-0.1510286778211593,-0.3731620609760284,0.2572141885757446
1631290363469,-0.1659375429153442,-0.1692220717668533,-0.4004967808723449,0.2455125600099563
1631290363560,-0.1459576040506363,-0.1937183141708374,-0.4331858456134796,0.2307375371456146
1631290363673,-0.1173732578754425,-0.2192631363868713,-0.4691726863384247,0.1969588249921798
1631290363741,-0.089374266564846,-0.2418267577886581,-0.5076110363006592,0.1279373466968536
1631290363873,-0.0758577808737754,-0.2589820027351379,-0.546530544757843,0.0388217344880104
1631290363991,-0.0623091459274292,-0.26399627327919,-0.5610490441322327,-0.0817016661167144
1631290364227,-0.0468592345714569,-0.2396837025880813,-0.4747299253940582,-0.1990316957235336
1631290364268,-0.0265496931970119,-0.1601140052080154,-0.2536628246307373,-0.2802695333957672
1631290364406,-0.0026387337129563,-0.0378570407629013,-0.0165185984224081,-0.3290179669857025
1631290364454,0.0207361876964569,0.0828687623143196,0.156669944524765,-0.3636882603168487
1631290364546,0.0454349145293235,0.1745267361402511,0.2563897371292114,-0.3995394706726074
1631290364583,0.0726819708943367,0.2415843904018402,0.3106660842895508,-0.4507376551628113
1631290364666,0.098060205578804,0.299031525850296,0.3655607402324676,-0.5210580229759216
1631290364758,0.1142741590738296,0.3531034886837005,0.4433430731296539,-0.5861088633537292
1631290364934,0.1192428618669509,0.3972031474113464,0.5240854024887085,-0.6121569275856018
1631290364966,0.1192428618669509,0.4250636696815491,0.5832990407943726,-0.6121569275856018
1631290365078,0.1192428618669509,0.4367812573909759,0.6159723401069641,-0.6121569275856018
1631290365227,0.1192428618669509,0.4397380650043487,0.6311948299407959,-0.6121569275856018
1631290365349,0.1192428618669509,0.4428395628929138,0.6429837942123413,-0.6121569275856018
1631290365387,0.1192428618669509,0.4559938311576843,0.6659439206123352,-0.6121569275856018
1631290365478,0.1192428618669509,0.4837292730808258,0.7062332630157471,0.4389232397079468
1631290365623,0.1192428618669509,0.5164003372192383,0.7516288757324219,0.3588135540485382
1631290365706,0.8659129738807678,0.5347509384155273,0.77982497215271,0.3120504319667816
1631290365818,0.8606288433074951,0.527563750743866,0.7791687250137329,0.2937040328979492
1631290365992,0.7664298415184021,0.4604940712451935,0.7296407222747803,0.2710544764995575
1631290366015,0.8197885155677795,0.4982999563217163,0.756095290184021,0.2855270504951477
1631290366073,0.7195687294006348,0.4203797578811645,0.7099032402038574,0.2480345964431762
1631290366302,0.6890591979026794,0.3725893497467041,0.6858376264572144,0.2256566882133484
1631290366368,0.673566997051239,0.3112060725688934,0.6431397795677185,0.2098347842693328
1631290366416,0.6630106568336487,0.2449895292520523,0.5831546187400818,0.1986286640167236
1631290366544,0.6473643183708191,0.1934833228588104,0.5234864354133606,0.1881116330623626
1631290366680,0.6243045330047607,0.1707410812377929,0.4814890325069427,0.1788518130779266
1631290366724,0.5971035361289978,0.168152168393135,0.4577544331550598,0.056068081408739
1631290366906,0.5698014497756958,0.16726915538311,0.4366703331470489,0.0237735863775014
1631290366928,0.5742529630661011,0.1489534527063369,0.3940344750881195,0.0241748038679361
1631290366992,0.546816885471344,0.1003056839108467,0.3039444983005523,0.0427146628499031
1631290367176,0.4783542454242706,0.0376560911536216,0.1549490541219711,0.0641502663493156
1631290367290,0.3790605962276459,0.0230740401893854,-0.0110058393329381,0.0733792781829834
1631290367369,0.2884846329689026,0.0890516936779022,-0.0737375169992446,0.0632361322641372
1631290367484,0.2678523361682892,0.2521135509014129,0.0866797119379043,0.0280476473271846
1631290367484,0.2521111965179443,0.183376595377922,-0.0018552691908553,0.0411427989602088
1631290367641,0.2935800552368164,0.2863257825374603,0.1362854391336441,0.0374680310487747
1631290367777,0.2907803356647491,0.299425721168518,0.1565971225500106,0.0568058192729949
1631290367867,0.2327700406312942,0.308639258146286,0.1651069819927215,0.0703268274664878
1631290367970,0.1034060567617416,0.3207902312278747,0.1712896227836609,0.0786900147795677
1631290368183,0.1034060567617416,0.3347975313663482,0.1755848675966262,0.0786900147795677
1631290368209,0.1034060567617416,0.3463157117366791,0.1792731434106826,0.0786900147795677
1631290368421,0.1034060567617416,0.3524000644683838,0.1841400563716888,0.0786900147795677
1631290368626,0.1034060567617416,0.3541048169136047,0.1912213414907455,0.0786900147795677
1631290368858,0.1034060567617416,0.3539884686470032,0.2009993940591812,0.0786900147795677
1631290368889,0.1034060567617416,0.3532764613628387,0.2166879475116729,0.0786900147795677
1631290369041,0.1034060567617416,0.352099061012268,0.2390056103467941,0.0786900147795677
1631290369105,0.1034060567617416,0.3442102968692779,0.25521120429039,0.0786900147795677
1631290369183,0.1034060567617416,0.3218991160392761,0.2493042349815368,0.0786900147795677
1631290369251,0.1034060567617416,0.2838828861713409,0.2175670117139816,0.0786900147795677
1631290369305,0.1034060567617416,0.3710065186023712,0.174503669142723,0.0786900147795677
1631290369369,0.1034060567617416,0.3468851149082184,0.1419161856174469,0.0786900147795677
1631290369404,0.1034060567617416,0.334148496389389,0.1271054446697235,0.0786900147795677
1631290369455,0.1034060567617416,0.3245189189910888,0.121096022427082,0.0786900147795677
1631290369511,0.1034060567617416,0.3110311627388,0.1162201687693595,0.0786900147795677
1631290369607,0.1034060567617416,0.2943207025527954,0.1160473376512527,0.0786900147795677
1631290369755,0.1034060567617416,0.2816329598426819,0.1290717422962188,0.0786900147795677
1631290369895,0.1034060567617416,0.2825456857681274,0.1652773320674896,0.0786900147795677
1631290369895,0.1034060567617416,0.2977599799633026,0.2186706066131591,0.0786900147795677
1631290369925,0.1034060567617416,0.317414790391922,0.2677235007286072,0.0786900147795677
1631290370040,0.1034060567617416,0.3462401926517486,0.291512668132782,0.0786900147795677
1631290370212,0.1034060567617416,0.3369010984897613,0.2787081301212311,0.0786900147795677
1631290370370,0.1034060567617416,0.3020154535770416,0.2315038293600082,0.0786900147795677
1631290370446,0.1034060567617416,0.2471417486667633,0.1677932292222976,0.0786900147795677
1631290370478,0.1034060567617416,0.1903205215930938,0.114523209631443,0.0786900147795677
1631290370544,0.1034060567617416,-0.0883777141571044,0.089340291917324,0.0786900147795677
1631290370752,0.1034060567617416,-0.1049391403794288,0.0881225988268852,0.0786900147795677
1631290370847,0.1034060567617416,-0.0932673215866088,0.0952719673514366,0.0786900147795677
1631290370973,0.1034060567617416,-0.0763780623674392,0.1032839491963386,0.0786900147795677
1631290371054,0.1083719208836555,-0.0648477673530578,0.1108520850539207,0.0786900147795677
1631290371158,0.1097127869725227,-0.0607313252985477,0.1136865690350532,0.1555461138486862
1631290371211,0.1077057421207428,-0.0643098130822181,0.1001714244484901,0.1388179957866668
1631290371258,0.1011992767453193,-0.0837302878499031,0.0521078035235405,0.1124381721019744
1631290371375,0.0974746719002723,-0.1272400468587875,-0.041730623692274,0.0887277424335479
1631290371477,0.1107949167490005,-0.1912864446640014,-0.1732877641916275,0.0695711299777031
1631290371540,0.1460025310516357,-0.3281605541706085,-0.3050606250762939,0.0537490807473659
1631290371692,0.1460025310516357,-0.3648110628128052,-0.3797836005687713,0.0537490807473659
1631290371912,0.1460025310516357,-0.3528779149055481,-0.3608289062976837,0.0537490807473659
1631290371989,0.1460025310516357,-0.2940096259117126,-0.2260130196809768,0.0537490807473659
1631290372075,0.1460025310516357,-0.1937864273786544,-0.0033165337517857,0.0537490807473659
1631290372124,0.1460025310516357,-0.0813562497496604,0.2101084142923355,0.0537490807473659
1631290372190,0.1465075463056564,0.0103956423699855,0.3620707094669342,0.0537490807473659
1631290372296,0.1532336473464965,0.0674769133329391,0.4476848840713501,0.0481494702398777
1631290372367,0.1612797528505325,0.0957236140966415,0.4823516011238098,0.0288175288587808
1631290372544,0.1693921536207199,0.1094437018036842,0.4892940819263458,-0.0060688937082886
1631290372652,0.1794923543930053,0.1174928992986679,0.4877876341342926,-0.0493480712175369
1631290372698,0.1977754086256027,0.1196258217096328,0.485916405916214,-0.0832100138068199
1631290372878,0.1977754086256027,0.1056587174534797,0.4878922700881958,-0.0832100138068199
1631290372879,0.1977754086256027,0.1147015467286109,0.4859103560447693,-0.0832100138068199
1631290373053,0.1977754086256027,0.0965588763356208,0.49158775806427,-0.0832100138068199
1631290373118,0.1977754086256027,0.0888299942016601,0.4958790838718414,-0.0832100138068199
1631290373245,0.1977754086256027,0.0823337584733963,0.5000713467597961,-0.0832100138068199
1631290373323,0.1977754086256027,0.0843030884861946,0.5049017667770386,-0.0832100138068199
1631290373402,0.1977754086256027,0.1179345995187759,0.5116209387779236,-0.0832100138068199
1631290373508,0.1977754086256027,0.1929797977209091,0.5147060751914978,-0.0832100138068199
1631290373625,0.1977754086256027,0.2832050919532776,0.5069728493690491,-0.0832100138068199
1631290373840,0.1977754086256027,0.3544439971446991,0.4874111711978912,-0.0832100138068199
1631290373915,0.1977754086256027,0.3930520415306091,0.4649205505847931,-0.0832100138068199
1631290373993,0.1977754086256027,0.4053614437580108,0.4511389434337616,-0.0832100138068199
1631290374058,0.1977754086256027,0.4055059254169464,0.4485953152179718,-0.0832100138068199
1631290374078,0.1977754086256027,0.403957337141037,0.4511019289493561,-0.0832100138068199
1631290374205,0.1977754086256027,0.4047971367835998,0.4540532529354095,-0.0832100138068199
1631290374429,0.1977754086256027,0.4089582860469818,0.4561400711536407,-0.0832100138068199
1631290374524,0.1977754086256027,0.4155372977256775,0.4571957886219024,-0.0832100138068199
1631290374590,0.1977754086256027,0.4231769740581512,0.4574884176254272,-0.0832100138068199
1631290374668,0.1977754086256027,0.4307948350906372,0.4581820964813232,-0.0832100138068199
1631290374696,0.4616441428661346,0.4374304413795471,0.4594415426254272,0.4130358397960663
1631290374893,0.4616441428661346,0.4381405115127563,0.456237643957138,0.513070285320282
1631290375087,0.4616441428661346,0.4174348711967468,0.4325232207775116,0.6159368753433228
1631290375141,0.4616441428661346,0.355031818151474,0.3693163692951202,0.6897165775299072
1631290375211,0.5664328932762146,0.237707570195198,0.2605142891407013,0.726705014705658
1631290375310,0.5534396767616272,0.0737851783633232,0.1304073631763458,0.7323535084724426
1631290375474,0.5108921527862549,-0.090278223156929,0.0385948829352855,0.7200379371643066
1631290375551,0.470915675163269,-0.1872272789478302,0.0199162065982818,0.7022619247436523
1631290375718,0.4405290484428406,-0.2068936973810196,0.0370128080248832,0.6854567527770996
1631290375860,0.41954305768013,-0.1945730298757553,0.0498204603791236,0.6710910201072693
1631290375921,0.402186781167984,-0.1823727488517761,0.0523281767964363,0.6553506851196289
1631290375964,0.3844058811664581,-0.1833388209342956,0.0487534515559673,0.6361984014511108
1631290376060,0.3773093819618225,-0.1973391473293304,0.041484098881483,0.6235268115997314
1631290376126,0.3605398535728454,-0.2168574035167694,0.0307974610477685,0.611139178276062
1631290376308,0.3226420283317566,-0.2339831590652465,0.0173229444772005,0.5993207097053528
1631290376390,0.218673825263977,-0.2467348426580429,0.0014788708649575,0.5801519751548767
1631290376441,0.1932456195354461,-0.2576111853122711,-0.0165821313858032,0.5420846939086914
1631290376497,0.1717415452003479,-0.2688984870910644,-0.0378519780933856,0.4791386723518371
1631290376599,0.1534713953733444,-0.2789759039878845,-0.064194306731224,0.3938750624656677
1631290376672,0.0061597912572324,-0.2853990793228149,-0.0978919044137001,0.3007470965385437
1631290376844,-0.0600423701107502,-0.2890029549598694,-0.1426713913679123,0.2212705463171005
1631290376927,-0.0681199729442596,-0.2947737276554107,-0.1989188939332962,0.1623550802469253
1631290376958,-0.0659244880080223,-0.3102252185344696,-0.2557685375213623,0.1119515597820282
1631290377128,-0.0702514052391052,-0.3434388935565948,-0.293617695569992,0.0563480965793132
1631290377213,-0.0823952779173851,-0.393800675868988,-0.2996195256710052,-0.0116881160065531
1631290377333,-0.0873425528407096,-0.4486861228942871,-0.284706711769104,-0.0783866196870803
1631290377426,-0.0745945572853088,-0.4919451773166656,-0.2685252726078033,-0.1276536881923675
1631290377541,-0.0483327433466911,-0.5209622979164124,-0.2597801089286804,-0.1506579667329788
1631290377572,-0.0231189206242561,-0.5442284345626831,-0.257192850112915,-0.1472663134336471
1631290377708,-0.0066122296266257,-0.5646308660507202,-0.2565151154994964,-0.1227565929293632
1631290377906,0.0013838381273671,-0.577791154384613,-0.2572456896305084,-0.0946098864078521
1631290378013,0.0082188760861754,-0.5836880803108215,-0.2607883512973785,-0.0803320184350013
1631290378109,0.0202171262353658,-0.5891832709312439,-0.2647282481193542,-0.0838462859392166
1631290378181,0.0382571406662464,-0.6002811193466187,-0.2657804489135742,-0.0953241512179374
1631290378241,0.0548922456800937,-0.6110020875930786,-0.2661871314048767,-0.1022837534546852
1631290378324,0.0620035715401172,-0.6095572710037231,-0.274049162864685,-0.1006044521927833
1631290378525,0.0563094019889831,-0.5891425609588623,-0.2953206896781921,-0.0938076823949813
1631290378657,0.0404790639877319,-0.5549299716949463,-0.3297759294509887,-0.0842120498418808
1631290378798,0.0207763761281967,-0.5144736170768738,-0.3722117841243744,-0.0705136805772781
1631290379026,0.0037065914366394,-0.468283861875534,-0.4137762784957886,-0.0512268990278244
1631290379142,-0.0248752702027559,-0.3728265166282654,-0.4484561681747436,-0.0094503862783312
1631290379153,-0.0097110532224178,-0.4185700714588165,-0.4422371685504913,-0.0293814111500978
1631290379186,-0.0416784062981605,-0.3395738005638122,-0.4385640621185303,0.0031261527910828
1631290379216,-0.0501974001526832,-0.3234623968601227,-0.4292935132980346,0.0020358848851174
1631290379269,-0.0422469712793827,-0.3256412148475647,-0.4318059086799621,-0.0174043774604797
1631290379357,-0.023757079616189,-0.3432233035564422,-0.4437313079833984,-0.0503367520868778
1631290379442,-0.0085099004209041,-0.3681124746799469,-0.4557960629463196,-0.0800581127405166
1631290379528,-0.0025555239990353,-0.3873378038406372,-0.4651743173599243,-0.0901110172271728
1631290379608,0.0021493514068424,-0.391088455915451,-0.4707637131214142,-0.0776581093668937
1631290379769,0.0149863809347152,-0.3815574049949646,-0.4649525880813598,-0.0504563264548778
1631290379856,0.0369357578456401,-0.3694756925106048,-0.4425595998764038,-0.0179804768413305
1631290380031,0.0622796341776847,-0.3643673658370971,-0.4143671691417694,0.0125441420823335
1631290380123,0.0882370918989181,-0.367967426776886,-0.3962836265563965,0.0362520478665828
1631290380220,0.1137982681393623,-0.3782890141010284,-0.3947861492633819,0.0502585135400295
1631290380307,0.1356650739908218,-0.3964090347290039,-0.4056871831417084,0.0535724982619285
1631290380393,0.1478340476751327,-0.4242129623889923,-0.4217003583908081,0.0483270362019538
1631290380569,0.1503865867853164,-0.4589979648590088,-0.4376606941223144,0.0392816513776779
1631290380633,0.1482055187225341,-0.4883187711238861,-0.4484365284442901,0.0320347100496292
1631290380664,0.1480486690998077,-0.499359130859375,-0.4515797793865204,0.0279330238699913
1631290380826,0.1527737230062484,-0.4872731566429138,-0.4495546221733093,0.0253386609256267
1631290380878,0.1615837961435318,-0.4585663378238678,-0.4467506110668182,0.0219909362494945
1631290380960,0.1702602654695511,-0.4234323501586914,-0.4455775916576385,0.0146545507013797
1631290381023,0.1726822853088379,-0.3925165235996246,-0.4439678490161896,-0.0006478170398622
1631290381137,0.1612599343061447,-0.369865208864212,-0.4422919452190399,-0.0271692723035812
1631290381426,0.1359340250492096,-0.3557324707508087,-0.4486723840236664,-0.0647402182221412
1631290381427,0.1038561910390853,-0.3483277559280395,-0.4703484177589416,-0.1108635887503624
1631290381596,0.0770724639296531,-0.3396463990211487,-0.5032871961593628,-0.1614369451999664
1631290381691,0.0610335543751716,-0.3176819086074829,-0.5320602655410767,-0.2103414833545684
1631290381985,0.0479612834751606,-0.2411843836307525,-0.545928418636322,-0.2605132460594177
1631290382014,0.0521788261830806,-0.2804706692695617,-0.5456900596618652,-0.2468858361244201
1631290382140,0.0551362298429012,-0.212909460067749,-0.542310357093811,-0.2519251406192779
1631290382258,0.0767657533288002,-0.1991186141967773,-0.5423110127449036,-0.2353899329900741
1631290382325,0.1045193895697593,-0.1942915618419647,-0.5492126941680908,-0.2209913581609726
1631290382384,0.1237309277057647,-0.19272381067276,-0.5607564449310303,-0.2088571637868881
1631290382440,0.1260766834020614,-0.1953164935111999,-0.5720618367195129,-0.1985883563756942
1631290382583,0.1149317920207977,-0.2046951204538345,-0.5791307091712952,-0.1946775317192077
1631290382718,0.1023676916956901,-0.2204170376062393,-0.5784481167793274,-0.2011719197034835
1631290382858,0.1056451126933097,-0.2372036576271057,-0.5704091191291809,-0.2147711962461471
1631290383040,0.1336119621992111,-0.2510092854499817,-0.5634192824363708,-0.2286912649869918
1631290383044,0.1751068383455276,-0.2596695721149444,-0.565295934677124,-0.2413124740123748
1631290383121,0.2118069380521774,-0.2605146467685699,-0.5713435411453247,-0.250807374715805
1631290383197,0.2330965101718902,-0.2544728219509125,-0.5633562207221985,-0.2528251111507416
1631290383258,0.2385750859975814,-0.2522477805614471,-0.5321031808853149,-0.2473229616880417
1631290383397,0.2332671880722046,-0.2649853229522705,-0.488748699426651,-0.240046426653862
1631290383473,0.2201570123434066,-0.2911292016506195,-0.4517245292663574,-0.2308314889669418
1631290383609,0.1996757686138153,-0.3169255554676056,-0.4275748431682586,-0.2061172723770141
1631290383660,0.1747123599052429,-0.3260247707366943,-0.409207820892334,-0.1546248495578766
1631290383682,0.1506547182798385,-0.3202762305736542,-0.3878637552261352,-0.0879945680499076
1631290383850,0.132744014263153,-0.3142168521881103,-0.3621394336223602,-0.025097768753767
1631290383901,0.1218118295073509,-0.3161626160144806,-0.3382126986980438,0.0229978468269109
1631290384074,0.1141450107097625,-0.3236043155193329,-0.3224606812000274,0.0567952096462249
1631290384257,0.1046656519174575,-0.3313027918338775,-0.3182019293308258,0.0799951776862144
1631290384627,0.0848006829619407,-0.3393974900245666,-0.3236287236213684,0.0934083387255668
1631290384759,0.0442669466137886,-0.3522771894931793,-0.3313077986240387,0.0980744361877441
1631290384905,-0.0191896073520183,-0.3723478317260742,-0.3320071995258331,0.0968828052282333
1631290384953,-0.092628389596939,-0.3996169865131378,-0.3193652629852295,0.096003882586956
1631290385043,0.8194152116775513,0.7944515943527222,0.3440715968608856,1.0813990831375122
1631290385061,-0.1551399528980255,-0.4364404082298279,0.337888240814209,0.4715734422206878
1631290385143,0.8186848759651184,0.7916791439056396,0.3499267399311065,1.0824536085128784
1631290385210,0.8202641606330872,0.7892300486564636,0.3552305996417999,1.196137547492981
1631290385280,0.822717010974884,0.7871702313423157,0.3599053919315338,1.195506930351257
1631290385327,0.8239037990570068,0.7851534485816956,0.3632009327411651,1.1934802532196045
1631290385500,0.8226472735404968,0.783130407333374,0.3640351891517639,1.1901975870132446
1631290385788,0.8195592164993286,0.7815151214599609,0.3624940812587738,1.1863762140274048
1631290385893,0.8161627650260925,0.7807861566543579,0.3604967296123504,1.1831263303756714
1631290385954,0.813414990901947,0.7809301018714905,0.3606379926204681,1.1814082860946655
1631290385980,1.2032912969589231,1.1853073835372925,0.5979273319244385,1.5857858657836914
1631290385986,1.1707106828689575,1.1516530513763428,0.5944467782974243,1.5220346450805664
1631290386079,1.2466824054718018,1.230797290802002,0.7533944845199585,1.606315851211548
1631290386098,1.4231935739517212,1.4178738594055176,1.164666771888733,1.6957234144210815
1631290386169,1.423371195793152,1.4183789491653442,1.16428542137146,1.696530818939209
1631290386208,1.4237241744995115,1.41905415058136,1.1105180978775024,1.6815359592437744
1631290386248,1.3139837980270386,1.3095855712890625,1.1092740297317505,1.5901868343353271
1631290386369,1.3145520687103271,1.31102454662323,1.1079193353652954,1.5895084142684937
1631290386442,1.3146811723709106,1.3126003742218018,1.1065579652786257,1.5464754104614258
1631290386478,1.3142727613449097,1.314106583595276,1.1052204370498655,1.5458292961120603
1631290386525,1.313596487045288,1.3153566122055054,1.1039406061172483,1.545413851737976
1631290386641,1.3130788803100586,1.316214680671692,1.1028839349746704,1.5452901124954224
1631290386740,1.414914846420288,1.417466402053833,1.2586004734039309,1.7144023180007937
1631290386910,1.4151699542999268,1.4176441431045532,1.2583454847335815,1.7522616386413574
1631290386910,1.4158194065093994,1.4177734851837158,1.2582708597183228,1.7522433996200562
1631290387043,1.2497961521148682,1.2564102411270142,1.2178277969360352,1.58479642868042
1631290387328,1.2220830917358398,1.2286921739578247,1.218334674835205,1.521824598312378
1631290387458,1.1780214309692385,1.1838126182556152,1.1730012893676758,1.498483180999756
1631290387525,0.7987666726112366,0.7880802750587463,0.7791001200675964,1.3505005836486816
1631290387641,0.8032322525978088,0.7877963781356812,0.7825894951820374,1.3506642580032349
1631290387709,0.8071646094322205,0.7862612009048462,0.7843402624130249,1.351575493812561
1631290387758,0.8109487295150757,0.7832677960395813,0.7843279838562012,1.353551745414734
1631290387803,0.8151602149009705,0.7790411114692688,0.7835252285003662,1.3567060232162476
1631290387876,0.8195303082466125,0.7741723656654358,0.7828093767166138,1.3603688478469849
1631290387950,0.8230720162391663,0.7693324089050293,0.7825314998626709,1.3634053468704224
1631290388001,0.8254142999649048,0.7651051878929138,0.7825906872749329,1.3651442527770996
1631290388298,0.8275032639503479,0.7621092796325684,0.7827598452568054,1.3658769130706787
1631290388411,0.1264027655124664,-0.4595085978507995,-0.2348874360322952,0.8159754872322083
1631290388497,0.1686382889747619,-0.4707316160202026,-0.2276183813810348,0.2875071763992309
1631290388498,0.1545886397361755,-0.4664866030216217,-0.2303929924964904,0.2729408144950866
1631290388606,0.1767915487289428,-0.477603942155838,-0.2288721948862075,0.2991925477981567
1631290388784,0.1796833574771881,-0.4706770181655884,-0.2290638387203216,0.3014085292816162
1631290388810,0.179973691701889,-0.4228558838367462,-0.2149009853601455,0.294935405254364
1631290388922,0.1814504712820053,-0.3472679555416107,-0.1865385174751281,0.2869963645935058
1631290388991,0.1854420453310012,-0.2605577111244201,-0.2073407918214798,0.2852799296379089
1631290389118,0.1897940188646316,-0.1592070311307907,-0.2122630923986435,0.289598286151886
1631290389178,0.1868597716093063,-0.0221346914768219,-0.2016543895006179,0.2868592739105224
1631290389275,0.1677380502223968,0.1396212130784988,-0.1823684126138687,0.2604566812515259
1631290389389,0.1339854449033737,0.2890946567058563,-0.1587053835391998,0.2056335657835006
1631290389483,0.1069486513733863,0.3989589512348175,-0.1299197524785995,0.1404384076595306
1631290389707,0.1069486513733863,0.4658216834068298,-0.0932905450463295,0.1014522090554237
1631290389743,0.1069486513733863,0.5001163482666016,-0.0472794063389301,0.1014522090554237
1631290389781,0.1069486513733863,0.5166444778442383,0.005711275152862,0.1014522090554237
1631290389891,0.1069486513733863,0.5257639288902283,0.0625890642404556,0.1014522090554237
1631290389921,0.1069486513733863,0.5310114622116089,0.1233214139938354,0.1014522090554237
1631290390104,0.1069486513733863,0.533195972442627,0.1233214139938354,0.1014522090554237
1631290390219,0.1069486513733863,0.5318029522895813,0.1233214139938354,0.1014522090554237
1631290390234,0.1069486513733863,0.5255317091941833,0.1233214139938354,0.1014522090554237
1631290390459,0.5676838159561157,0.5008816123008728,-0.5480762124061584,0.8759864568710327
1631290390460,0.1069486513733863,0.5150619745254517,0.1233214139938354,0.1014522090554237
1631290390573,0.5012881755828857,0.4803301393985748,-0.5028201937675476,0.8301557898521423
1631290390633,0.4380829334259033,0.4423144161701202,-0.42421954870224,0.7810564637184143
1631290390840,0.3903696835041046,0.3712418377399444,-0.3544402718544006,0.7385689616203308
1631290391000,0.3646967113018036,0.2548619508743286,-0.3133237361907959,0.7047478556632996
1631290391093,0.3593884408473968,0.097389630973339,-0.2984145879745483,0.6783726215362549
1631290391157,0.3632310628890991,-0.0731836408376693,-0.2929816842079162,0.6554300785064697
1631290391229,0.3642284870147705,-0.2138127833604812,-0.2807572782039642,0.6314050555229187
1631290391307,0.356093019247055,-0.3097408413887024,-0.2458174079656601,0.6047351360321045
1631290391416,0.3394516706466675,-0.3782576322555542,-0.1889073401689529,0.577154815196991
1631290391578,0.2997936308383941,-0.4414020776748657,-0.0871673598885536,0.5264841914176941
1631290391597,0.3188683986663818,-0.4233880341053009,-0.1303048133850097,0.5506620407104492
1631290391726,0.2588772773742676,-0.4353235363960266,-0.0415291897952556,0.4945576786994934
1631290391811,0.2096622139215469,-0.4016270339488983,0.0014335700543597,0.431388646364212
1631290391939,0.1621306091547012,-0.3012203872203827,0.0245279129594564,0.3459449112415313
1631290392010,0.1385138034820556,-0.2990885078907013,0.0489993132650852,0.2672323286533355
1631290392111,0.1478728502988815,-0.2959137260913849,0.0704726576805114,0.2201221734285354
1631290392279,0.1748712360858917,-0.2911535501480102,0.0865522474050521,0.1972863674163818
1631290392358,0.201298788189888,-0.2863095104694366,0.1000273898243904,0.1788151264190673
1631290392475,0.2113685011863708,-0.278922975063324,0.1175169050693512,0.1497074216604232
1631290392510,0.1915404349565506,-0.2639079689979553,0.1444903761148452,0.096980795264244
1631290392675,0.1357664316892624,-0.2371978759765625,0.1798595935106277,0.015900271013379
1631290392675,0.048113290220499,-0.1988977342844009,0.2184568494558334,-0.0781817212700843
1631290392834,0.048113290220499,-0.1526349633932113,0.2490333467721939,-0.0781817212700843
1631290392891,0.048113290220499,-0.0995376333594322,0.2594970464706421,-0.0781817212700843
1631290393094,0.048113290220499,-0.0366235971450805,0.4274251759052276,-0.0781817212700843
1631290393176,0.048113290220499,0.7489563226699829,0.4274251759052276,-0.0781817212700843
1631290393276,0.048113290220499,1.0335203409194946,0.4274251759052276,-0.0781817212700843
1631290393308,0.048113290220499,1.2232340574264526,0.4274251759052276,-0.0781817212700843
1631290393385,0.048113290220499,1.3835341930389404,0.4274251759052276,-0.0781817212700843
1631290393590,0.048113290220499,1.4300028085708618,0.4274251759052276,-0.0781817212700843
1631290393634,0.048113290220499,1.4300028085708618,0.591009259223938,-0.0781817212700843
1631290393755,0.048113290220499,1.4300028085708618,0.6550747752189636,-0.0781817212700843
1631290393942,0.048113290220499,1.4300028085708618,0.6550747752189636,-0.0781817212700843
1631290394124,0.048113290220499,1.4300028085708618,0.6550747752189636,-0.0781817212700843
1631290394191,0.048113290220499,1.4145952463150024,0.6550747752189636,-0.0781817212700843
1631290394291,0.048113290220499,1.3823350667953491,0.6550747752189636,-0.0781817212700843
1631290394357,0.048113290220499,1.3394659757614136,0.71337890625,-0.0781817212700843
1631290394482,0.048113290220499,1.2958383560180664,0.7117922902107239,-0.0781817212700843
1631290394506,0.048113290220499,1.2553495168685913,0.685130774974823,-0.0781817212700843
1631290394629,0.048113290220499,1.217506766319275,0.6352937817573547,-0.0781817212700843
1631290394700,0.048113290220499,1.171841382980347,0.5936539173126221,-0.0781817212700843
1631290394836,0.048113290220499,1.1140966415405271,0.5599398016929626,-0.0781817212700843
1631290394916,0.048113290220499,1.036857843399048,0.5382970571517944,-0.0781817212700843
1631290394982,0.048113290220499,0.9121689200401306,0.531228244304657,-0.0781817212700843
1631290395176,0.048113290220499,0.6976723670959473,0.5389523506164551,-0.0781817212700843
1631290395240,0.048113290220499,0.6832146644592285,0.5368312001228333,-0.0781817212700843
1631290395311,0.048113290220499,0.6662999987602234,0.4869357049465179,-0.0781817212700843
1631290395336,0.395450085401535,0.6452658176422119,0.4712588191032409,0.6501102447509766
1631290395474,0.4687057137489319,0.6230922341346741,0.4487966895103454,0.6789214611053467
1631290395663,0.5034920573234558,0.4555694460868835,0.4260368645191192,0.7010918855667114
1631290395714,0.5010755658149719,0.3160813748836517,0.4049003422260284,0.7011824250221252
1631290395775,0.4735448360443115,0.2414626181125641,0.3080422282218933,0.6833946704864502
1631290395880,0.4382424056529999,0.2035042494535446,0.2432767897844314,0.6590726971626282
1631290396010,0.4382424056529999,0.1763488799333572,0.2107374519109726,0.6374255418777466
1631290396210,0.4382424056529999,0.16336290538311,0.203408882021904,0.6374255418777466
1631290396425,0.4382424056529999,0.1781448423862457,0.2044300436973571,0.6374255418777466
1631290396593,0.4382424056529999,0.24558687210083,0.2052335739135742,0.6374255418777466
1631290396838,0.4382424056529999,0.3605921864509582,0.2011888325214386,0.6374255418777466
1631290396963,0.4382424056529999,0.4747608006000519,0.184609517455101,0.6374255418777466
1631290397005,0.4588019251823425,0.5508305430412292,0.1520538628101349,0.6336859464645386
1631290397061,0.4820562303066253,0.58355313539505,0.1083602681756019,0.6332399249076843
1631290397140,0.4931293129920959,0.5878884196281433,0.069305382668972,0.6367312073707581
1631290397177,0.4696781039237976,0.5831472277641296,0.059864692389965,0.6287584900856018
1631290397409,0.3968881070613861,0.5793134570121765,0.1008048504590988,0.5915418863296509
1631290397599,0.3968881070613861,0.5903542041778564,0.3165975213050842,0.5200461149215698
1631290397601,0.3968881070613861,0.5792225003242493,0.1918026059865951,0.5200461149215698
1631290397703,0.3968881070613861,0.6272518038749695,0.4568168222904205,0.5200461149215698
1631290397799,0.3968881070613861,0.6940697431564331,0.5973536968231201,0.5200461149215698
1631290397810,0.3968881070613861,0.7792738676071167,0.7280042171478271,0.5200461149215698
1631290397850,0.3968881070613861,0.8936050534248352,0.8736693263053894,0.5200461149215698
1631290397891,0.3968881070613861,0.9616458415985109,0.9516406655311584,0.5200461149215698
1631290397939,0.3968881070613861,1.003967523574829,1.0009781122207642,0.5200461149215698
1631290397976,0.3968881070613861,1.01731538772583,1.027561068534851,0.5200461149215698
1631290398044,0.3968881070613861,1.0088143348693848,1.04249906539917,0.5200461149215698
1631290398146,0.3968881070613861,0.9946528673171996,1.054141879081726,0.5200461149215698
1631290398212,0.3968881070613861,0.9868828058242798,1.0634193420410156,0.5200461149215698
1631290398328,0.3968881070613861,0.986081063747406,1.0679986476898191,0.5200461149215698
1631290398412,0.3968881070613861,1.0367939472198486,1.06859028339386,0.5200461149215698
1631290398588,0.3968881070613861,1.0398504734039309,1.0704582929611206,0.5200461149215698
1631290398643,0.3968881070613861,1.0606011152267456,1.0921059846878052,0.5200461149215698
1631290398760,0.3968881070613861,1.0769538879394531,1.1016113758087158,0.5200461149215698
1631290398890,0.3968881070613861,1.1034554243087769,1.1015812158584597,0.5200461149215698
1631290398938,0.3968881070613861,1.1323176622390747,1.0882413387298584,0.5200461149215698
1631290398982,0.3968881070613861,1.1504921913146973,1.0569143295288086,0.5200461149215698
1631290399179,0.3968881070613861,1.119000792503357,0.9669296741485596,0.5200461149215698
1631290399366,0.3968881070613861,1.0967549085617063,0.8895689249038696,0.5200461149215698
1631290399463,0.3968881070613861,1.0781933069229126,0.8179866671562195,0.5200461149215698
1631290399504,0.3968881070613861,1.0717090368270874,0.7745739221572876,0.5200461149215698
1631290399537,0.3968881070613861,1.080883264541626,0.7557769417762756,0.5200461149215698
1631290399692,0.3968881070613861,1.102651596069336,0.7439894676208496,0.5200461149215698
1631290399758,0.3968881070613861,1.1360267400741575,0.7482866644859314,0.5200461149215698
1631290399842,0.3968881070613861,1.1830224990844729,0.7482866644859314,0.5200461149215698
1631290399928,0.3968881070613861,1.1651381254196167,0.7482866644859314,0.5200461149215698
1631290400163,0.3968881070613861,1.2354819774627686,0.7482866644859314,0.5200461149215698
1631290400199,0.3968881070613861,1.283445119857788,0.7482866644859314,0.5200461149215698
1631290400280,0.3968881070613861,1.283445119857788,0.7482866644859314,0.5200461149215698
1631290400337,0.3968881070613861,1.283445119857788,0.7482866644859314,0.5200461149215698
1631290400403,0.3968881070613861,1.283445119857788,0.7482866644859314,0.5200461149215698
1631290400558,0.3968881070613861,1.283445119857788,0.7482866644859314,0.5200461149215698
1631290400668,0.3968881070613861,1.283445119857788,0.7482866644859314,0.5200461149215698
1631290400762,0.3968881070613861,1.283445119857788,0.7482866644859314,0.5200461149215698
1631290400826,0.3968881070613861,1.283445119857788,0.7482866644859314,0.5200461149215698
1631290400906,0.3968881070613861,1.283445119857788,0.7482866644859314,0.5200461149215698
1631290401030,0.3968881070613861,1.283445119857788,0.7482866644859314,0.5200461149215698
1631290401152,0.3968881070613861,1.283445119857788,0.7482866644859314,0.5200461149215698
1631290401263,0.3968881070613861,1.283445119857788,0.7482866644859314,0.5200461149215698
1631290401358,0.3968881070613861,1.283445119857788,0.7482866644859314,0.5200461149215698
1631290401423,0.3968881070613861,1.283445119857788,0.7482866644859314,0.5200461149215698
1631290401541,0.3968881070613861,1.283445119857788,0.7482866644859314,0.5200461149215698
1631290401691,0.3968881070613861,0.7608303427696228,0.7482866644859314,0.5200461149215698
1631290401800,0.3968881070613861,0.7017373442649841,0.7482866644859314,0.0118565512821078
1631290401912,0.3968881070613861,0.6407561302185059,0.7482866644859314,-0.0595926940441131
1631290401942,0.4439633190631866,0.5841434001922607,0.7482866644859314,-0.1124738231301307
1631290402049,0.3608407378196716,0.5355356931686401,0.7482866644859314,-0.1520947366952896
1631290402137,0.3046157956123352,0.4932471513748169,0.3078839778900146,-0.1854828745126724
1631290402262,0.2688993811607361,0.4557725489139557,0.2675932943820953,-0.2157001346349716
1631290402374,0.257276713848114,0.4224349856376648,0.2528562247753143,-0.237391322851181
1631290402475,0.2846466302871704,0.392822116613388,0.2597793340682983,-0.2275432348251342
1631290402555,0.3473380804061889,0.3657565712928772,0.2757280468940735,-0.1700506508350372
1631290402735,0.4152929484844208,0.3405322134494781,0.2869853973388672,-0.0848970934748649
1631290402758,0.4616625905036926,0.3170455992221832,0.2876932024955749,-0.0049312217161059
1631290402822,0.4789917767047882,0.2089914828538894,0.2788365185260772,0.0513466112315654
1631290403012,0.434242308139801,0.0794156119227409,0.2651153206825256,0.0665221512317657
1631290403057,0.3980835378170013,-0.0646391883492469,0.252261072397232,0.0811853781342506
1631290403142,0.3782370984554291,-0.1689989119768142,0.2505475580692291,0.1065224707126617
1631290403332,0.3677945137023926,-0.1334995776414871,0.2773076593875885,0.1752898842096328
1631290403424,0.4277567267417907,0.0683246403932571,0.3171913027763366,0.3409174978733063
1631290403472,0.5730751156806946,0.3179618716239929,0.3904652297496795,0.5887722373008728
1631290403597,0.7577649354934692,0.5227652788162231,0.4607070088386535,0.8231950998306274
1631290403707,0.914237916469574,0.6592162251472473,0.5078898072242737,0.9928956627845764
1631290403791,1.015989065170288,0.7338224649429321,0.5321494936943054,1.0934581756591797
1631290403857,1.0418447256088257,0.7646927833557129,0.5518736839294434,1.1226921081542969
1631290403973,1.0658764839172363,0.7747828364372253,0.5831211805343628,1.153178095817566
1631290404257,1.0862903594970703,0.7813245058059692,0.6247410178184509,1.1841720342636108
1631290404375,1.1047537326812744,0.7886788845062256,0.6626164317131042,1.2158079147338867
1631290404409,1.1020548343658447,0.7942183613777161,0.685043215751648,1.2495667934417725
1631290404451,1.0969191789627075,0.7964759469032288,0.6917791962623596,1.2479795217514038
1631290404488,1.1301517486572266,0.7966471910476685,0.6908324360847473,1.287611961364746
1631290404541,1.1714128255844116,0.7978249192237854,0.6877710819244385,1.3341434001922607
1631290404696,1.2195080518722534,0.8033866286277771,0.6819766759872437,1.3877077102661133
1631290404809,1.272434949874878,0.8182188272476196,0.6667039394378662,1.4453859329223633
1631290404936,1.320878982543945,0.8360320925712585,0.6362616419792175,1.4959336519241333
1631290405116,1.3401545286178589,0.8386034965515137,0.591140627861023,1.515416979789734
1631290405167,1.297332525253296,0.8122731447219849,0.5416637659072876,1.515416979789734
1631290405267,1.297332525253296,0.76263028383255,0.5018474459648132,1.515416979789734
1631290405307,1.297332525253296,0.7139536142349243,0.4772290289402008,1.515416979789734
1631290405475,1.297332525253296,0.6892563104629517,0.4494116306304931,1.515416979789734
1631290405549,1.297332525253296,0.6838516592979431,0.3929653763771057,1.515416979789734
1631290405708,1.297332525253296,0.680671215057373,0.2936738729476928,1.515416979789734
1631290405727,1.297332525253296,0.674547016620636,0.1630340218544006,1.515416979789734
1631290405804,1.297332525253296,0.6692855954170227,0.0447068288922309,0.2239937335252761
1631290405946,1.297332525253296,0.6673622727394104,-0.0166991185396909,0.1511420458555221
1631290406072,0.1356638669967651,0.6677441000938416,-0.0339937545359134,0.1787993609905243
1631290406123,0.1062956526875495,0.6664173603057861,-0.0387291349470615,0.2230929732322693
1631290406214,0.0754840970039367,0.6554685235023499,-0.0464215353131294,0.2605455815792084
1631290406334,0.0754840970039367,0.6171606779098511,-0.0556073635816574,0.2605455815792084
1631290406392,0.0754840970039367,0.5341141223907471,-0.051240749657154,0.2605455815792084
1631290406499,0.0754840970039367,0.4060314893722534,0.0021456880494952,0.2605455815792084
1631290406673,0.0754840970039367,0.2772942185401916,0.1186581775546073,0.2605455815792084
1631290406827,0.0754840970039367,0.2305750399827957,0.2566589415073395,0.2605455815792084
1631290406903,0.0754840970039367,0.2721576392650604,0.3688640296459198,0.2605455815792084
1631290406950,0.0754840970039367,0.3257068991661072,0.4376143515110016,0.2605455815792084
1631290407009,0.0754840970039367,0.3542300760746002,0.4693256914615631,0.2605455815792084
1631290407191,0.0754840970039367,0.3627446293830871,0.4819135367870331,0.2649185955524444
1631290407409,0.0226715896278619,0.3657009303569793,0.4906114935874939,0.28578981757164
1631290407412,-0.0117742670699954,0.37526735663414,0.5010935068130493,0.3246293067932129
1631290407466,-0.0117742670699954,0.3972790539264679,0.5140480995178223,0.3246293067932129
1631290407551,-0.0117742670699954,0.4290452003479004,0.5305616855621338,0.3246293067932129
1631290407611,-0.0117742670699954,0.4614949524402618,0.5510665774345398,0.3246293067932129
1631290407743,-0.0117742670699954,0.4884613752365112,0.5829152464866638,0.3246293067932129
1631290407914,-0.0117742670699954,0.508423388004303,0.6296401023864746,-0.123885840177536
1631290407958,0.1292824447154998,0.520881175994873,0.6792044639587402,-0.1429615318775177
1631290408029,0.065287135541439,0.5213348269462585,0.7099980115890503,-0.1318770200014114
1631290408167,0.0200488083064556,0.5015836954116821,0.7060177326202393,-0.0936961993575096
1631290408199,-0.0002450064930599,0.4571851193904876,0.6665471196174622,-0.0442477315664291
1631290408293,-0.002416823990643,0.3962166309356689,0.6088082194328308,-0.0032767567317932
1631290408610,-0.001641028560698,0.3380270004272461,0.5578961968421936,0.0193983428180217
1631290408650,-0.0077939168550074,0.3002066910266876,0.529240071773529,0.0262255445122718
1631290408692,-0.0203381609171628,0.2831073701381683,0.5183777809143066,0.0264847856014966
1631290408736,-0.0333427637815475,0.2740262150764465,0.5122056603431702,0.025710018351674
1631290408840,-0.0440944135189056,0.2590550780296325,0.5036637187004089,0.0222471021115779
1631290409048,-0.053412839770317,0.2292313873767852,0.4907260239124298,0.0151989944279193
1631290409142,-0.0633832737803459,0.1827885210514068,0.4718199372291565,0.0076612080447375
1631290409312,-0.1240803673863411,0.1276289224624633,0.4460324645042419,0.0260346718132495
1631290409450,-0.1621850878000259,0.0738523453474044,0.4018079340457916,0.065904289484024
1631290409496,-0.1717923432588577,0.0277901981025934,0.3200163841247558,0.1122030690312385
1631290409725,-0.1504021435976028,-0.0090298717841506,0.1893415451049804,0.1287623047828674
1631290409890,-0.1381576955318451,-0.0323128663003444,0.0353870950639247,0.1413441002368927
1631290410127,-0.1265978068113327,-0.0313226319849491,-0.0242254510521888,0.145810067653656
1631290410175,-0.124926671385765,0.0128568829968571,0.1377537250518798,0.1405716240406036
1631290410223,-0.1360989362001419,0.0955371856689453,0.3850722312927246,0.1302355825901031
1631290410273,-0.153029516339302,0.1854037940502166,0.5852806568145752,0.1239426955580711
1631290410299,-0.1636644303798675,0.2528859078884125,0.7118613123893738,0.1280995011329651
1631290410351,-0.1627620458602905,0.9172178506851196,0.7383826971054077,0.1405404806137085
1631290410459,-0.1564007550477981,0.9204182028770448,0.7668510675430298,0.1581849753856659
1631290410522,-0.1496180146932602,0.9214747548103333,0.7981700897216797,0.187151163816452
1631290410760,-0.1406866610050201,0.9228423237800598,0.8439158797264099,0.2364774346351623
1631290410818,-0.1201548650860786,0.926256537437439,0.87968909740448,0.2364774346351623
1631290410839,-0.1201548650860786,0.9338476061820984,0.91913241147995,0.2364774346351623
1631290410925,-0.1201548650860786,0.9458480477333068,0.9623542428016664,0.2364774346351623
1631290410947,-0.1201548650860786,0.9595959186553956,1.0096471309661863,0.2364774346351623
1631290411036,-0.1201548650860786,0.9723131656646729,1.0618953704833984,0.2364774346351623
1631290411092,-0.1201548650860786,0.9989944696426392,1.1197891235351562,0.2364774346351623
1631290411242,-0.1201548650860786,1.02708101272583,1.1795694828033447,0.2364774346351623
1631290411409,-0.1201548650860786,1.0540082454681396,1.2236677408218384,0.2364774346351623
1631290411440,-0.1201548650860786,1.077723741531372,1.2236677408218384,0.2364774346351623
1631290411576,-0.1201548650860786,1.1831837892532349,1.2236677408218384,0.2364774346351623
1631290411608,-0.1201548650860786,1.2753119468688965,1.2236677408218384,0.2364774346351623
1631290411670,-0.1201548650860786,1.0388669967651367,1.2236677408218384,0.2364774346351623
1631290411823,-0.1201548650860786,1.078278422355652,1.2236677408218384,0.2364774346351623
1631290411964,-0.1201548650860786,1.1257280111312866,0.7034503221511841,0.2364774346351623
1631290412011,-0.1201548650860786,1.1337124109268188,0.5365789532661438,0.2364774346351623
1631290412144,-0.1201548650860786,1.1313482522964478,0.4982379972934723,0.2364774346351623
1631290412312,-0.1201548650860786,1.122432827949524,0.4536813497543335,0.2364774346351623
1631290412456,-0.1201548650860786,1.1072490215301514,0.40671506524086,0.2364774346351623
1631290412489,-0.1201548650860786,1.0878174304962158,0.3631309270858764,0.2364774346351623
1631290412519,-0.1201548650860786,1.067312240600586,0.3236720860004425,0.2364774346351623
1631290412596,-0.1201548650860786,1.018231749534607,0.2910221815109253,0.2364774346351623
1631290412715,0.2974559366703033,0.974896252155304,0.2757002115249634,0.1299044340848922
1631290412988,0.2548592984676361,0.9388386011123656,0.2960566282272339,0.2226174473762512
1631290413057,0.2083919793367386,0.9114019274711608,0.350299209356308,0.3378002941608429
1631290413254,0.1695596575736999,0.6948012709617615,0.4115769863128662,0.4325360059738159
1631290413298,0.1695596575736999,0.1869149208068847,0.4608880281448364,0.4325360059738159
1631290413343,0.1695596575736999,0.1869149208068847,0.4730375707149505,0.4325360059738159
1631290413556,0.1695596575736999,0.1869149208068847,0.4853664636611938,0.4325360059738159
1631290413593,0.1695596575736999,0.2926374077796936,0.4932591915130615,0.4325360059738159
1631290413645,0.1695596575736999,0.405891865491867,0.4948872625827789,0.4325360059738159
1631290413681,0.1695596575736999,0.4253212809562683,0.4932346940040588,0.4325360059738159
1631290413822,0.1695596575736999,0.4817686378955841,0.500059187412262,0.4325360059738159
1631290413828,0.1695596575736999,0.4517175555229187,0.49431312084198,0.4325360059738159
1631290413918,0.1171605959534645,0.5172326564788818,0.5137894749641418,0.4597963392734527
1631290414019,0.0659670233726501,0.5434021949768066,0.5487152934074402,0.5116496682167053
1631290414159,-0.0063011576421558,0.5881363153457642,0.6157987713813782,0.5785776972770691
1631290414360,-0.0063011576421558,0.7077173590660095,0.766517698764801,0.5785776972770691
1631290414375,-0.0063011576421558,0.6506292223930359,0.6994072794914246,0.5785776972770691
1631290414446,-0.0063011576421558,0.7385096549987793,0.7688729166984558,0.5785776972770691
1631290414577,-0.0063011576421558,0.7396273016929626,0.762455940246582,0.5785776972770691
1631290414691,-0.0063011576421558,0.7199453711509705,0.7349816560745239,0.5785776972770691
1631290414780,-0.0063011576421558,0.6795616745948792,0.7027279734611511,0.5814298391342163
1631290414947,-0.0063011576421558,0.6416766047477722,0.6764330863952637,0.4990434646606445
1631290415258,-0.0063011576421558,0.5777072906494141,0.6572313904762268,0.4315290749073028
1631290415477,-0.0063011576421558,0.4565531313419342,0.6448323726654053,0.3797831833362579
1631290415761,-0.0063011576421558,0.4251024127006531,0.6392667889595032,0.3452985882759094
1631290415834,-0.0063011576421558,0.3953731954097748,0.638018786907196,0.3262921869754791
1631290415872,-0.0063011576421558,0.3683550357818603,0.6369994282722473,0.3166129291057586
1631290415932,-0.422058641910553,0.3464936316013336,0.6291118264198303,0.3082975149154663
1631290415967,-0.3326137363910675,0.3271336555480957,0.5985296964645386,0.2961699366569519
1631290416027,0.8166715502738953,0.6192574501037598,0.7663207054138184,0.6620871424674988
1631290416082,0.7598413825035095,0.5865366458892822,0.680355429649353,1.1812655925750732
1631290416207,0.7176292538642883,0.54461270570755,0.567015528678894,1.152188062667847
1631290416243,0.7176292538642883,0.5132931470870972,0.567015528678894,1.1394686698913574
1631290416435,0.7176292538642883,0.5083217024803162,0.567015528678894,1.1306207180023191
1631290416527,0.7176292538642883,0.5235852003097534,0.5773778557777405,1.1273367404937744
1631290416621,0.7176292538642883,0.542589008808136,0.6031741499900818,1.1286664009094238
1631290416700,0.7176292538642883,0.5567715167999268,0.6346903443336487,1.1320830583572388
1631290416764,0.7176292538642883,0.7746521234512329,0.6713244318962097,1.1351325511932373
1631290416820,0.7176292538642883,0.8166535496711731,0.7128075361251831,1.158993124961853
1631290416855,0.7729875445365906,0.8915696144104004,0.7593116760253906,1.1870781183242798
1631290416912,0.836810827255249,0.8932573199272156,0.8124295473098755,1.216509461402893
1631290416948,0.9118938446044922,0.8941277265548706,0.8147266507148743,1.247905135154724
1631290417026,0.9313874840736388,0.8935686349868774,0.818630039691925,1.2520177364349363
1631290417116,0.95766019821167,0.8911544680595398,0.8233870267868042,1.2563090324401855
1631290417187,0.3806308507919311,0.7405553460121155,0.0731299817562103,1.1845622062683103
1631290417250,0.4453994035720825,0.7342778444290161,0.0659366771578788,0.4385628402233124
1631290417475,0.4538658857345581,0.7274930477142334,0.0172200184315443,0.4529950618743896
1631290417515,0.4102672338485718,0.7178141474723816,-0.0205725245177745,0.4673274159431457
1631290417589,0.4233387112617492,0.7107267379760742,0.0033271047286689,0.5012658834457397
1631290417935,0.3978821635246277,0.694858729839325,-0.0284622609615325,0.5170500874519348
1631290417994,0.3790133595466614,0.6813526153564453,-0.0569202490150928,0.5303856730461121
1631290418041,0.3643402755260467,0.672062873840332,-0.0822324678301811,0.5433449149131775
1631290418081,0.352008044719696,0.3723342418670654,-0.1061406284570694,0.5571357011795044
1631290418122,0.3383689522743225,0.2412512898445129,-0.129323273897171,0.4481761455535888
1631290418263,0.3213806450366974,-0.3087086677551269,-0.1469516903162002,0.4341102242469787
1631290418309,0.3009906113147735,-0.3542302548885345,-0.1533389687538147,0.4147566854953766
1631290418547,0.2806859612464905,-0.3927707374095917,-0.1847845613956451,0.3962886929512024
1631290418610,0.2540871798992157,-0.4226366877555847,-0.2177597135305404,0.3632339537143707
1631290418776,0.2138972878456115,-0.4406045079231262,-0.2562127709388733,0.3266386091709137
1631290418793,0.1725118160247802,-0.4494953453540802,-0.292074590921402,0.2907768189907074
1631290418899,0.1478341072797775,-0.4547871053218841,-0.3149734139442444,0.264984667301178
1631290419041,0.1489659547805786,-0.4553298056125641,-0.3194778561592102,0.2523291707038879
1631290419159,0.1667069792747497,-0.4451435208320617,-0.2971598207950592,0.2431612163782119
1631290419219,0.1302633285522461,-0.5327336192131042,-0.2898837029933929,0.2118620425462722
1631290419259,0.1279407739639282,-0.4782975316047668,-0.1867162883281707,0.1909843534231186
1631290419305,0.1224997490644455,-0.317941814661026,-0.0506102330982685,0.1536360383033752
1631290419650,0.1041743084788322,0.2642923295497894,0.1488515138626098,0.0225535649806261
1631290419655,0.1143116131424903,-0.0256890747696161,0.1253494024276733,0.0968508645892143
1631290419787,0.0986888334155082,0.4792043268680572,0.1754080802202224,-0.0513732321560382
1631290419959,0.1056620702147483,0.6178867816925049,0.2027688175439834,-0.1001711711287498
1631290420024,0.1304917931556701,0.647193431854248,0.227736085653305,-0.1214001476764679
1631290420137,0.1675048470497131,0.6789687871932983,0.2508817911148071,-0.1429579555988311
1631290420219,0.2081122100353241,0.7133045792579651,0.2779956459999084,-0.1682843565940857
1631290420303,0.2418157458305359,0.820063591003418,0.3160661160945892,-0.1705493777990341
1631290420343,0.2418157458305359,0.9181093573570251,0.367216020822525,-0.1705493777990341
1631290420400,0.2418157458305359,1.0017300844192505,0.4283868670463562,-0.1705493777990341
1631290420445,0.2418157458305359,1.0613771677017212,0.4966706335544586,-0.1705493777990341
1631290420572,0.2418157458305359,1.0938947200775146,0.5704885125160217,-0.1705493777990341
1631290420759,0.2418157458305359,1.1051515340805054,0.5704885125160217,-0.1705493777990341
1631290421009,0.2418157458305359,1.1057968139648438,0.5704885125160217,-0.1705493777990341
1631290421144,0.2418157458305359,1.0996017456054688,0.5704885125160217,-0.1705493777990341
1631290421392,0.2418157458305359,1.0801128149032593,0.5704885125160217,-0.1705493777990341
1631290421458,0.2418157458305359,1.0402765274047852,0.5704885125160217,-0.1705493777990341
1631290421524,0.2418157458305359,0.9820153713226318,-0.2279569953680038,-0.1705493777990341
1631290421732,0.2418157458305359,0.917592465877533,-0.1914395540952682,-0.1705493777990341
1631290421877,0.2418157458305359,0.8790814876556396,0.1277311146259308,-0.1705493777990341
1631290421893,0.2418157458305359,0.906565248966217,0.1579696983098983,-0.1705493777990341
1631290422007,0.41704061627388,0.8544965982437134,0.094165489077568,-0.051726933568716
1631290422094,0.3861925303936004,0.7846750020980835,0.0572203956544399,-0.0224734786897897
1631290422111,0.3554291725158691,0.6845062971115112,0.0213638748973608,0.0034710739273577
1631290422190,0.3554291725158691,0.5569592714309692,0.7187177538871765,0.0034710739273577
1631290422209,0.3554291725158691,0.4006516635417938,0.6936267018318176,0.0034710739273577
1631290422255,0.3554291725158691,0.2916179895401001,0.693939745426178,0.0034710739273577
1631290422475,0.3554291725158691,0.2938840985298157,0.693939745426178,0.0034710739273577
1631290422557,0.3554291725158691,0.36083984375,0.693939745426178,0.0034710739273577
1631290422584,0.3554291725158691,0.8111890554428101,0.7243919372558594,0.0034710739273577
1631290422675,0.3554291725158691,0.8251088857650757,0.7590449452400208,0.0034710739273577
1631290422794,0.3554291725158691,0.8274574279785156,0.7966315150260925,0.0034710739273577
1631290422828,0.3554291725158691,0.823520839214325,0.8097533583641052,0.0034710739273577
1631290423203,0.3825235664844513,0.8190352916717529,0.8158469200134277,0.0139110926538705
1631290423250,0.1873675286769867,0.8359703421592712,0.8493833541870117,0.0336457788944244
1631290423369,0.1873675286769867,0.8329740762710571,0.8527579307556152,0.0336457788944244
1631290423490,0.1873675286769867,0.8292009830474854,0.8553959131240845,0.0336457788944244
1631290423824,0.1873675286769867,0.8248287439346313,0.8578210473060608,0.0336457788944244
1631290423857,0.1873675286769867,0.8804293274879456,0.6237308382987976,0.0336457788944244
1631290423859,0.1873675286769867,0.8205429315567017,0.8609204888343811,0.0336457788944244
1631290423933,0.1873675286769867,0.8754264712333679,0.6195819973945618,0.0336457788944244
1631290424124,0.1873675286769867,0.8503345251083374,0.5539770126342773,0.0336457788944244
1631290424152,0.1873675286769867,0.8661903738975525,0.5807137489318848,0.0336457788944244
1631290424181,0.1873675286769867,1.0156445503234863,0.5290161371231079,0.0336457788944244
1631290424337,0.1873675286769867,0.7953832745552063,0.5076281428337097,0.0336457788944244
1631290424474,0.1873675286769867,0.7829370498657227,0.4919451475143432,0.0336457788944244
1631290424613,0.8599061369895935,0.7795986533164978,0.4819595515727997,0.0336457788944244
1631290424720,0.8599061369895935,0.7809018492698669,0.4783390164375305,0.0336457788944244
1631290424907,0.8599061369895935,0.7387120723724365,0.4121804237365722,0.0336457788944244
1631290424907,0.8599061369895935,0.7825364470481873,0.4852627217769623,0.0336457788944244
1631290424960,0.8599061369895935,0.7442171573638916,0.4648348391056061,0.0336457788944244
1631290425004,0.8599061369895935,1.0078182220458984,0.6397387981414795,0.0336457788944244
1631290425042,0.8599061369895935,1.0142951011657717,0.7017173171043396,0.0336457788944244
1631290425082,0.8599061369895935,1.0339059829711914,0.7468006610870361,0.0336457788944244
1631290425116,0.8599061369895935,0.9896112084388732,0.6875230073928833,0.0336457788944244
1631290425182,0.8599061369895935,0.9958462119102478,0.7070850729942322,0.0336457788944244
1631290425257,0.8599061369895935,1.0781365633010864,0.7362291216850281,0.0336457788944244
1631290425294,0.8599061369895935,1.0926876068115234,0.7773096561431885,0.0336457788944244
1631290425377,0.8599061369895935,0.962896466255188,0.8175809383392334,0.0336457788944244
1631290425474,0.8599061369895935,0.9808878302574158,0.846513032913208,0.0336457788944244
1631290425791,0.8599061369895935,1.000023603439331,0.8651189208030701,0.0336457788944244
1631290426023,0.8599061369895935,1.022071361541748,0.878741443157196,0.0336457788944244
1631290426061,0.8599061369895935,1.093746781349182,0.889263927936554,0.0336457788944244
1631290426238,0.8599061369895935,1.106741189956665,0.8938943147659302,0.0336457788944244
1631290426290,0.8599061369895935,1.1315958499908447,0.8887531757354736,0.0336457788944244
1631290426379,0.8599061369895935,1.1306918859481812,0.8944572806358337,0.0336457788944244
1631290426459,0.8599061369895935,0.9492986798286438,0.8261989951133728,0.0336457788944244
1631290426476,0.8599061369895935,0.9464962482452391,0.8036569952964783,0.0336457788944244
1631290426580,0.8599061369895935,0.9414560198783876,0.7890541553497314,0.0336457788944244
1631290426582,0.8599061369895935,0.9329174160957336,0.7869188785552979,0.0336457788944244
1631290426691,0.8599061369895935,0.8390173316001892,0.7969915270805359,0.0336457788944244
1631290426692,0.8599061369895935,0.945132315158844,0.8005019426345825,0.0336457788944244
1631290427024,0.8599061369895935,0.8394401669502258,0.7646438479423523,0.0336457788944244
1631290427076,0.8599061369895935,0.8369557857513428,0.7104740738868713,0.0336457788944244
1631290427144,0.8599061369895935,0.8348864912986755,0.6579614281654358,0.0336457788944244
1631290427332,0.8599061369895935,0.8287907838821411,0.6158443093299866,0.0336457788944244
1631290427353,0.8599061369895935,0.8142400979995728,0.6158443093299866,0.0336457788944244
1631290427511,0.8599061369895935,0.5882173180580139,0.6158443093299866,0.0336457788944244
1631290427603,0.8599061369895935,0.5331180095672607,0.6158443093299866,0.0336457788944244
1631290427650,0.8599061369895935,0.3686032891273498,0.6158443093299866,0.0336457788944244
1631290427712,0.8599061369895935,0.3694997131824493,0.6158443093299866,0.0336457788944244
1631290427742,0.8599061369895935,0.3716428577899933,0.6158443093299866,0.0336457788944244
1631290427794,0.8599061369895935,0.3509050011634826,0.6158443093299866,0.0336457788944244
1631290427893,0.8599061369895935,0.3094775378704071,0.6158443093299866,0.0336457788944244
1631290428058,0.8599061369895935,0.2785894870758056,0.6158443093299866,0.0336457788944244
1631290428182,0.8599061369895935,0.2949055731296539,0.6158443093299866,0.0336457788944244
1631290428234,0.8599061369895935,0.332564502954483,0.6158443093299866,0.0336457788944244
1631290428314,0.8599061369895935,0.3568888306617737,0.6158443093299866,0.0336457788944244
1631290428467,0.8599061369895935,0.3542838096618652,0.5999965071678162,0.0336457788944244
1631290428501,0.8599061369895935,0.3371108472347259,0.5450131893157959,0.0336457788944244
1631290428693,0.8599061369895935,0.3145674169063568,0.4855437576770782,0.0336457788944244
1631290428743,0.8599061369895935,0.2896402180194855,0.4293233156204223,0.0336457788944244
1631290428777,0.8599061369895935,0.2501213550567627,0.379302442073822,0.0336457788944244
1631290428861,0.8599061369895935,0.2236211895942688,0.3355835676193237,0.0336457788944244
1631290429023,0.8599061369895935,0.186712697148323,0.263451337814331,0.0336457788944244
1631290429029,0.8599061369895935,0.2027655094861984,0.2971999645233154,0.0336457788944244
1631290429310,-0.1393495351076126,0.1782392859458923,0.2330515682697296,0.0473636724054813
1631290429359,-0.1786857396364212,0.1743500828742981,0.2047079801559448,0.026831516996026
1631290429390,-0.2171396762132644,0.15778349339962,0.1604152172803878,0.0228062365204095
1631290429557,-0.2367828786373138,0.1066647469997406,0.0448687002062797,0.0299383383244276
1631290429592,-0.2114805430173874,0.0082499794661998,0.0175469908863306,0.0492515005171299
1631290429674,-0.1569843590259552,-0.1274620294570922,-0.0058465180918574,0.0779673308134079
1631290429899,-0.1066743656992912,-0.2620534598827362,-0.2060699760913849,0.101662591099739
1631290429960,-0.0820643305778503,-0.3475681841373443,-0.383109450340271,0.1119163036346435
1631290430153,-0.0800928026437759,-0.3764192759990692,-0.4878820776939392,0.1246239393949508
1631290430370,-0.0856057554483413,-0.3748956620693207,-0.5288220047950745,0.1733876764774322
1631290430396,-0.0833493694663047,-0.3575046956539154,-0.5218059420585632,0.2586482465267181
1631290430442,-0.066859483718872,-0.3315061032772064,-0.4919956028461456,0.3449295461177826
1631290430685,-0.0353608094155788,-0.3005683720111847,-0.456749677658081,0.4160797297954559
1631290430767,0.0032517223153263,-0.2669836580753326,-0.4238659739494324,0.4538804888725281
1631290430829,0.0609058924019336,-0.2171389758586883,-0.36281219124794,0.4965346753597259
1631290430840,0.0459266789257526,-0.2369898408651352,-0.3964118361473083,0.4732222259044647
1631290430908,0.0818545594811439,-0.1993526369333267,-0.2498429417610168,0.5220653414726257
1631290431018,0.1075082868337631,-0.1592601388692855,-0.0010924865491688,0.548783540725708
1631290431065,0.1333000063896179,-0.0855941101908683,0.2764106094837188,0.5768505930900574
1631290431228,0.1490290015935897,-0.0020231050439178,0.4875770211219787,0.6054620146751404
1631290431316,0.1509247869253158,0.0612455122172832,0.6167600154876709,0.6344010233879089
1631290431439,0.1456493139266967,0.0919570252299308,0.6787444353103638,0.6682029962539673
1631290431549,0.1507032513618469,0.09744843095541,0.6990352869033813,0.7133560180664062
1631290431577,0.17757348716259,0.0927264019846916,0.703640341758728,0.7672359943389893
1631290431658,0.2219640612602234,0.09021507948637,0.7072431445121765,0.8106494545936584
1631290431808,0.2703626155853271,0.0944932848215103,0.7119356989860535,0.8106494545936584
1631290431868,0.2703626155853271,0.1029920727014541,0.7161737084388733,0.8106494545936584
1631290432054,0.2703626155853271,0.1097600683569908,0.7182128429412842,0.8106494545936584
1631290432184,0.2703626155853271,0.1107169240713119,0.7176572680473328,0.8106494545936584
1631290432322,0.2703626155853271,0.1062254458665847,0.7153007984161377,0.8106494545936584
1631290432431,0.1000353917479515,0.0990841910243034,0.7116090059280396,0.2684792578220367
1631290432555,0.1435295641422271,0.0869866609573364,0.6999455094337463,0.2308655828237533
1631290432674,0.1760654300451278,0.0595648847520351,0.6607322692871094,0.1976138800382614
1631290432847,0.1863435208797454,0.0064897118136286,0.5676445960998535,0.1770125925540924
1631290432919,0.1791443675756454,-0.0688558742403984,0.4010889232158661,0.1862030923366546
1631290432982,0.1660701930522918,-0.1412414312362671,0.161801666021347,0.2229077219963073
1631290433137,0.159880444407463,-0.1760977059602737,-0.0926530882716178,0.2656519711017608
1631290433210,0.1666297912597656,-0.1704702973365783,-0.2449191063642501,0.2933575510978699
1631290433271,0.1801074296236038,-0.1544267833232879,-0.2947951853275299,0.2989413142204284
1631290433333,0.190727412700653,-0.1511363536119461,-0.3391819894313812,0.285973310470581
1631290433431,0.1948259323835373,-0.1653281897306442,-0.4041394591331482,0.262982964515686
1631290433702,0.1956428587436676,-0.1894074082374572,-0.4778096973896026,0.2384598106145858
1631290433773,0.2048878669738769,-0.2071447074413299,-0.5284609794616699,0.2035553455352783
1631290433821,0.2171434611082077,-0.2076801508665084,-0.5298786163330078,0.1832239478826522
1631290433857,0.2318654805421829,-0.1948169022798538,-0.4803886711597442,0.181550070643425
1631290434091,0.2624928653240204,-0.1784654855728149,-0.3926635682582855,0.2168239802122116
1631290434155,0.3359651267528534,-0.1605581641197204,-0.2826424241065979,0.3184551000595093
1631290434213,0.4482257068157196,-0.1381225734949112,-0.1771084815263748,0.462649255990982
1631290434412,0.5591352581977844,-0.1121937111020088,-0.0981666073203086,0.5938946604728699
1631290434467,0.6376041173934937,-0.0833005458116531,-0.0442857928574085,0.6831116080284119
1631290434579,0.6943619251251221,0.0148662189021706,0.0954125598073005,0.7550746202468872
1631290434579,0.6786927580833435,-0.0462157949805259,0.0069430083967745,0.7313330173492432
1631290434706,0.6987813711166382,0.0976187512278556,0.2201637029647827,0.7712875604629517
1631290434785,0.6997656226158142,0.1769614964723587,0.3374857008457184,0.7859579920768738
1631290434843,0.6994973421096802,0.2332721799612045,0.3638682663440704,0.797487735748291
1631290434907,0.6995278000831604,0.2650686800479889,0.3905510008335113,0.8041275143623352
1631290435058,0.7088966369628906,0.2938115000724792,0.4184101819992065,0.8082261681556702
1631290435236,0.7414827346801758,0.3431705236434936,0.4484386742115021,0.814165472984314
1631290435274,0.7963161468505859,0.4103323519229889,0.4808648824691772,0.8236401677131653
1631290435607,0.852160632610321,0.4718644320964813,0.5145192742347717,0.8330119848251343
1631290435758,0.8856053352355957,0.5101307034492493,0.546325147151947,0.8327235579490662
1631290435890,0.8854960799217224,0.5231852531433105,0.5732483863830566,0.8089303970336914
1631290435954,0.8541187644004822,0.5205368399620056,0.5500055551528931,0.752363383769989
1631290436264,0.8040323257446289,0.5121263265609741,0.5173606872558594,0.66572105884552
1631290436409,1.033347249031067,0.92538183927536,0.4880853295326233,0.5649852156639099
1631290436492,1.015658259391785,0.919442355632782,0.4523594081401825,0.4711773097515106
1631290436521,1.0097092390060425,0.9135867953300476,0.3997395932674408,0.4024637043476105
1631290436604,1.0140165090560913,0.913023829460144,0.2110378146171569,0.3288010060787201
1631290436805,1.0096158981323242,0.8980600833892822,-0.2638307511806488,0.2588555514812469
1631290436927,1.0542064905166626,0.9438524842262268,0.3887467086315155,0.4301202297210693
1631290437072,1.0536080598831177,0.9377903938293456,0.3600768148899078,0.4136963784694671
1631290437107,1.232818603515625,1.165843844413757,1.0479587316513062,0.4055625200271606
1631290437174,1.2239797115325928,1.1602942943572998,1.0154575109481812,0.9491453766822816
1631290437347,1.3396378755569458,1.3037142753601074,1.097356200218201,1.045030117034912
1631290437414,1.320407152175903,1.2942063808441162,1.0643398761749268,1.1052250862121582
1631290437547,1.3046598434448242,1.287131428718567,1.033712387084961,1.1016160249710083
1631290437568,1.3092474937438965,1.2981839179992676,1.029279708862305,1.3343522548675537
1631290437592,1.3123812675476074,1.3039344549179075,1.0279202461242676,1.6131131649017334
1631290437662,1.3390544652938845,1.423084020614624,1.028424620628357,1.6423113346099854
1631290437711,1.2422316074371338,1.3773629665374756,1.128878116607666,1.673925280570984
1631290437749,1.274876356124878,1.509113311767578,1.158442497253418,1.708302617073059
1631290437944,1.3092451095581057,1.5236331224441528,1.1877834796905518,1.745067477226257
1631290437984,1.3873664140701294,1.528355360031128,1.242768168449402,1.8314568996429443
1631290437985,1.3428552150726318,1.528152585029602,1.2222522497177124,1.7860950231552124
1631290438191,1.400215983390808,1.514115810394287,1.2270605564117432,1.870451092720032
1631290438476,1.4548932313919067,1.5433895587921145,1.2946794033050537,1.9280855655670168
1631290438488,1.2616034746170044,1.4697023630142212,1.090567111968994,1.9946603775024412
1631290438527,1.3306797742843628,1.5665152072906494,1.1787208318710327,1.996090292930603
1631290438542,0.6394931077957153,1.49765145778656,1.0848010778427124,2.0601847171783447
1631290438566,0.6394931077957153,1.5450232028961182,1.2257623672485352,2.0601847171783447
1631290438676,0.6394931077957153,1.6126857995986938,1.2077444791793823,2.0601847171783447
1631290438679,0.6394931077957153,1.546316146850586,1.2274974584579468,2.0601847171783447
1631290438695,0.6394931077957153,1.6153647899627686,1.2081239223480225,2.0601847171783447
1631290438777,0.6394931077957153,1.5399599075317385,1.2073798179626465,2.0601847171783447
1631290438830,0.6394931077957153,1.5063308477401731,1.102687954902649,2.0601847171783447
1631290438995,0.6394931077957153,1.3737746477127075,1.0693601369857788,2.0601847171783447
1631290439078,0.4386413693428039,1.3533611297607422,1.0381200313568115,2.0601847171783447
1631290439122,0.4156776964664459,1.341986060142517,1.0086876153945925,1.046861171722412
1631290439196,0.3862447738647461,1.3421154022216797,0.9797581434249878,0.9617374539375304
1631290439325,0.3518898487091064,1.3423970937728882,0.95433109998703,0.8928157687187195
1631290439534,1.204876184463501,1.5172196626663208,1.042092204093933,1.820797085762024
1631290439769,1.204876184463501,1.5560829639434814,1.0369738340377808,1.820797085762024
1631290439842,1.204876184463501,1.4556715488433838,0.932997465133667,1.820797085762024
1631290439871,1.204876184463501,1.4459922313690186,0.9364953637123108,1.820797085762024
1631290440125,1.204876184463501,1.3872417211532593,0.7151225805282593,1.820797085762024
1631290440203,1.2509515285491943,1.3882521390914917,0.7555307149887085,1.820797085762024
1631290440352,1.2509515285491943,1.2536760568618774,0.812856912612915,1.820797085762024
1631290440408,1.2509515285491943,1.2567470073699951,0.8717857599258423,1.820797085762024
1631290440458,1.2509515285491943,1.2590835094451904,0.8997843265533447,1.820797085762024
1631290440668,1.3115065097808838,1.261141061782837,0.9297215938568116,1.8859355449676516
1631290440773,1.3835248947143557,1.2628566026687622,0.9625042080879213,1.9635462760925293
1631290440965,1.4670180082321167,1.261983871459961,0.9989805221557616,2.058197259902954
1631290441273,1.4670180082321167,1.2909940481185913,1.039632797241211,2.058197259902954
1631290441343,1.4670180082321167,1.3218953609466553,1.0848517417907717,2.058197259902954
1631290441522,1.4670180082321167,1.355346918106079,1.1353228092193604,2.058197259902954
1631290441535,1.4670180082321167,0.8260731101036072,0.7970447540283203,2.058197259902954
1631290441578,1.4670180082321167,0.2367644906044006,0.8597437143325806,2.058197259902954
1631290441652,1.4670180082321167,0.2733293175697326,0.9308197498321532,2.058197259902954
1631290441701,1.4670180082321167,0.3062580525875091,1.1573703289031982,2.058197259902954
1631290441741,1.4670180082321167,0.3187519311904907,1.224328875541687,2.058197259902954
1631290441857,1.4670180082321167,0.3001545667648315,1.224328875541687,2.058197259902954
1631290441921,1.4670180082321167,0.2528423964977264,1.224328875541687,2.058197259902954
1631290441964,1.4670180082321167,0.1938067525625229,1.224328875541687,2.058197259902954
1631290442117,1.4670180082321167,0.0393827781081199,1.224328875541687,2.058197259902954
1631290442193,1.4670180082321167,-0.1263388395309448,0.9114418625831604,2.058197259902954
1631290442305,1.4670180082321167,1.3395651578903198,0.8228920698165894,2.058197259902954
1631290442378,1.4670180082321167,1.336504578590393,0.7512081861495972,2.058197259902954
1631290442480,1.4670180082321167,1.336504578590393,0.6905514597892761,2.058197259902954
1631290442620,2.284050941467285,1.6215972900390625,1.1642603874206543,1.7057353258132937
1631290442655,2.1965298652648926,1.574894905090332,1.115116000175476,1.649670958518982
1631290442736,2.1176512241363525,1.5082688331604004,1.072696566581726,1.576016545295715
1631290442790,2.051255464553833,1.450684666633606,1.0362614393234253,1.5147933959960938
1631290442961,1.994047999382019,1.4000505208969116,1.003983736038208,1.4626613855361938
1631290443039,1.9437191486358645,1.3548333644866943,0.8808566331863403,1.5101357698440552
1631290443084,1.8986135721206665,1.3139086961746216,0.8503457903862,1.4679285287857056
1631290443244,1.8576164245605469,1.276544451713562,0.8209445476531982,1.525343894958496
1631290443328,1.8200364112854004,1.24229097366333,0.7928478717803955,1.4897162914276123
1631290443539,1.7853875160217283,1.2107934951782229,0.79239821434021,1.4574520587921145
1631290443625,1.7532867193222046,1.2110350131988523,0.7908036708831787,1.4289473295211792
1631290443728,1.7234289646148682,1.2109837532043457,0.7885408401489258,1.4010889530181885
1631290443824,1.720560073852539,1.0062276124954224,0.7861793041229248,1.3324458599090576
1631290443867,1.7524319887161257,1.0520222187042236,0.862296462059021,1.331565499305725
1631290443975,1.09549880027771,1.0249300003051758,0.8660064935684204,1.357336163520813
1631290444092,0.3410561680793762,0.4101959764957428,0.3227609097957611,1.1385369300842283
1631290444611,-0.1360237002372741,0.2266014963388443,0.3953423202037811,1.12170672416687
1631290444714,-0.1241024062037468,0.2731944918632507,0.4610587060451507,1.1973607540130615
1631290444982,-0.142320230603218,0.3048670589923858,0.5003679394721985,1.2517019510269165
1631290445152,-0.2075719088315963,0.3208520710468292,0.513724684715271,1.2814947366714478
1631290445185,-0.3244940936565399,0.8809611797332764,0.6995881199836731,1.1897172927856443
1631290445223,-0.4802484810352325,1.43580162525177,0.6977988481521606,1.224967360496521
1631290445259,-0.6321356296539307,1.4369263648986816,0.6966279745101929,1.0134482383728027
1631290445286,-0.6321356296539307,1.5513066053390503,1.0209434032440186,1.0559090375900269
1631290445327,-0.6321356296539307,1.551103949546814,1.0215919017791748,1.1035761833190918
1631290445393,-0.6321356296539307,1.5509092807769775,1.02282977104187,1.1547367572784424
1631290445430,-0.6321356296539307,1.5509053468704224,1.0243066549301147,1.1507165431976318
1631290445466,-0.5647141933441162,1.551124095916748,1.0257947444915771,1.465419888496399
1631290445505,1.2888047695159912,1.5383644104003906,1.1938618421554563,1.463870882987976
1631290445531,1.2109270095825195,1.884382724761963,1.192233920097351,1.5210829973220823
1631290445575,1.2109270095825195,1.926897406578064,1.230912208557129,1.5115147829055786
1631290445608,1.2109270095825195,1.9313124418258667,1.2493832111358645,1.4899053573608398
1631290445745,1.2109270095825195,1.993263363838196,1.238434076309204,1.6818926334381104
1631290445777,1.3414493799209597,2.008617639541626,1.237660527229309,1.706714153289795
1631290446002,1.3414493799209597,2.008317470550537,1.233242750167847,1.7401384115219116
1631290446281,1.3414493799209597,1.984289526939392,1.1857917308807373,1.7401384115219116
1631290446508,1.3414493799209597,1.8947726488113403,1.214642882347107,1.7401384115219116
1631290446804,1.3414493799209597,1.9228215217590328,1.2460873126983645,1.7401384115219116
1631290446886,1.3414493799209597,1.8797053098678589,1.0848428010940552,1.7401384115219116
1631290446975,1.4070465564727783,1.8836469650268557,1.1211999654769895,1.7401384115219116
1631290447025,1.4857231378555298,1.8861349821090696,1.1608169078826904,1.7401384115219116
1631290447048,1.5821534395217896,1.8879436254501345,1.2045780420303345,1.797105312347412
1631290447111,1.5821534395217896,1.9128530025482176,1.2536810636520386,1.7620036602020264
1631290447147,1.5821534395217896,1.9425714015960691,0.8548552989959717,1.838571667671204
1631290447202,1.5821534395217896,1.6600522994995115,0.9169756770133972,1.855822324752808
1631290447234,1.5821534395217896,1.596569538116455,0.6812463402748108,1.855822324752808
1631290447285,1.5821534395217896,1.6195399761199951,0.2195075750350952,1.855822324752808
1631290447319,1.5821534395217896,1.412797927856445,0.2195075750350952,1.855822324752808
1631290447369,1.5821534395217896,1.353703856468201,0.2195075750350952,1.855822324752808
1631290447422,1.5821534395217896,1.4041131734848022,0.2195075750350952,1.855822324752808
1631290447467,1.5821534395217896,1.4607712030410769,0.2195075750350952,1.855822324752808
1631290447547,1.5821534395217896,1.468215823173523,0.2195075750350952,1.855822324752808
1631290447612,1.5821534395217896,1.2856618165969849,0.2195075750350952,1.855822324752808
1631290447667,1.5821534395217896,1.3585904836654663,0.2195075750350952,1.855822324752808
1631290447701,1.5821534395217896,1.3585904836654663,0.2195075750350952,1.855822324752808
1631290447757,1.5821534395217896,1.3585904836654663,0.2195075750350952,1.855822324752808
1631290447909,1.5821534395217896,1.3585904836654663,0.2195075750350952,1.855822324752808
1631290447940,1.5821534395217896,1.3585904836654663,0.2195075750350952,1.855822324752808
1631290448145,1.5821534395217896,1.3585904836654663,0.2195075750350952,1.855822324752808
1631290448170,1.5821534395217896,1.3585904836654663,0.2195075750350952,1.855822324752808
1631290448269,1.5821534395217896,1.3585904836654663,0.2195075750350952,1.855822324752808
1631290448356,1.5821534395217896,1.3585904836654663,0.2195075750350952,1.855822324752808
1631290448440,1.5821534395217896,1.3585904836654663,0.2195075750350952,1.855822324752808
1631290448588,0.9194077253341676,1.3585904836654663,0.2195075750350952,1.855822324752808
1631290448660,0.9194077253341676,1.3585904836654663,0.2195075750350952,0.3917282223701477
1631290448762,0.9194077253341676,1.3585904836654663,0.2195075750350952,0.4882147014141083
1631290448953,0.9194077253341676,1.3585904836654663,0.2195075750350952,0.6072165966033936
1631290449075,0.9194077253341676,1.3585904836654663,0.2195075750350952,0.8452958464622498
1631290449079,0.9194077253341676,1.3585904836654663,0.2195075750350952,0.7346343398094177
1631290449197,0.9194077253341676,1.3585904836654663,0.2195075750350952,0.9237582683563232
1631290449276,0.9194077253341676,1.3585904836654663,0.2195075750350952,0.9670752882957458
1631290449409,0.9194077253341676,1.3585904836654663,0.2195075750350952,0.98091322183609
1631290449504,0.8685898184776306,1.3585904836654663,0.2195075750350952,0.9739087224006652
1631290449596,0.8168554306030273,1.3585904836654663,0.2195075750350952,0.9543836116790771
1631290449658,0.7656905651092529,0.0697465538978576,0.2195075750350952,0.9289884567260742
1631290449766,0.7476863861083984,0.0352719612419605,0.2195075750350952,0.902907371520996
1631290449911,0.7185811400413513,0.0323083847761154,0.2195075750350952,0.901597261428833
1631290450001,0.6241480112075806,-0.1027805283665657,0.2195075750350952,0.9028359651565552
1631290450091,0.3085002601146698,-0.0731057152152061,-0.1484293341636657,0.9043222665786744
1631290450158,0.301729142665863,-0.0663892552256584,-0.1658008992671966,0.9025502800941468
1631290450309,0.2920630872249603,-0.0799507275223732,-0.1970923244953155,0.8915135264396667
1631290450391,0.2855274081230163,-0.1041798591613769,-0.2377509921789169,0.8633532524108887
1631290450508,0.2838176488876343,-0.1304653435945511,-0.2795801758766174,0.8095203638076782
1631290450680,0.2838176488876343,-0.1469273865222931,-0.3118510544300079,0.7499086856842041
1631290450791,0.2838176488876343,-0.1286728978157043,-0.3056599199771881,0.6585792303085327
1631290450857,0.2838176488876343,-0.0415629893541336,-0.209587812423706,0.544457733631134
1631290450903,0.2838176488876343,0.1018935143947601,-0.0367556139826774,0.4279349446296692
1631290451162,0.2411724627017974,0.2393279820680618,0.1327221095561981,0.3371346890926361
1631290451255,0.2222749441862106,0.3509850203990936,0.2527335882186889,0.2936996221542358
1631290451309,0.22911436855793,0.4113370478153229,0.3166604340076446,0.29706671833992
1631290451338,0.244344100356102,0.4320083856582641,0.3556752800941467,0.3247877061367035
1631290451462,0.2522298395633697,0.4307096004486084,0.3696196973323822,0.3498094081878662
1631290451539,0.2479032576084137,0.422804981470108,0.3744044601917267,0.3504062592983246
1631290451600,0.2369296103715896,0.4167046546936035,0.3792896270751953,0.3114834427833557
1631290451808,0.2369296103715896,0.4174772202968597,0.3872709572315216,0.3114834427833557
1631290451828,0.2369296103715896,0.4247333109378814,0.3958501815795898,0.3114834427833557
1631290451939,0.2369296103715896,0.4345212578773498,0.4016892313957214,0.3114834427833557
1631290452019,0.2369296103715896,0.4427760243415832,0.4041358530521393,0.3114834427833557
1631290452125,0.2369296103715896,0.4465694725513458,0.4046304821968078,0.3114834427833557
1631290452266,-0.1546208560466766,0.4409742355346679,0.4011044204235077,-0.0183862075209617
1631290452391,-0.0641675367951393,0.4132995903491974,0.3827660083770752,0.0201278999447822
1631290452438,-0.0159991551190614,0.3448590040206909,0.3321012258529663,0.040573850274086
1631290452493,0.0009130593389272,0.2232287526130676,0.2358876019716262,0.0535151921212673
1631290452731,-0.0003093104751314,0.0574117600917816,0.0938898026943206,0.0638664066791534
1631290452792,-0.0088057545945048,-0.1066371202468872,-0.0686969608068466,0.0682576596736908
1631290452883,-0.0213356018066406,-0.200356587767601,-0.2041343003511428,0.0630785450339317
1631290453012,-0.0394406840205192,-0.2191040962934494,-0.2823469936847687,0.0477460660040378
1631290453055,-0.0608547590672969,-0.2178934812545776,-0.331382006406784,0.0282923802733421
1631290453136,-0.0750192105770111,-0.2270412594079971,-0.3835699558258056,0.0176929738372564
1631290453223,-0.0688906535506248,-0.2535887062549591,-0.4425351321697235,0.0272910520434379
1631290453327,-0.0422829501330852,-0.2874932885169983,-0.4760917723178863,0.0568155869841575
1631290453484,0.0079009002074599,-0.3028914928436279,-0.4486497342586517,0.1054781526327133
1631290453566,0.050914391875267,-0.2564835846424103,-0.3388902544975281,0.1415978819131851
1631290453618,0.0792593508958816,-0.1258693039417266,-0.157009094953537,0.1616007089614868
1631290453836,0.1002712994813919,0.0396684743463993,0.0354887209832668,0.1758975237607956
1631290453912,0.0940283238887786,0.1789243072271347,0.1882286816835403,0.1778861731290817
1631290453963,0.0878498926758766,0.2717650830745697,0.2937387824058532,0.1813287436962127
1631290454045,0.0876265168190002,0.3392901718616485,0.320496141910553,0.1857828348875045
1631290454178,0.0954289957880973,0.3656721413135528,0.3496292233467102,0.1905045807361602
1631290454258,0.1098531708121299,0.393697053194046,0.3809178471565246,0.1984485536813736
1631290454400,0.1312939673662185,0.4239300489425659,0.4148751199245453,0.2148715853691101
1631290454561,0.1633271425962448,0.4568474292755127,0.4522668719291687,0.244457796216011
1631290454593,0.2066902667284011,0.4931903481483459,0.4941241145133972,0.2857624590396881
1631290454639,0.2536546289920807,0.5336005091667175,0.5407067537307739,0.3285021185874939
1631290454767,0.2900829613208771,0.5779252052307129,0.591605007648468,0.3585503101348877
1631290454957,0.3058378100395202,0.5959348082542419,0.6374573111534119,0.3630321025848388
1631290454958,0.3058378100395202,0.590344250202179,0.6468721032142639,0.3630321025848388
1631290455123,0.3058378100395202,0.5879665017127991,0.619597852230072,0.3630321025848388
1631290455245,0.3058378100395202,0.5585216283798218,0.5800613164901733,0.3630321025848388
1631290455329,0.3058378100395202,0.5207056999206543,0.5204997062683105,0.3630321025848388
1631290455492,0.3058378100395202,0.511720597743988,0.4774097800254822,0.3630321025848388
1631290455627,0.3058378100395202,0.5461922883987427,0.4813171327114105,0.3630321025848388
1631290455720,1.2287495136260986,0.5788372159004211,0.5471651554107666,0.3630321025848388
1631290455766,1.257925510406494,0.588648796081543,0.5624297261238098,0.3630321025848388
1631290455810,1.2430490255355835,0.5662814974784851,0.5441659092903137,0.3630321025848388
1631290455857,1.205410361289978,0.5318799018859863,0.5142720341682434,0.3630321025848388
1631290456059,1.1608572006225586,0.4980182945728302,0.4853146374225616,0.3630321025848388
1631290456112,1.116048812866211,0.4699587523937225,0.4614075422286987,0.3630321025848388
1631290456182,1.0741806030273438,0.4540334343910217,0.4520966112613678,0.3630321025848388
1631290456328,1.0365108251571655,0.4602387249469757,0.4747992753982544,0.3630321025848388
1631290456408,1.0365108251571655,0.5031338334083557,0.5250449180603027,0.3630321025848388
1631290456528,1.0365108251571655,0.5565962195396423,0.601100742816925,0.3630321025848388
1631290456618,1.0365108251571655,0.6099655032157898,0.6590389609336853,0.3630321025848388
1631290456777,1.0365108251571655,0.6616914868354797,0.7065727114677429,0.3630321025848388
1631290456883,1.0584559440612793,0.7077738642692566,0.7531005144119263,0.3630321025848388
1631290456977,1.0506380796432495,0.7392235398292542,0.7924909591674805,0.3630321025848388
1631290457075,0.9921621680259703,0.7497387528419495,0.8117062449455261,0.3630321025848388
1631290457176,0.87017822265625,0.7428010106086731,0.8104973435401917,0.3630321025848388
1631290457295,0.6856818795204163,0.731045126914978,0.800709068775177,0.3630321025848388
1631290457375,0.4667133390903473,0.7244858145713806,0.8200153708457947,0.3630321025848388
1631290457439,0.2621060013771057,0.7230066061019897,0.8466615676879883,0.3630321025848388
1631290457536,0.2621060013771057,0.7228121161460876,0.8768861293792725,0.3630321025848388
1631290457590,0.2621060013771057,0.7211053967475891,0.8746704459190369,0.3630321025848388
1631290457747,0.2621060013771057,0.7142523527145386,0.8679781556129456,0.3630321025848388
1631290457843,0.2621060013771057,0.6956218481063843,0.8467982411384583,0.3630321025848388
1631290457953,0.2621060013771057,0.6614624857902527,0.8049423694610596,0.3630321025848388
1631290458004,0.2621060013771057,0.6193071603775024,0.7494207620620728,0.3630321025848388
1631290458152,0.2621060013771057,0.5835297107696533,0.6995004415512085,0.3630321025848388
1631290458274,0.2621060013771057,0.5565225481987,0.658890962600708,0.3630321025848388
1631290458347,1.0398048162460327,0.5217131972312927,0.6095736622810364,0.3630321025848388
1631290458454,1.1408649682998655,0.4642636477947235,0.5380787253379822,0.3630321025848388
1631290458541,1.16371750831604,0.3916529715061188,0.459974467754364,0.3630321025848388
1631290458698,1.1414072513580322,0.3317429423332214,0.4039832055568695,0.3630321025848388
1631290458832,1.100824236869812,0.3018583953380584,0.3831603825092315,0.3630321025848388
1631290458882,1.058077335357666,0.2925311625003814,0.3607097268104553,0.3630321025848388
1631290458943,1.0180131196975708,0.2893290221691131,0.3418485224246979,0.3630321025848388
1631290459143,0.9814385771751404,0.2876151800155639,0.3249768316745758,0.3630321025848388
1631290459174,0.9814385771751404,0.2877837717533111,0.326459527015686,0.3630321025848388
1631290459198,1.0177661180496216,0.2910290658473968,0.3228777348995209,0.3630321025848388
1631290459293,1.0584945678710938,0.3036850392818451,0.3160679638385772,0.3630321025848388
1631290459442,1.0584945678710938,0.3369950950145721,0.3087625205516815,0.3630321025848388
1631290459562,1.0584945678710938,0.3866172134876251,0.2994715571403503,0.3630321025848388
1631290459682,1.0584945678710938,0.4239206612110138,0.2745341658592224,0.3630321025848388
1631290459755,1.032476544380188,0.4248997867107391,0.2140910774469375,0.3630321025848388
1631290459864,0.94418865442276,0.3891617357730865,0.1073144525289535,0.3630321025848388
1631290459929,0.7810478806495667,0.3394649028778076,-0.0348850525915622,0.3630321025848388
1631290460035,0.5545084476470947,0.3057810366153717,-0.1647237241268158,0.3630321025848388
1631290460151,0.3251679241657257,0.2997394204139709,-0.2078929096460342,0.3630321025848388
1631290460334,0.3251679241657257,0.326573759317398,-0.0969239845871925,0.3630321025848388
1631290460418,0.3251679241657257,0.3575516045093536,0.1421211063861847,0.3630321025848388
1631290460498,0.3251679241657257,0.3906794786453247,0.1522406786680221,0.3630321025848388
1631290460544,0.3251679241657257,0.4256693422794342,0.1633559614419937,0.3630321025848388
1631290460637,0.3251679241657257,0.5811724662780762,0.1807887852191925,0.3630321025848388
1631290460758,0.3251679241657257,0.6578295230865479,0.207473948597908,0.3630321025848388
1631290460874,0.3251679241657257,0.6803615689277649,0.2425926029682159,0.3630321025848388
1631290461007,0.3251679241657257,0.666524350643158,0.281233012676239,0.3630321025848388
1631290461070,0.3251679241657257,0.6233201026916504,0.3306333124637604,0.3630321025848388
1631290461159,0.3251679241657257,0.5584385395050049,0.3847587704658508,0.3630321025848388
1631290461445,0.3251679241657257,0.490858793258667,0.4302465617656708,0.3630321025848388
1631290461543,0.3251679241657257,0.4439917802810669,0.4590262174606323,0.3630321025848388
1631290461617,0.3251679241657257,0.4243226945400238,0.4730734527111053,0.3630321025848388
1631290461654,0.3251679241657257,0.4198899865150451,0.4781287610530853,0.3630321025848388
1631290461694,0.3251679241657257,0.4172747135162353,0.4723977744579315,0.4153183400630951
1631290461758,0.3251679241657257,0.3878707587718963,0.4255421757698059,0.4115391671657562
1631290461857,0.3251679241657257,0.3617441356182098,0.2475520968437194,0.4348730146884918
1631290461955,0.2297235280275344,0.3371468186378479,0.2235386371612548,0.4652905464172363
1631290462259,0.2374810427427292,0.3132343888282776,0.2007637768983841,0.49399334192276
1631290462395,0.2670077681541443,0.0859707593917846,0.1762667596340179,0.5151222348213196
1631290462457,0.3182837069034576,-0.3646912276744842,0.1245876029133796,0.5150213837623596
1631290462460,0.3012781739234924,-0.1765544265508651,0.1499023884534835,0.5229070782661438
1631290462515,0.3131457865238189,-0.4234928488731384,0.0957810133695602,0.494651734828949
1631290462591,0.3153268694877624,-0.3836617767810821,0.0846136137843132,0.4720396697521209
1631290462744,0.3759537637233734,-0.2662771642208099,0.1267277300357818,0.4643979966640472
1631290462862,0.4911681711673736,-0.1222211867570877,0.2203157991170883,0.4849452078342438
1631290462924,0.6033309698104858,-0.0040362011641263,0.3161397576332092,0.512823760509491
1631290462957,0.6752637624740601,0.0694262236356735,0.3790132403373718,0.5642600059509277
1631290463044,0.7033697366714478,0.1037552207708358,0.4049255847930908,0.6109422445297241
1631290463225,0.7204457521438599,0.1165268346667289,0.409246027469635,0.6401447653770447
1631290463324,0.7245156168937683,0.1238564103841781,0.4071788191795349,0.655166745185852
1631290463422,0.7265605926513672,0.13236665725708,0.4043952226638794,0.6605401635169983
1631290463516,0.7293064594268799,0.1418301314115524,0.4017378091812134,0.6558777093887329
1631290463638,0.7298741340637207,0.1503665894269943,0.3994659185409546,0.6399562358856201
1631290463743,0.7246808409690857,0.1562757194042205,0.3980078399181366,0.6157366633415222
1631290463811,0.7140607237815857,0.1596922576427459,0.3979822695255279,0.5913784503936768
1631290464098,0.7028064131736755,0.1616375744342804,0.3996382057666778,0.5745577812194824
1631290464169,0.6952182650566101,0.161695197224617,0.3998971581459045,0.5673123002052307
1631290464220,0.6855880618095398,0.1505288481712341,0.3838639855384826,0.5638779401779175
1631290464273,0.654716968536377,0.1118820831179618,0.32784304022789,0.5511422753334045
1631290464318,0.5808200836181641,0.0365077629685401,0.2120216637849807,0.5139142870903015
1631290464430,0.4545258581638336,-0.0681364759802818,0.0353398956358432,0.4450045526027679
1631290464540,0.2931630909442901,-0.1742803901433944,-0.1651728302240371,0.3528109490871429
1631290464626,0.150492176413536,-0.2514201402664184,-0.3045280575752258,0.2587791979312897
1631290464829,0.0738249719142913,-0.3014867603778839,-0.348490834236145,0.1797944903373718
1631290464829,0.0397801995277404,-0.3476296663284302,-0.3530050814151764,0.1074860170483589
1631290464995,0.0077315880917012,-0.396666944026947,-0.3560084700584411,0.0272039733827114
1631290465016,-0.0355207100510597,-0.4408352673053741,-0.3607388138771057,-0.0550714470446109
1631290465159,-0.0811526253819465,-0.4743584096431732,-0.3620652556419372,-0.1148708835244178
1631290465310,-0.1153501495718956,-0.4962175488471985,-0.3559401631355285,-0.1312187761068344
1631290465408,-0.1280172765254974,-0.507790207862854,-0.3476726114749908,-0.106343038380146
1631290465438,-0.1181266531348228,-0.5158116817474365,-0.3481988608837127,-0.0563642084598541
1631290465610,-0.0948047563433647,-0.5314047336578369,-0.3645249009132385,0.0037165572866797
1631290465791,-0.0658846721053123,-0.5578746795654297,-0.3924883902072906,0.065133087337017
1631290465999,-0.0354925356805324,-0.5821448564529419,-0.4190339148044586,0.1192133277654647
1631290466036,-0.001944710034877,-0.5916303992271423,-0.4359942674636841,0.1634892672300338
1631290466072,0.0116791184991598,-0.5863984823226929,-0.4235276877880096,0.1798896938562393
1631290466183,0.0167030412703752,-0.5542854070663452,-0.2812187373638153,0.1953132599592209
1631290466222,0.009905650280416,-0.4553947746753692,0.0193561557680368,0.2071646451950073
1631290466223,-0.0034656708594411,-0.2991353869438171,0.3201676309108734,0.2151541113853454
1631290466529,-0.0114777255803346,-0.1479761749505996,0.5359938144683838,0.2237243503332138
1631290466550,-0.0062190806493163,-0.0408284664154052,0.6645033955574036,0.2417512387037277
1631290466639,0.0115564372390508,0.0180547330528497,0.725402295589447,0.2755506634712219
1631290466668,0.0379407741129398,0.0438629873096942,0.7447510957717896,0.3227413296699524
1631290466794,0.0719734132289886,0.0543947890400886,0.7471166849136353,0.3734031319618225
1631290466946,0.1087131053209304,0.0616960860788822,0.7468141913414001,0.4160768389701843
1631290467056,0.1391588151454925,0.0686642900109291,0.7474609613418579,0.4452642202377319
1631290467298,0.1391588151454925,0.0755723416805267,0.7493315935134888,0.4452642202377319
1631290467341,0.1391588151454925,0.0823310539126396,0.7516397833824158,0.4452642202377319
1631290467395,0.1391588151454925,0.0895605012774467,0.7546812891960144,0.4452642202377319
1631290467456,0.1391588151454925,0.1032248884439468,0.7606274485588074,0.4452642202377319
1631290467526,0.1391588151454925,0.1425617337226867,0.7745893001556396,0.4452642202377319
1631290467603,0.1391588151454925,0.211394116282463,0.7923248410224915,0.1395282596349716
1631290467756,0.3149258494377136,0.2815076112747192,0.7929787039756775,0.2210150510072708
1631290467849,0.3379874527454376,0.3223794400691986,0.7531496286392212,0.2815740406513214
1631290467911,0.3212581872940063,0.3253818154335022,0.6668181419372559,0.3111417293548584
1631290468007,0.2851914465427398,0.302779346704483,0.5558681488037109,0.3150355815887451
1631290468052,0.2529328763484955,0.2787668704986572,0.4693620502948761,0.3062995076179504
1631290468351,0.2348007559776306,0.2685668468475342,0.437023788690567,0.2933928966522217
1631290468491,0.2273658365011215,0.2709279656410217,0.4368252158164978,0.2775522172451019
1631290468714,0.2236121892929077,0.277892917394638,0.441228449344635,0.2584671378135681
1631290468759,0.2199572026729583,0.2840055525302887,0.4426227211952209,0.2372940778732299
1631290468908,0.2161356657743454,0.2867025136947632,0.4405132830142975,0.2156920880079269
1631290469050,0.211739644408226,0.2852495014667511,0.4364072680473327,0.1945677399635315
1631290469188,0.2067329585552215,0.2796263396739959,0.429887592792511,0.1859530657529831
1631290469256,0.2144466787576675,0.2674296200275421,0.4179462492465973,0.1736114025115966
1631290469277,0.2144583165645599,0.2368706464767456,0.3861559331417084,0.1744261533021927
1631290469403,0.1958416700363159,0.4306303560733795,0.5341808199882507,0.1614854633808136
1631290469559,0.1610161364078521,0.3932406902313232,0.4766838550567627,0.1263828128576278
1631290469633,0.1276284605264663,0.3954092860221863,0.4509483873844147,0.0690746530890464
1631290469849,0.116404227912426,0.4617502987384796,0.4944488704204559,0.001770622911863
1631290469987,0.130240648984909,0.5576038360595703,0.5768299102783203,-0.0595805831253528
1631290470077,0.1508862972259521,0.6413938403129578,0.6524586081504822,-0.114150732755661
1631290470185,0.1631585657596588,0.7047093510627747,0.7198731899261475,-0.1712233871221542
1631290470189,0.1646638363599777,0.7292672991752625,0.7940943241119385,-0.2305762320756912
1631290470237,0.160654067993164,0.7554409503936768,0.8205659985542297,-0.2821351885795593
1631290470375,0.1563172191381454,0.7848281860351562,0.8499002456665039,-0.318860113620758
1631290470397,0.1563172191381454,0.8331909775733948,0.8823580741882324,-0.318860113620758
1631290470428,0.1563172191381454,0.8410159349441528,0.9182562232017516,-0.318860113620758
1631290470617,0.1563172191381454,0.8427414894104004,0.9580249190330504,-0.318860113620758
1631290470886,0.1563172191381454,0.8436090350151062,1.0018001794815063,-0.318860113620758
1631290470934,0.1563172191381454,0.8435556292533875,1.0003662109375,-0.318860113620758
1631290471123,0.1563172191381454,0.735480546951294,0.8865774869918823,-0.318860113620758
1631290471209,0.1563172191381454,1.2107053995132446,0.8764638900756836,-0.318860113620758
1631290471273,0.1563172191381454,1.272534966468811,1.0334627628326416,-0.318860113620758
1631290471405,0.1563172191381454,1.2554280757904053,0.990809679031372,-0.318860113620758
1631290471625,0.1563172191381454,1.2325578927993774,0.9301718473434448,-0.318860113620758
1631290471730,0.1563172191381454,1.219140648841858,0.893406331539154,-0.318860113620758
1631290471827,0.1563172191381454,1.1980257034301758,0.8407936096191406,-0.318860113620758
1631290471980,0.1563172191381454,1.171596884727478,0.8228875994682312,-0.318860113620758
1631290472047,0.1563172191381454,1.171596884727478,0.8228875994682312,-0.318860113620758
1631290472103,0.1563172191381454,1.171596884727478,0.8228875994682312,-0.318860113620758
1631290472137,0.1563172191381454,1.1849783658981323,0.8228875994682312,-0.318860113620758
1631290472174,0.1563172191381454,1.218313455581665,0.8228875994682312,-0.318860113620758
1631290472243,0.1563172191381454,1.258449912071228,0.8228875994682312,-0.318860113620758
1631290472289,0.1563172191381454,1.259726643562317,0.8228875994682312,-0.318860113620758
1631290472374,0.1563172191381454,1.2601958513259888,0.8718580603599548,-0.318860113620758
1631290472500,0.1563172191381454,1.2619225978851318,0.9276999831199646,-0.318860113620758
