timestamp,TP9,AF7,AF8,TP10
1631290337186,0.734184980392456,0.7791035175323486,-0.0338944196701049,0.5663896799087524
1631290337241,0.734184980392456,0.7791035175323486,-0.0338944196701049,0.5663896799087524
1631290337341,0.734184980392456,0.7791035175323486,-0.0338944196701049,0.5663896799087524
1631290337420,0.734184980392456,0.7791035175323486,-0.0338944196701049,0.5663896799087524
1631290337648,0.734184980392456,0.7791035175323486,-0.0338944196701049,0.5663896799087524
1631290337738,0.734184980392456,0.7791035175323486,-0.0338944196701049,0.5663896799087524
1631290337802,0.734184980392456,0.7791035175323486,-0.0338944196701049,0.5663896799087524
1631290337894,0.734184980392456,0.7791035175323486,-0.0338944196701049,0.5663896799087524
1631290337974,0.734184980392456,0.7791035175323486,-0.0338944196701049,0.5663896799087524
1631290338075,0.734184980392456,0.7791035175323486,-0.0338944196701049,0.5663896799087524
1631290338220,0.734184980392456,0.7791035175323486,0.7687060236930847,0.5663896799087524
1631290338325,0.734184980392456,0.7791035175323486,0.7886210083961487,0.5663896799087524
1631290338412,0.734184980392456,0.7791035175323486,0.8274124264717102,0.5663896799087524
1631290338493,0.734184980392456,0.7791035175323486,0.8640745282173157,0.5663896799087524
1631290338662,0.734184980392456,0.923686146736145,0.8640745282173157,0.5663896799087524
1631290338722,0.734184980392456,0.9504435062408448,0.8640745282173157,0.5663896799087524
1631290338873,0.734184980392456,0.9504435062408448,0.8640745282173157,0.5663896799087524
1631290339007,0.734184980392456,0.9504435062408448,0.8640745282173157,0.5663896799087524
1631290339048,0.734184980392456,0.9012247323989868,0.8640745282173157,0.5663896799087524
1631290339256,0.734184980392456,0.8507903814315796,0.8640745282173157,0.5663896799087524
1631290339262,0.734184980392456,0.7908312082290649,0.8640745282173157,0.5663896799087524
1631290339286,0.734184980392456,0.714800238609314,0.8640745282173157,0.5663896799087524
1631290339461,0.734184980392456,0.6603718996047974,0.8628506064414978,0.5663896799087524
1631290339479,0.734184980392456,0.6154181361198425,0.8802499771118164,0.5663896799087524
1631290339731,0.734184980392456,0.5783807039260864,0.9172976016998292,0.5663896799087524
1631290339892,0.734184980392456,0.5479432940483093,0.9172976016998292,0.5663896799087524
1631290339892,0.734184980392456,0.5222516059875488,0.9172976016998292,0.5663896799087524
1631290339967,0.734184980392456,0.4992119669914245,0.9172976016998292,0.5663896799087524
1631290340033,0.734184980392456,0.4766628742218017,0.9172976016998292,0.5663896799087524
1631290340110,0.734184980392456,0.3196947574615478,-0.0621092170476913,0.5663896799087524
1631290340256,0.734184980392456,0.1070955991744995,-0.0464239977300167,0.5663896799087524
1631290340359,0.734184980392456,0.0857089161872863,-0.0442002825438976,0.5663896799087524
1631290340443,0.734184980392456,0.066350482404232,-0.0518329888582229,0.5663896799087524
1631290340581,0.734184980392456,-0.0065925475209951,-0.0650075376033783,0.5663896799087524
1631290340607,0.734184980392456,-0.0497630611062049,-0.0783640965819358,0.5663896799087524
1631290340693,0.734184980392456,-0.0723403841257095,-0.0845154821872711,0.5663896799087524
1631290340850,0.734184980392456,-0.0774295777082443,-0.0776758715510368,0.5663896799087524
1631290340942,0.734184980392456,-0.0803620219230651,-0.0776758715510368,0.5663896799087524
1631290341124,0.734184980392456,-0.0867185965180397,-0.0776758715510368,0.5663896799087524
1631290341157,0.734184980392456,-0.0999904498457908,-0.0776758715510368,0.5663896799087524
1631290341233,0.734184980392456,-0.1241405308246612,-0.0776758715510368,0.5663896799087524
1631290341341,0.734184980392456,-0.160889133810997,-0.0745304301381111,0.5663896799087524
1631290341645,0.734184980392456,-0.2085756957530975,-0.0715373009443283,0.5663896799087524
1631290341687,0.734184980392456,-0.25753915309906,-0.0744029805064201,0.5663896799087524
1631290341843,0.734184980392456,-0.2911073267459869,-0.086828202009201,0.5663896799087524
1631290341857,0.734184980392456,-0.297302782535553,-0.1055550128221511,0.5663896799087524
1631290342043,0.734184980392456,-0.279273122549057,-0.1005595847964286,0.5663896799087524
1631290342158,0.734184980392456,-0.279273122549057,-0.0601043738424778,0.5663896799087524
1631290342273,0.734184980392456,-0.279273122549057,0.019544530659914,0.5663896799087524
1631290342389,0.734184980392456,-0.279273122549057,0.1075452044606208,0.5663896799087524
1631290342441,0.734184980392456,-0.279273122549057,0.172683760523796,0.5663896799087524
1631290342461,0.734184980392456,-0.279273122549057,0.2056640386581421,0.5663896799087524
1631290342577,0.734184980392456,-0.279273122549057,0.2014743238687515,0.5663896799087524
1631290342751,0.734184980392456,-0.279273122549057,0.1971657276153564,0.5663896799087524
1631290342804,0.734184980392456,-0.279273122549057,0.1886425167322158,0.5663896799087524
1631290342934,0.734184980392456,-0.279273122549057,0.1720325499773025,0.5663896799087524
1631290343007,0.734184980392456,-0.279273122549057,0.1495699435472488,0.5663896799087524
1631290343033,0.734184980392456,-0.279273122549057,0.1285445690155029,0.6858124732971191
1631290343063,0.734184980392456,0.2020575851202011,0.1128036752343177,0.6688979268074036
1631290343208,0.734184980392456,0.1829578578472137,0.1024317294359207,0.6547709107398987
1631290343277,0.8773190379142761,0.1700050830841064,0.0980423539876937,0.6388624906539917
1631290343359,0.8907082080841064,0.161105141043663,0.1093410924077034,0.6251958012580872
1631290343456,0.9113426208496094,0.15589439868927,0.1262241750955581,0.6198238730430603
1631290343560,0.930630385875702,0.1540274173021316,0.1411167383193969,0.623731791973114
1631290343642,0.9472664594650269,0.1535643339157104,0.1491319835186004,0.6340503096580505
1631290343741,0.9609626531600952,0.1526651233434677,0.1520200818777084,0.6453714966773987
1631290343988,0.9690260291099548,0.1502325236797332,0.1537623554468155,0.6521692276000977
1631290344001,0.969206690788269,0.1469179093837738,0.1549147665500641,0.6523699164390564
1631290344151,0.9563400149345398,0.1492445021867752,0.1570041477680206,0.6274973154067993
1631290344154,0.9633185863494872,0.1455542594194412,0.1545546203851699,0.6481701731681824
1631290344277,0.9522647261619568,0.1474973708391189,0.1670737415552139,0.6228686571121216
1631290344340,0.9528756737709044,0.1649773716926574,0.1830446720123291,0.6306124329566956
1631290344530,0.9538654088974,0.189895287156105,0.1969422250986099,0.6414372324943542
1631290344558,0.9609329104423524,0.2095444053411483,0.2034069746732711,0.6508974432945251
1631290344642,0.9719221591949464,0.2182422578334808,0.2023953795433044,0.6557664275169373
1631290344812,0.9809013605117798,0.2191964834928512,0.1956474930047989,0.6641532182693481
1631290344922,0.9843958616256714,0.2195377796888351,0.1817782968282699,0.6745373010635376
1631290344966,0.9826001524925232,0.2238238602876663,0.1588664799928665,0.6826011538505554
1631290345155,0.9768458604812622,0.2314646542072296,0.1289183050394058,0.6850422024726868
1631290345187,0.9669676423072816,0.2404939085245132,0.1023029908537864,0.6802873015403748
1631290345257,0.952380359172821,0.2475605905055999,0.0893297269940376,0.670185923576355
1631290345423,0.9368252754211426,0.2522151172161102,0.0907581821084022,0.6615286469459534
1631290345506,0.9296533465385436,0.2610416114330292,0.0972905158996582,0.6626120805740356
1631290345568,0.9384295344352722,0.2698001563549042,0.1005751118063926,0.6766534447669983
1631290345774,0.9384295344352722,0.2722708582878113,0.0922640934586525,0.6981037259101868
1631290345801,0.9384295344352722,0.2752898931503296,0.0976852923631668,0.6981037259101868
1631290345907,0.9384295344352722,0.2573747634887695,0.0854337811470031,0.6981037259101868
1631290345978,0.9384295344352722,0.2341245412826538,0.081344187259674,0.6981037259101868
1631290346112,0.9384295344352722,0.2141413390636444,0.0855680704116821,0.6981037259101868
1631290346136,0.9384295344352722,0.2101786136627197,0.0997873693704605,0.6981037259101868
1631290346443,0.9384295344352722,0.2239100635051727,0.1204501390457153,0.6981037259101868
1631290346469,0.9384295344352722,0.2434813976287841,0.1438007354736328,0.6981037259101868
1631290346654,0.9384295344352722,0.2553597092628479,0.1904807388782501,0.6981037259101868
1631290346671,0.9384295344352722,0.2553597092628479,0.1672759503126144,0.6981037259101868
1631290346726,0.9384295344352722,0.2553597092628479,0.2084571272134781,0.6981037259101868
1631290346806,0.9384295344352722,0.2553597092628479,0.2132989019155502,0.6981037259101868
1631290346892,0.9384295344352722,0.2553597092628479,0.2132989019155502,0.6981037259101868
1631290347018,0.9384295344352722,0.2553597092628479,0.2132989019155502,0.6981037259101868
1631290347176,0.9384295344352722,0.2553597092628479,0.2132989019155502,0.6981037259101868
1631290347223,0.9384295344352722,0.2553597092628479,0.2132989019155502,0.6981037259101868
1631290347291,0.9384295344352722,0.2553597092628479,0.2132989019155502,0.6981037259101868
1631290347390,0.9384295344352722,0.3315306305885315,0.0613091066479682,0.6981037259101868
1631290347543,0.9384295344352722,0.2952105104923248,0.0683829560875892,0.6981037259101868
1631290347643,0.9384295344352722,0.2711723744869232,0.0653711035847663,0.6981037259101868
1631290347728,0.9384295344352722,0.2560410499572754,0.058823324739933,0.6981037259101868
1631290347835,0.9384295344352722,0.2431419342756271,0.058823324739933,0.6981037259101868
1631290347898,0.9384295344352722,0.2307973355054855,0.058823324739933,0.6981037259101868
1631290347990,0.9384295344352722,0.2188559770584106,0.058823324739933,0.6981037259101868
1631290348190,0.9384295344352722,0.2093929946422577,0.058823324739933,0.6981037259101868
1631290348219,0.9384295344352722,0.2043940126895904,0.058823324739933,0.6981037259101868
1631290348324,0.9384295344352722,0.2048519104719162,0.058823324739933,0.6981037259101868
1631290348424,0.9384295344352722,0.2076772451400756,0.058823324739933,0.6981037259101868
1631290348561,0.9384295344352722,0.20838063955307,0.058823324739933,0.6981037259101868
1631290348619,0.9384295344352722,0.1869103014469146,0.1397816687822342,0.6981037259101868
1631290348857,0.9384295344352722,0.1680149883031845,0.1736641526222229,0.6981037259101868
1631290348941,0.9384295344352722,0.1553382277488708,0.1756902635097503,0.6981037259101868
1631290349087,0.9384295344352722,0.1566548496484756,0.1814616024494171,0.6981037259101868
1631290349099,0.9384295344352722,0.152866318821907,0.1701845079660415,0.6981037259101868
1631290349119,0.9384295344352722,0.1596276760101318,0.2035761475563049,0.6981037259101868
1631290349306,0.9384295344352722,0.1604491174221038,0.2398815751075744,0.6981037259101868
1631290349427,0.9384295344352722,0.1629146933555603,0.2398815751075744,0.6981037259101868
1631290349460,0.9384295344352722,0.1691054850816726,0.2398815751075744,0.6981037259101868
1631290349627,0.9384295344352722,0.1805332452058792,0.2398815751075744,0.6981037259101868
1631290349676,0.9384295344352722,0.1947773844003677,0.2398815751075744,0.6981037259101868
1631290349751,0.9384295344352722,0.2063276469707489,0.2398815751075744,0.6981037259101868
1631290349854,0.9384295344352722,0.2063276469707489,0.2398815751075744,0.6981037259101868
1631290350057,0.9384295344352722,0.2063276469707489,0.2398815751075744,0.6981037259101868
1631290350118,0.9384295344352722,0.2063276469707489,0.2398815751075744,0.6981037259101868
1631290350190,0.9384295344352722,0.2063276469707489,0.2398815751075744,0.6981037259101868
1631290350345,0.9384295344352722,0.2063276469707489,0.2398815751075744,0.6981037259101868
1631290350386,0.9384295344352722,0.2063276469707489,0.2398815751075744,0.6981037259101868
1631290350559,0.9384295344352722,0.2063276469707489,0.2398815751075744,0.6981037259101868
1631290350642,0.9384295344352722,0.2063276469707489,0.2398815751075744,0.6981037259101868
1631290350782,0.9384295344352722,0.2063276469707489,0.2398815751075744,0.6981037259101868
1631290350831,0.9384295344352722,0.6502177715301514,0.2398815751075744,0.6981037259101868
1631290350869,0.9384295344352722,0.6039436459541321,0.2398815751075744,0.6981037259101868
1631290350989,0.9384295344352722,0.555332601070404,0.2398815751075744,0.6981037259101868
1631290351123,0.9384295344352722,0.5097455382347107,0.2398815751075744,0.6981037259101868
1631290351391,0.9384295344352722,0.4709296226501465,0.2398815751075744,0.6981037259101868
1631290351624,0.9384295344352722,0.4386343359947204,0.2398815751075744,0.6981037259101868
1631290351689,0.9384295344352722,0.3834921717643738,0.2398815751075744,0.6981037259101868
1631290351704,0.9384295344352722,0.4102554321289062,0.2398815751075744,0.6981037259101868
1631290351743,0.9384295344352722,0.3577505052089691,0.2398815751075744,0.6981037259101868
1631290351814,0.9384295344352722,0.3338288962841034,0.2398815751075744,0.6981037259101868
1631290351877,0.9384295344352722,0.3121804893016815,0.2398815751075744,0.6981037259101868
1631290352024,0.9384295344352722,0.2925031185150146,0.2398815751075744,0.6981037259101868
1631290352071,0.9384295344352722,0.217412456870079,-0.0805896669626236,0.6981037259101868
1631290352189,0.9384295344352722,0.1308560818433761,-0.0955001413822174,0.6981037259101868
1631290352235,0.9384295344352722,0.0446981601417064,-0.1033278256654739,0.6981037259101868
1631290352282,0.9384295344352722,-0.0294116642326116,-0.1022187247872352,0.6981037259101868
1631290352464,0.9384295344352722,-0.0830837115645408,-0.0951032415032386,0.6981037259101868
1631290352561,0.7033383250236511,-0.1106335297226905,-0.0846743956208229,0.6981037259101868
1631290352639,0.6836689710617065,-0.1159610077738761,-0.0721823573112487,0.488337904214859
1631290352744,0.6807296276092529,-0.1093839854001998,-0.0590338893234729,0.4836088716983795
1631290352880,0.722133994102478,-0.0909879580140113,-0.044240653514862,0.4597371220588684
1631290352884,0.6969523429870605,-0.0995991304516792,-0.0486685186624527,0.4732949435710907
1631290353024,0.7426706552505493,-0.0851789638400077,-0.0466004125773906,0.4456486403942108
1631290353083,0.7543779611587524,-0.0814557820558548,-0.0539443828165531,0.4321072101593017
1631290353407,0.7605523467063904,-0.0795698836445808,-0.0624520853161811,0.4204185903072357
1631290353455,0.7646843194961548,-0.0784164443612098,-0.0757132768630981,0.4130622148513794
1631290353496,0.7656775712966919,-0.0763560533523559,-0.0902617797255516,0.413203477859497
1631290353526,0.76118403673172,-0.0728944465517997,-0.1034508422017097,0.4204030930995941
1631290353674,0.7514535188674927,-0.0694708153605461,-0.1158182471990585,0.4316792488098144
1631290353709,0.7365152835845947,-0.0672617480158805,-0.1304241865873336,0.4444546103477478
1631290353885,0.7236739993095398,-0.0652298778295517,-0.1486760526895523,0.4547327756881714
1631290353952,0.7164399027824402,-0.0616491883993148,-0.1694671958684921,0.4709923863410949
1631290354000,0.7179549336433411,-0.0581928379833698,-0.1904585808515548,0.4867644011974334
1631290354072,0.7255284190177917,-0.0596519336104393,-0.2095295190811157,0.4975937604904175
1631290354205,0.7304742336273193,-0.0695917382836341,-0.2261039465665817,0.5045060515403748
1631290354351,0.7252138257026672,-0.0861082822084426,-0.2389701008796692,0.5113157629966736
1631290354441,0.709974467754364,-0.1039219796657562,-0.2460795193910598,0.5196900963783264
1631290354523,0.6939688324928284,-0.1174090057611465,-0.2469703406095504,0.5275135636329651
1631290354657,0.6858350038528442,-0.1255576759576797,-0.2433882802724838,0.5323324203491211
1631290354763,0.6858071088790894,-0.1303205788135528,-0.2375518828630447,0.533532977104187
1631290354862,0.688674807548523,-0.1340607404708862,-0.2325943708419799,0.5329573750495911
1631290355022,0.6928954720497131,-0.13669154047966,-0.2298240959644317,0.5314075350761414
1631290355103,0.7020077109336853,-0.1357933431863784,-0.2284889966249466,0.5289888381958008
1631290355195,0.7194589972496033,-0.1296309530735016,-0.2264711409807205,0.5270203948020935
1631290355256,0.7439852356910706,-0.1181770488619804,-0.2210340499877929,0.5270121693611145
1631290355341,0.7707194089889526,-0.1034787744283676,-0.2107388079166412,0.5278988480567932
1631290355561,0.7835949659347534,-0.089566633105278,-0.1969938278198242,0.5163177847862244
1631290355598,0.7927919030189514,-0.081616386771202,-0.1850227564573288,0.5022751092910767
1631290355636,0.7979806065559387,-0.0826159194111824,-0.1813696324825287,0.4902600944042206
1631290355760,0.8025804162025452,-0.0854244083166122,-0.1879908591508865,0.4828367233276367
1631290355864,0.8110259771347046,-0.086130566895008,-0.1981570720672607,0.478037565946579
1631290355925,0.8247165083885193,-0.083191342651844,-0.204505056142807,0.4735933840274811
1631290356047,0.839813768863678,-0.0764628425240516,-0.2033421844244003,0.4722638130187988
1631290356178,0.8508936762809753,-0.0663781762123107,-0.1968641877174377,0.480209082365036
1631290356311,0.8562039732933044,-0.0533384606242179,-0.1875939220190048,0.5011043548583984
1631290356333,0.8595366477966309,-0.0377891585230827,-0.1735905706882476,0.5300323367118835
1631290356420,0.8674373030662537,-0.0221599396318197,-0.1529541313648224,0.5601182579994202
1631290356560,0.8674373030662537,-0.0058795176446437,-0.1277625411748886,0.5601182579994202
1631290356656,0.8674373030662537,0.0019914389122277,-0.102378025650978,0.5601182579994202
1631290356743,0.8674373030662537,-0.0021382223349064,-0.0805283188819885,0.5601182579994202
1631290356871,0.8674373030662537,-0.0190040878951549,-0.0636714026331901,0.5601182579994202
1631290356985,0.8674373030662537,-0.0508258417248725,-0.0534945353865623,0.5601182579994202
1631290357052,0.8674373030662537,-0.0892160534858703,-0.0492035634815692,0.5601182579994202
1631290357146,0.8674373030662537,-0.1171350926160812,-0.0465750582516193,0.5601182579994202
1631290357295,0.8674373030662537,-0.1263211667537689,-0.0413074120879173,0.5601182579994202
1631290357388,0.8674373030662537,-0.1223181560635566,-0.0350342914462089,0.5601182579994202
1631290357457,0.6618155837059021,-0.1091399267315864,-0.0322861745953559,0.5453997254371643
1631290357525,0.6553061604499817,-0.0934173539280891,-0.0364655628800392,0.5612198710441589
1631290357762,0.6442968249320984,-0.0823507159948349,-0.046768382191658,0.5576403737068176
1631290357831,0.6294280886650085,-0.079538844525814,-0.0595072135329246,0.5448698401451111
1631290358100,0.6140000224113464,-0.0831090286374092,-0.0717536881566047,0.5308222770690918
1631290358132,0.6014392375946045,-0.0876612812280654,-0.0826813131570816,0.5207050442695618
1631290358208,0.5918217301368713,-0.0966453403234481,-0.0922043770551681,0.5168149471282959
1631290358246,0.5841309428215027,-0.0995922610163688,-0.1005058586597442,0.5177175998687744
1631290358306,0.5841309428215027,-0.0944218039512634,-0.107728399336338,0.5177175998687744
1631290358391,0.5841309428215027,-0.0831762999296188,-0.115508422255516,0.5177175998687744
1631290358615,0.5841309428215027,-0.0682596117258071,-0.1250690817832946,0.5177175998687744
1631290358729,0.5841309428215027,-0.0538117662072181,-0.1377442777156829,0.5177175998687744
1631290358744,0.5735804438591003,-0.0432863943278789,-0.1547069996595382,0.5283108949661255
1631290358876,0.5623881220817566,-0.0386001430451869,-0.1767108738422393,0.5319137573242188
1631290358925,0.5490527749061584,-0.040458183735609,-0.2008320391178131,0.5222368240356445
1631290358991,0.532579779624939,-0.0488727241754531,-0.2205364108085632,0.5010691285133362
1631290359124,0.5143661499023438,-0.0618012994527816,-0.2312626391649246,0.4778091609477997
1631290359240,0.4988386929035187,-0.0736273229122161,-0.2351654171943664,0.4643958210945129
1631290359313,0.4913356304168701,-0.0786235854029655,-0.2398635894060135,0.4656886458396911
1631290359366,0.4913356304168701,-0.0766637548804283,-0.2517378628253937,0.4656886458396911
1631290359473,0.4913356304168701,-0.071616031229496,-0.2718641459941864,0.4656886458396911
1631290359590,0.4913356304168701,-0.0685958564281463,-0.2974201142787933,0.4656886458396911
1631290359690,0.4913356304168701,-0.0711453184485435,-0.324528157711029,0.4656886458396911
1631290359975,0.4913356304168701,-0.0801840350031852,-0.3513371348381042,0.4656886458396911
1631290360071,0.5237525701522827,-0.094399869441986,-0.3781909644603729,0.3205251693725586
1631290360144,0.4790120422840118,-0.1103899627923965,-0.4017653465270996,0.3248334527015686
1631290360186,0.4502114951610565,-0.1239980459213256,-0.4126257598400116,0.3545387089252472
1631290360239,0.4302960038185119,-0.132635235786438,-0.4042523205280304,0.3953342735767364
1631290360307,0.41645348072052,-0.1351169347763061,-0.3783964514732361,0.428666740655899
1631290360616,0.4114552736282348,-0.130889743566513,-0.3457843661308288,0.4447047114372253
1631290360683,0.4164325296878814,-0.1214204505085945,-0.3169608116149902,0.445063978433609
1631290360777,0.4275913834571838,-0.1096836477518081,-0.2950127124786377,0.4387749433517456
1631290360905,0.4395221769809723,-0.0995734855532646,-0.2760734260082245,0.4333054721355438
1631290361013,0.4481566250324249,-0.0946083962917327,-0.2558686435222626,0.429237425327301
1631290361110,0.4516569077968597,-0.0964268743991851,-0.2349658012390136,0.4242496788501739
1631290361162,0.4501513540744781,-0.1062138378620147,-0.2168471813201904,0.4161065518856048
1631290361223,0.4204174876213074,-0.1220535635948181,-0.2026486098766327,0.4037104845046997
1631290361263,0.4075507223606109,-0.137738823890686,-0.1891213506460189,0.3950219750404358
1631290361344,0.4149843752384186,-0.1474866867065429,-0.1731361895799636,0.3898540139198303
1631290361442,0.4305020570755005,-0.1507622152566909,-0.1549628227949142,0.3884187638759613
1631290361696,0.4410979449748993,-0.150480717420578,-0.1371079087257385,0.392577588558197
1631290361776,0.4435206949710846,-0.1503555625677108,-0.12252788990736,0.4024919271469116
1631290361932,0.4414206445217132,-0.1535629034042358,-0.1129169836640358,0.4161725640296936
1631290362032,0.4384622871875763,-0.164231076836586,-0.109543427824974,0.4298125207424164
1631290362081,0.4338067173957824,-0.1850374341011047,-0.1120243296027183,0.4401755630970001
1631290362224,0.4256187379360199,-0.2114625126123428,-0.1178883761167526,0.4460838437080383
1631290362258,0.4139800667762756,-0.2324837446212768,-0.1249181404709816,0.4474662542343139
1631290362319,0.4002330601215362,-0.2397402226924896,-0.1328223049640655,0.4450734853744507
1631290362377,0.3861843347549438,-0.2344404906034469,-0.1411288529634475,0.4418330490589142
1631290362460,0.3749232590198517,-0.2234599292278289,-0.1466067731380462,0.4438595473766327
1631290362524,0.3715268969535827,-0.2084636837244033,-0.1461930721998214,0.4577983915805816
1631290362652,0.3765139579772949,-0.1876886039972305,-0.14137664437294,0.4852761924266815
1631290362743,0.3819990754127502,-0.1637532413005828,-0.1373275369405746,0.5206214785575867
1631290362858,0.3794698715209961,-0.1439642608165741,-0.1366717368364334,0.5550192594528198
1631290362947,0.36845663189888,-0.1340965777635574,-0.1382958143949508,0.5811272859573364
1631290363041,0.3578780591487884,-0.1350104212760925,-0.141273483633995,0.5942367315292358
1631290363102,0.3588099479675293,-0.1429491639137268,-0.1473239511251449,0.5930564999580383
1631290363326,0.37473264336586,-0.1522517651319503,-0.1583514064550399,0.5802047848701477
1631290363386,0.3997858464717865,-0.1575763970613479,-0.1734611541032791,0.5619010925292969
1631290363466,0.4265254735946655,-0.1557040065526962,-0.1903076469898224,0.5452271103858948
1631290363559,0.4498554170131683,-0.1497586071491241,-0.206782653927803,0.5341876149177551
1631290363672,0.4680043756961822,-0.1482866555452346,-0.2208602726459503,0.5288950204849243
1631290363744,0.481804609298706,-0.1576294600963592,-0.2320324182510376,0.5287996530532837
1631290363873,0.4895414113998413,-0.1754332184791565,-0.2418559044599533,0.5406304001808167
1631290363992,0.4991403222084045,-0.1925418525934219,-0.2549844086170196,0.5503445267677307
1631290364224,0.5117236375808716,-0.2139187455177307,-0.2963950037956238,0.5442488789558411
1631290364224,0.5076654553413391,-0.2038620859384536,-0.2733932435512543,0.5531423687934875
1631290364410,0.5127681493759155,-0.22957544028759,-0.3209986984729767,0.522118866443634
1631290364453,0.5177503228187561,-0.2493241429328918,-0.3416776359081268,0.4900326132774353
1631290364552,0.5343785881996155,-0.2624987363815307,-0.3532061576843261,0.4548386037349701
1631290364581,0.5618138909339905,-0.2534081637859344,-0.3452199101448059,0.4220349490642547
1631290364666,0.5903884172439575,-0.2157679349184036,-0.3155455887317657,0.3919031620025635
1631290364760,0.6095884442329407,-0.1615785509347915,-0.274680882692337,0.3606673777103424
1631290364934,0.6154943704605103,-0.1103925630450248,-0.2370576560497284,0.327762633562088
1631290364966,0.6154943704605103,-0.0757991001009941,-0.2119887471199035,0.327762633562088
1631290365061,0.6154943704605103,-0.0592952258884906,-0.1984886974096298,0.327762633562088
1631290365240,0.6154943704605103,-0.053976621478796,-0.1910340934991836,0.327762633562088
1631290365342,0.6154943704605103,-0.0512136183679103,-0.1823939681053161,0.327762633562088
1631290365384,0.6154943704605103,-0.0466472990810871,-0.1633507907390594,0.327762633562088
1631290365478,0.6154943704605103,-0.0403431244194507,-0.1297110021114349,0.5223634243011475
1631290365624,0.6154943704605103,-0.0355455167591571,-0.0876672193408012,0.518591582775116
1631290365706,0.4932983219623565,-0.0340726971626281,-0.0490321516990661,0.5175244808197021
1631290365803,0.4547353088855743,-0.0351427495479583,-0.0215236339718103,0.5182166695594788
1631290365991,0.3715392351150512,-0.0383709520101547,0.0011025873245671,0.5188977718353271
1631290366004,0.4106086790561676,-0.036890622228384,-0.0060458010993897,0.5200618505477905
1631290366072,0.3446209132671356,-0.0437126941978931,-0.0005942128482274,0.513410747051239
1631290366302,0.3316793441772461,-0.059116456657648,-0.0101734837517142,0.5071958899497986
1631290366368,0.328761875629425,-0.0874248743057251,-0.0229284707456827,0.5039430260658264
1631290366414,0.328388899564743,-0.1243364810943603,-0.0330309718847274,0.5037764310836792
1631290366543,0.3253276646137237,-0.1598697155714035,-0.03763198107481,0.506032407283783
1631290366662,0.318727433681488,-0.1848718971014022,-0.0393124036490917,0.5103413462638855
1631290366725,0.310854971408844,-0.1925685703754425,-0.0416570045053958,0.5083835124969482
1631290366905,0.3058370351791382,-0.1788337081670761,-0.0475715063512325,0.5100517868995667
1631290366927,0.2873897552490234,-0.1479367613792419,-0.0620350576937198,0.5125648379325867
1631290366993,0.261374682188034,-0.1128091290593147,-0.0871511846780777,0.5146465301513672
1631290367174,0.2325176745653152,-0.0834074914455413,-0.1176462322473526,0.5155895352363586
1631290367290,0.2109380364418029,-0.0609498918056488,-0.1411458998918533,0.5159009695053101
1631290367369,0.2064884901046753,-0.0418497733771801,-0.1510400772094726,0.515251100063324
1631290367484,0.218649223446846,-0.0247542932629585,-0.1547868251800537,0.5132609605789185
1631290367509,0.2388624399900436,-0.0120120830833911,-0.1631385087966919,0.513732373714447
1631290367625,0.2568068206310272,-0.0054575609974563,-0.1763071417808532,0.5208145380020142
1631290367776,0.2639395296573639,-0.0037292561028152,-0.1877432018518448,0.5329874157905579
1631290367843,0.256002813577652,-0.0023448779247701,-0.1910832226276397,0.5451527833938599
1631290367955,0.2370031774044037,0.0018986334325745,-0.1838118284940719,0.555353045463562
1631290368183,0.2370031774044037,0.0085690822452306,-0.1682403534650802,0.555353045463562
1631290368222,0.2370031774044037,0.0140092968940734,-0.1515363603830337,0.555353045463562
1631290368427,0.2370031774044037,0.0128572424873709,-0.1393654495477676,0.555353045463562
1631290368625,0.2370031774044037,0.0003309391904622,-0.1317751258611679,0.555353045463562
1631290368858,0.2370031774044037,-0.0245480220764875,-0.1273220926523208,0.555353045463562
1631290368903,0.2370031774044037,-0.0572866052389144,-0.1262754201889038,0.555353045463562
1631290369040,0.2370031774044037,-0.0903116315603256,-0.1334308236837387,0.555353045463562
1631290369105,0.2370031774044037,-0.1193630993366241,-0.148835003376007,0.555353045463562
1631290369183,0.2370031774044037,-0.1445474773645401,-0.1645098030567169,0.555353045463562
1631290369241,0.2370031774044037,-0.1652986109256744,-0.1710336506366729,0.555353045463562
1631290369290,0.2370031774044037,0.2545716762542724,-0.1675033867359161,0.555353045463562
1631290369369,0.2370031774044037,0.2551085948944092,-0.1611920744180679,0.555353045463562
1631290369403,0.2370031774044037,0.2584888935089111,-0.1602796018123626,0.555353045463562
1631290369452,0.2370031774044037,0.2606531083583832,-0.1694123446941375,0.555353045463562
1631290369509,0.2370031774044037,0.2592709064483642,-0.1887774169445037,0.555353045463562
1631290369608,0.2370031774044037,0.255879133939743,-0.212568998336792,0.555353045463562
1631290369740,0.2370031774044037,0.2545555233955383,-0.2305908650159835,0.555353045463562
1631290369877,0.2370031774044037,0.2584985792636871,-0.2372206300497055,0.555353045463562
1631290369894,0.2370031774044037,0.267681747674942,-0.235708549618721,0.555353045463562
1631290369919,0.2370031774044037,0.279149442911148,-0.2301466166973114,0.555353045463562
1631290370039,0.2370031774044037,0.3445758819580078,-0.2216855436563491,0.555353045463562
1631290370203,0.2370031774044037,0.3494495451450348,-0.2072282284498214,0.555353045463562
1631290370370,0.2370031774044037,0.3514708578586578,-0.1884773224592209,0.555353045463562
1631290370443,0.2370031774044037,0.3568245768547058,-0.1594131737947464,0.555353045463562
1631290370446,0.2370031774044037,0.3532885909080505,-0.1715433448553085,0.555353045463562
1631290370542,0.2370031774044037,0.0674758329987526,-0.1471653133630752,0.555353045463562
1631290370753,0.2370031774044037,0.0765876024961471,-0.1283067911863327,0.555353045463562
1631290370845,0.2370031774044037,0.0847204029560089,-0.103479653596878,0.555353045463562
1631290370973,0.2370031774044037,0.0937120914459228,-0.0784836858510971,0.555353045463562
1631290371056,0.5233926177024841,0.1051274389028549,-0.0579319819808006,0.555353045463562
1631290371158,0.5064626932144165,0.1178902462124824,-0.0410643517971038,0.7452632784843445
1631290371205,0.491649329662323,0.1284246891736984,-0.0249230321496725,0.7339892387390137
1631290371272,0.4838145971298218,0.1327972561120987,-0.0080506214872002,0.707378089427948
1631290371374,0.480266809463501,0.1289770752191543,0.0083354087546467,0.6732484698295593
1631290371473,0.4778655469417572,0.1191368699073791,0.0215054601430892,0.6380819082260132
1631290371541,0.4745270907878876,0.0101742101833224,0.0290693193674087,0.6066749095916748
1631290371693,0.4745270907878876,0.0090919006615877,0.029667854309082,0.6066749095916748
1631290371896,0.4745270907878876,0.0164074748754501,0.0241475012153387,0.6066749095916748
1631290371987,0.4745270907878876,0.0229203402996063,0.0159509144723415,0.6066749095916748
1631290372076,0.4745270907878876,0.0215269438922405,0.0090180775150656,0.6066749095916748
1631290372143,0.4745270907878876,0.0121763693168759,0.0026273906696587,0.6066749095916748
1631290372187,0.4747973084449768,-0.0015017348341643,-0.007799896877259,0.6066749095916748
1631290372295,0.4644832909107208,-0.0160008668899536,-0.0233228541910648,0.6005613803863525
1631290372362,0.4485774338245392,-0.0292295850813388,-0.0388675145804882,0.5747860670089722
1631290372544,0.4386008083820343,-0.040027730166912,-0.048301700502634,0.5245506167411804
1631290372653,0.4400553703308105,-0.0480728894472122,-0.0530728623270988,0.4513236880302429
1631290372697,0.447507381439209,-0.0522499531507492,-0.0595009513199329,0.3657317757606506
1631290372872,0.447507381439209,-0.0390896685421466,-0.0848288759589195,0.3657317757606506
1631290372873,0.447507381439209,-0.0497880019247531,-0.0710380598902702,0.3657317757606506
1631290373053,0.447507381439209,-0.022289453074336,-0.0949804857373237,0.3657317757606506
1631290373117,0.447507381439209,-0.0053421193733811,-0.098420038819313,0.3657317757606506
1631290373243,0.447507381439209,0.0072264610789716,-0.0953263193368911,0.3657317757606506
1631290373321,0.447507381439209,0.0152247007936239,-0.0878042951226234,0.3657317757606506
1631290373402,0.447507381439209,0.0244021210819482,-0.0793041735887527,0.3657317757606506
1631290373509,0.447507381439209,0.0415742471814155,-0.0726309120655059,0.3657317757606506
1631290373626,0.447507381439209,0.0671721026301384,-0.0655585452914238,0.3657317757606506
1631290373841,0.447507381439209,0.0935373604297638,-0.0514347963035106,0.3657317757606506
1631290373920,0.447507381439209,0.1135370731353759,-0.024892034009099,0.3657317757606506
1631290373987,0.447507381439209,0.1272109299898147,0.0129424557089805,0.3657317757606506
1631290374050,0.447507381439209,0.1386525779962539,0.0545113496482372,0.3657317757606506
1631290374076,0.447507381439209,0.1490823477506637,0.0939836055040359,0.3657317757606506
1631290374206,0.447507381439209,0.1548758298158645,0.1280183941125869,0.3657317757606506
1631290374429,0.447507381439209,0.1522560268640518,0.1555431634187698,0.3657317757606506
1631290374523,0.447507381439209,0.1412721425294876,0.1748888194561004,0.3657317757606506
1631290374592,0.447507381439209,0.1250691413879394,0.1854337751865387,0.3657317757606506
1631290374668,0.447507381439209,0.1077945306897163,0.1910081952810287,0.3657317757606506
1631290374715,0.636665940284729,0.0928334519267082,0.1977506726980209,0.4934558570384979
1631290374894,0.636665940284729,0.0823006182909011,0.208029419183731,0.5030826926231384
1631290375077,0.636665940284729,0.0736993253231048,0.2183328717947006,0.5100792050361633
1631290375141,0.636665940284729,0.0606243945658206,0.2242890447378158,0.5079125761985779
1631290375211,0.6139228940010071,0.0403517596423625,0.2251634001731872,0.4951541423797607
1631290375311,0.6030852198600769,0.019133735448122,0.2224389016628265,0.4759604930877685
1631290375473,0.599076509475708,0.0042687649838626,0.215440422296524,0.4560930132865906
1631290375543,0.5927770733833313,-0.0067520984448492,0.1999964118003845,0.4390771389007568
1631290375719,0.5782625675201416,-0.022612364962697,0.1739864498376846,0.4253799617290497
1631290375860,0.5568147301673889,-0.0446476712822914,0.1401570588350296,0.4144009053707123
1631290375923,0.5331374406814575,-0.064139075577259,0.1061769798398017,0.405710369348526
1631290375962,0.5100911259651184,-0.0735884383320808,0.0794020593166351,0.3990712761878967
1631290376060,0.4610708355903625,-0.0738352835178375,0.0635545253753662,0.3845246732234955
1631290376124,0.4120403230190277,-0.0695618167519569,0.0577046684920787,0.3710786402225494
1631290376309,0.3769779503345489,-0.0641839355230331,0.0561851225793361,0.3555839955806732
1631290376390,0.3569993674755096,-0.0594491586089134,0.0507452338933944,0.3355292677879333
1631290376439,0.3518282473087311,-0.0575838275253772,0.0360284224152565,0.3108568787574768
1631290376495,0.3489532172679901,-0.05915317684412,0.0137280654162168,0.2855040431022644
1631290376595,0.3500378727912903,-0.0623346343636512,-0.0090130688622593,0.2667408883571625
1631290376658,0.344896137714386,-0.0658814534544944,-0.0266900528222322,0.2602230310440063
1631290376844,0.3452275693416595,-0.0700774118304252,-0.0386370867490768,0.2640741765499115
1631290376927,0.3495500981807709,-0.0737564265727996,-0.0466518960893154,0.2723482549190521
1631290376960,0.3572326898574829,-0.073810763657093,-0.0513109788298606,0.2823293209075928
1631290377128,0.3668972551822662,-0.0686252117156982,-0.0535728558897972,0.2947399020195007
1631290377206,0.3770780563354492,-0.060311485081911,-0.0567406117916107,0.3091899752616882
1631290377334,0.3871232569217682,-0.0518360212445259,-0.0646341294050216,0.3210213184356689
1631290377414,0.3978047966957092,-0.0410033278167247,-0.0787860080599784,0.3262719511985779
1631290377525,0.4074085056781769,-0.0225666482001543,-0.0961882695555687,0.3251945674419403
1631290377572,0.4130397439002991,0.0044635324738919,-0.1124191358685493,0.3220017254352569
1631290377698,0.4139158725738525,0.0342245995998382,-0.1263266056776046,0.3201640248298645
1631290377896,0.412742555141449,0.0591462776064872,-0.1383663564920425,0.3200861513614654
1631290378010,0.411897748708725,0.0753906443715095,-0.1457697004079818,0.3203056454658508
1631290378098,0.4100783169269562,0.0838937982916832,-0.1413169801235199,0.3208062946796417
1631290378174,0.402924507856369,0.0900201573967933,-0.1211481988430023,0.3219450116157532
1631290378245,0.3861283957958221,0.0983655378222465,-0.0912213549017906,0.3227743506431579
1631290378323,0.3568703532218933,0.1091698855161666,-0.0616294890642166,0.3222636878490448
1631290378526,0.3164785504341125,0.1190904006361961,-0.0390634797513484,0.3203129768371582
1631290378658,0.2727372050285339,0.1262750178575515,-0.0245400331914424,0.3165651261806488
1631290378798,0.2386938780546188,0.1331445276737213,-0.0137945525348186,0.3102732300758362
1631290379020,0.2203665673732757,0.1415317356586456,-0.0002213734405813,0.301676481962204
1631290379141,0.2031704634428024,0.149099975824356,0.0489611774682998,0.2947437763214111
1631290379144,0.2117949277162552,0.148781418800354,0.0211030486971139,0.2950316667556762
1631290379187,0.1961110979318618,0.1391931027173996,0.0765321925282478,0.3017450273036957
1631290379214,0.2016475349664688,0.1217986345291137,0.0978085249662399,0.3122080266475677
1631290379262,0.2299312651157379,0.1055328547954559,0.1111054569482803,0.324084460735321
1631290379358,0.2747614085674286,0.0985832065343856,0.1176012828946113,0.339690089225769
1631290379440,0.3193995654582977,0.1017630696296691,0.1185151636600494,0.3613002896308899
1631290379524,0.3512330055236816,0.1097529381513595,0.1138361096382141,0.3861512839794159
1631290379608,0.369351327419281,0.1169130206108093,0.1046342402696609,0.4087662696838379
1631290379759,0.380458801984787,0.1215628832578659,0.0952294915914535,0.4257887899875641
1631290379852,0.3907572031021118,0.1247616931796073,0.0899950638413429,0.4368026554584503
1631290380030,0.4013042151927948,0.1276963055133819,0.0899569392204284,0.4421751201152801
1631290380124,0.4097000062465668,0.1306805610656738,0.0925632938742637,0.441733717918396
1631290380219,0.4134614467620849,0.1323436796665191,0.09408700466156,0.4368293583393097
1631290380305,0.4127174615859985,0.1327430456876754,0.091614730656147,0.431196928024292
1631290380373,0.4113102555274963,0.1355001032352447,0.0835061147809028,0.4286655783653259
1631290380570,0.4147444665431976,0.1449356526136398,0.0709742680191993,0.4300424754619598
1631290380632,0.423204243183136,0.1597116291522979,0.058858036994934,0.433257907629013
1631290380663,0.4284959733486175,0.1727926880121231,0.0515200868248939,0.4357309341430664
1631290380827,0.4194619953632355,0.1772354245185852,0.049676414579153,0.4345765709877014
1631290380874,0.39276322722435,0.1714921295642852,0.0527903474867343,0.4269707500934601
1631290380959,0.3570965528488159,0.1601138263940811,0.0618580803275108,0.4125790894031524
1631290381023,0.3274042904376983,0.1491728127002716,0.0764102339744567,0.3929716944694519
1631290381136,0.3126509189605713,0.1402448415756225,0.0906161665916442,0.3699923455715179
1631290381410,0.3162794411182403,0.1140817999839782,0.0920472517609596,0.3172830641269684
1631290381413,0.3112465143203735,0.1299254745244979,0.0967636778950691,0.3443054258823395
1631290381597,0.3216122984886169,0.0922945216298103,0.0801779404282569,0.2934261262416839
1631290381691,0.3241911232471466,0.0676452592015266,0.067943088710308,0.2803606688976288
1631290381984,0.3296980261802673,0.0262955334037542,0.0578769147396087,0.2889941036701202
1631290381987,0.3253590762615204,0.0445652939379215,0.0601776875555515,0.280789315700531
1631290382141,0.337871253490448,0.0135962786152958,0.0580427423119545,0.2964530289173126
1631290382258,0.3451201915740967,0.0046823993325233,0.0570914298295974,0.3012217283248901
1631290382325,0.3496266007423401,0.0009297498036175,0.0537022277712821,0.3075951337814331
1631290382358,0.3567005693912506,0.0062766964547336,0.0496920645236969,0.3188429772853851
1631290382435,0.3713910579681396,0.0214264672249555,0.0465221367776393,0.3335972726345062
1631290382583,0.390183687210083,0.0410631895065307,0.0421156249940395,0.3486005663871765
1631290382719,0.4046951532363891,0.0589043945074081,0.0332917012274265,0.3612869679927826
1631290382859,0.4101937115192413,0.0712866708636283,0.0197695661336183,0.3715401887893677
1631290383040,0.4011894762516022,0.0811861306428909,-0.0105963442474603,0.3956223726272583
1631290383060,0.4080978035926819,0.078068807721138,0.0042629814706742,0.3820710778236389
1631290383121,0.3910748362541199,0.0839687585830688,-0.0250076316297054,0.4110568761825561
1631290383196,0.3795805275440216,0.0889765918254852,-0.0400315858423709,0.4227350354194641
1631290383260,0.369158923625946,0.0959080606698989,-0.0537891164422035,0.4247580468654632
1631290383408,0.3612688183784485,0.1017764434218406,-0.0633811950683593,0.4170121252536773
1631290383473,0.3551081418991089,0.1039265319705009,-0.0686123594641685,0.4038271009922027
1631290383609,0.3497814834117889,0.1012269034981727,-0.0704894959926605,0.3895673155784607
1631290383657,0.3452832102775574,0.0942496061325073,-0.0706282928586006,0.3738726377487182
1631290383679,0.3397846817970276,0.0826847702264785,-0.0707339793443679,0.3534362912178039
1631290383850,0.3289678692817688,0.0660089179873466,-0.0691712945699691,0.3280491530895233
1631290383897,0.3101475238800049,0.046304851770401,-0.0608098655939102,0.3019210994243622
1631290384073,0.2867375910282135,0.0313828736543655,-0.0435496941208839,0.27801313996315
1631290384257,0.2667474746704101,0.0291193109005689,-0.023062827065587,0.2536775171756744
1631290384626,0.2578614950180053,0.0396655090153217,-0.005919390823692,0.2250090688467025
1631290384769,0.2614092230796814,0.0540990978479385,0.0083594946190714,0.1924201995134353
1631290384903,0.271731436252594,0.0640949755907058,0.0233257077634334,0.1639841496944427
1631290384934,0.2819362580776214,0.0673329159617424,0.0395822972059249,0.149784430861473
1631290385043,0.562971293926239,0.4575447738170624,0.2885640859603882,0.7173783183097839
1631290385065,0.2890283465385437,0.0673033595085144,0.2810881435871124,0.3392374813556671
1631290385139,0.5636262893676758,0.4587268233299255,0.2941527962684631,0.7232202291488647
1631290385210,0.5606376528739929,0.4603780806064605,0.2965785264968872,0.7834545373916626
1631290385277,0.552263617515564,0.460817277431488,0.2943250238895416,0.7859084606170654
1631290385325,0.5394689440727234,0.4585039913654327,0.2877456247806549,0.7862499952316284
1631290385499,0.5253371000289917,0.4535944163799286,0.2791711688041687,0.7854526042938232
1631290385788,0.5132673978805542,0.4482333064079284,0.2700083255767822,0.7848882079124451
1631290385894,0.5052182078361511,0.4441480934619903,0.2596772015094757,0.7851839661598206
1631290385940,0.5016027688980103,0.4402270317077636,0.2481093257665634,0.7860602140426636
1631290385980,0.8320125341415405,0.7994327545166016,0.3896037638187408,1.1223784685134888
1631290385993,0.7598077058792114,0.7266649603843689,0.3943065106868744,1.0867526531219482
1631290386080,0.8766724467277527,0.8469586968421936,0.5042813420295715,1.14802885055542
1631290386098,1.011164307594299,0.9987465143203736,0.7883952856063843,1.2472301721572876
1631290386166,1.0109472274780271,0.9990431666374208,0.7867864966392517,1.2459120750427246
1631290386207,1.0110946893692017,0.999727189540863,0.725563645362854,1.2246012687683103
1631290386247,0.9334038496017456,0.9194574356079102,0.7225762605667114,1.1366910934448242
1631290386368,0.9337384700775146,0.9197854399681092,0.7190030217170715,1.133632779121399
1631290386441,0.9338445663452148,0.9199835062026978,0.7158381342887878,1.107216238975525
1631290386476,0.9341148734092712,0.9206582307815552,0.7145010828971863,1.10617196559906
1631290386524,0.9347713589668274,0.9222038388252258,0.7152989506721497,1.1073251962661743
1631290386641,0.935698926448822,0.9242702722549438,0.7171797156333923,1.1104363203048706
1631290386741,1.0019136667251587,0.9932734966278076,0.8234193325042725,1.283528447151184
1631290386931,1.0054901838302612,0.992648184299469,0.8260900974273682,1.311121940612793
1631290386938,1.0035407543182373,0.9934090375900269,0.8247398138046265,1.3088998794555664
1631290387039,0.8795700073242188,0.857146680355072,0.7756133675575256,1.1602431535720823
1631290387328,0.8157377243041992,0.7888132333755493,0.7755138874053955,1.1298235654830933
1631290387457,0.7614775896072388,0.728135883808136,0.7147271037101746,1.1043431758880615
1631290387526,0.4753236174583435,0.3716133832931518,0.3398894965648651,0.9596445560455322
1631290387641,0.4684466421604156,0.3658930957317352,0.335174560546875,0.9607222080230712
1631290387712,0.4617315530776977,0.3628726303577423,0.3342088758945465,0.9622789025306702
1631290387760,0.4556633532047272,0.3624967634677887,0.3367291688919067,0.964981198310852
1631290387802,0.4520974457263946,0.3634598553180694,0.340270847082138,0.969007670879364
1631290387874,0.4523004591464996,0.3647783398628235,0.3422854840755462,0.97331964969635
1631290387946,0.45560023188591,0.366018682718277,0.3421855270862579,0.9765522480010986
1631290388001,0.4605906903743744,0.3674838840961456,0.3418713212013244,0.9782525300979614
1631290388297,0.4662478864192962,0.3696804046630859,0.3434267044067383,0.978734016418457
1631290388410,0.193826675415039,-0.0246927570551633,-0.0984848067164421,0.5204393863677979
1631290388498,0.2000901103019714,-0.0121664013713598,-0.0948522686958313,0.3492974936962127
1631290388533,0.1851337850093841,-0.0008718205499462,-0.1009072959423065,0.3361064493656158
1631290388602,0.1665702611207962,0.0048772152513265,-0.1133849844336509,0.3256522119045257
1631290388761,0.1533698737621307,0.0060100331902503,-0.1232603043317794,0.3243764638900757
1631290388805,0.1483706980943679,0.0072868005372583,-0.1219921559095382,0.3323815762996673
1631290388924,0.1471349895000457,0.011897868476808,-0.1068386137485504,0.3462512195110321
1631290388992,0.1476229131221771,0.0168956834822893,-0.0979542657732963,0.3633870780467987
1631290389122,0.1543836146593094,0.0172114614397287,-0.0931871905922889,0.382737934589386
1631290389175,0.1703648120164871,0.0117774698883295,-0.0913876444101333,0.4018211662769317
1631290389275,0.1920036673545837,0.0031807210762053,-0.0871057137846946,0.4174799621105194
1631290389390,0.2136926054954528,-0.0054545006714761,-0.0769517719745636,0.4289398491382599
1631290389467,0.2365636080503463,-0.0132471546530723,-0.0646737143397331,0.4375613033771515
1631290389706,0.2365636080503463,-0.0187754146754741,-0.0593334510922431,0.4423510730266571
1631290389737,0.2365636080503463,-0.016525225713849,-0.0681744962930679,0.4423510730266571
1631290389778,0.2365636080503463,-0.0026586018502712,-0.0916272401809692,0.4423510730266571
1631290389893,0.2365636080503463,0.0192305389791727,-0.1211940944194793,0.4423510730266571
1631290389921,0.2365636080503463,0.0422350876033306,-0.1428959667682647,0.4423510730266571
1631290390128,0.2365636080503463,0.0644030198454856,-0.1428959667682647,0.4423510730266571
1631290390219,0.2365636080503463,0.08780238032341,-0.1428959667682647,0.4423510730266571
1631290390244,0.2365636080503463,0.1137445941567421,-0.1428959667682647,0.4423510730266571
1631290390464,0.4926888644695282,0.1606255769729614,-0.2043056041002273,0.4543155431747436
1631290390466,0.2365636080503463,0.139574185013771,-0.1428959667682647,0.4423510730266571
1631290390579,0.470108687877655,0.1741009652614593,-0.1923342049121856,0.4426432847976684
1631290390632,0.4559174478054046,0.1797999143600464,-0.1764284521341323,0.4179809689521789
1631290390855,0.4457687735557556,0.1809008419513702,-0.1675849854946136,0.3882556855678558
1631290391000,0.4344660341739654,0.182424858212471,-0.1707482486963272,0.3597339987754822
1631290391092,0.42281574010849,0.1875300705432891,-0.1814374029636383,0.336737722158432
1631290391157,0.4139359891414642,0.1935390084981918,-0.1908130645751953,0.3221972584724426
1631290391226,0.4079565703868866,0.1942858099937439,-0.1948664039373397,0.3161136507987976
1631290391308,0.4015071988105774,0.1864183694124221,-0.1953331083059311,0.3140610754489898
1631290391417,0.3927566707134247,0.1721225529909134,-0.1959165334701538,0.3120876848697662
1631290391570,0.385430634021759,0.1562708020210266,-0.1975280940532684,0.3124588429927826
1631290391575,0.385636031627655,0.1424940079450607,-0.1979852616786956,0.3214820623397827
1631290391726,0.3695599138736725,0.1323462575674057,-0.1958347707986831,0.3151021599769592
1631290391792,0.354720801115036,0.125176653265953,-0.1800551414489746,0.3023782670497894
1631290391942,0.3440264761447906,0.120220847427845,-0.1764478534460067,0.282847911119461
1631290392007,0.3390817046165466,0.1061190292239189,-0.1743468195199966,0.2609481513500213
1631290392112,0.3363147675991058,0.0987611562013626,-0.1766609251499176,0.2452993243932724
1631290392280,0.3315445482730865,0.1034747660160064,-0.1838440299034118,0.242711529135704
1631290392364,0.3251844644546509,0.1181768476963043,-0.1910123825073242,0.2532315552234649
1631290392475,0.3221499025821686,0.1341138035058975,-0.1907301545143127,0.2731949090957641
1631290392495,0.3231182098388672,0.143257662653923,-0.1809591650962829,0.2975440919399261
1631290392675,0.3228197395801544,0.1454759389162063,-0.1678549200296402,0.3200481235980987
1631290392694,0.3175863325595855,0.145999476313591,-0.157242938876152,0.3359118998050689
1631290392834,0.3175863325595855,0.1493821442127227,-0.1490854769945144,0.3359118998050689
1631290392891,0.3175863325595855,0.157132938504219,-0.1365958005189895,0.3359118998050689
1631290393078,0.3175863325595855,0.172201007604599,-0.1575234681367874,0.3359118998050689
1631290393159,0.3175863325595855,0.156504213809967,-0.1575234681367874,0.3359118998050689
1631290393277,0.3175863325595855,0.1267617344856262,-0.1575234681367874,0.3359118998050689
1631290393308,0.3175863325595855,0.0829445645213127,-0.1575234681367874,0.3359118998050689
1631290393386,0.3175863325595855,0.0396906770765781,-0.1575234681367874,0.3359118998050689
1631290393585,0.3175863325595855,0.0684082955121994,-0.1575234681367874,0.3359118998050689
1631290393633,0.3175863325595855,0.0684082955121994,-0.1263827383518219,0.3359118998050689
1631290393753,0.3175863325595855,0.0684082955121994,-0.1005964055657386,0.3359118998050689
1631290393943,0.3175863325595855,0.0684082955121994,-0.1005964055657386,0.3359118998050689
1631290394123,0.3175863325595855,0.0684082955121994,-0.1005964055657386,0.3359118998050689
1631290394191,0.3175863325595855,0.0447038635611534,-0.1005964055657386,0.3359118998050689
1631290394290,0.3175863325595855,0.0235329680144786,-0.1005964055657386,0.3359118998050689
1631290394359,0.3175863325595855,0.0061040287837386,-0.0747138783335685,0.3359118998050689
1631290394472,0.3175863325595855,-0.0094650369137525,-0.07484070956707,0.3359118998050689
1631290394526,0.3175863325595855,-0.0244788434356451,-0.0822071358561515,0.3359118998050689
1631290394621,0.3175863325595855,-0.0394242107868194,-0.0614494681358337,0.3359118998050689
1631290394698,0.3175863325595855,-0.0541747845709323,-0.0532089918851852,0.3359118998050689
1631290394836,0.3175863325595855,-0.0560744069516658,-0.037218514829874,0.3359118998050689
1631290394905,0.3175863325595855,-0.0487160049378871,-0.0196189731359481,0.3359118998050689
1631290394971,0.3175863325595855,-0.0419348217546939,0.0073775914497673,0.3359118998050689
1631290395158,0.3175863325595855,-0.0347980558872222,0.0257782731205225,0.3359118998050689
1631290395240,0.3175863325595855,-0.0049463245086371,0.0356711186468601,0.3359118998050689
1631290395307,0.3175863325595855,0.0198795814067125,0.0368520841002464,0.3359118998050689
1631290395337,0.7712425589561462,0.0411349833011627,0.0281315762549638,0.6014951467514038
1631290395475,0.7865328192710876,0.0591909736394882,0.0187015458941459,0.596803605556488
1631290395640,0.793434739112854,0.0822435840964317,0.0108527317643165,0.5955911874771118
1631290395714,0.7912909984588623,0.0999674052000045,0.0038242659065872,0.5999078750610352
1631290395774,0.7827237844467163,0.1092914789915084,-0.0064170407131314,0.6075411438941956
1631290395878,0.7691377997398376,0.1127193123102188,-0.0111188553273677,0.6145403981208801
1631290396010,0.7691377997398376,0.1151215806603431,-0.0139257069677114,0.617505669593811
1631290396210,0.7691377997398376,0.1194406002759933,-0.0191469881683588,0.617505669593811
1631290396425,0.7691377997398376,0.1221050322055816,-0.0308855101466178,0.617505669593811
1631290396597,0.7691377997398376,0.1184656247496604,-0.0480805002152919,0.617505669593811
1631290396838,0.7691377997398376,0.1086932569742202,-0.0695960745215416,0.617505669593811
1631290396953,0.7691377997398376,0.0964751243591308,-0.0943078324198722,0.617505669593811
1631290397004,0.772113561630249,0.0834136381745338,-0.1184451878070831,0.6197791695594788
1631290397060,0.775670051574707,0.0673984140157699,-0.1345137506723404,0.6202999353408813
1631290397140,0.7762913107872009,0.0464091412723064,-0.1384738981723785,0.6222798228263855
1631290397175,0.7674465775489807,0.0211908463388681,-0.1322322189807891,0.6278606057167053
1631290397407,0.7463659644126892,-0.0055300174281001,-0.1203291714191436,0.637265682220459
1631290397595,0.7463659644126892,-0.0317263975739479,-0.1033087223768234,0.6484339833259583
1631290397609,0.7463659644126892,-0.0530585348606109,-0.0750176981091499,0.6484339833259583
1631290397702,0.7463659644126892,-0.0631946176290512,-0.0342140048742294,0.6484339833259583
1631290397793,0.7463659644126892,-0.0611082278192043,0.0099323187023401,0.6484339833259583
1631290397809,0.7463659644126892,-0.0540960095822811,0.045758306980133,0.6484339833259583
1631290397848,0.7463659644126892,0.2214385271072387,0.2957779765129089,0.6484339833259583
1631290397889,0.7463659644126892,0.2219052016735077,0.3016014695167541,0.6484339833259583
1631290397937,0.7463659644126892,0.2211940437555313,0.3050321042537689,0.6484339833259583
1631290397974,0.7463659644126892,0.2191828787326812,0.3109498620033264,0.6484339833259583
1631290398045,0.7463659644126892,0.2145026922225952,0.320698618888855,0.6484339833259583
1631290398146,0.7463659644126892,0.2075700908899307,0.3319644033908844,0.6484339833259583
1631290398208,0.7463659644126892,0.201366126537323,0.3412877321243286,0.6484339833259583
1631290398316,0.7463659644126892,0.1976829320192337,0.3478651046752929,0.6484339833259583
1631290398423,0.7463659644126892,0.4082143902778625,0.3520643711090088,0.6484339833259583
1631290398589,0.7463659644126892,0.4062704443931579,0.3535699546337127,0.6484339833259583
1631290398639,0.7463659644126892,0.5236024856567383,0.4878650307655334,0.6484339833259583
1631290398759,0.7463659644126892,0.5212241411209106,0.5027468204498291,0.6484339833259583
1631290398891,0.7463659644126892,0.518891453742981,0.5152289271354675,0.6484339833259583
1631290398939,0.7463659644126892,0.5159879922866821,0.5273321270942688,0.6484339833259583
1631290398982,0.7463659644126892,0.5127658843994141,0.5435976982116699,0.6484339833259583
1631290399179,0.7463659644126892,0.4141031205654144,0.3956518471240997,0.6484339833259583
1631290399366,0.7463659644126892,0.4363179504871368,0.4229462742805481,0.6484339833259583
1631290399461,0.7463659644126892,0.4621867537498474,0.4571462273597717,0.6484339833259583
1631290399503,0.7463659644126892,0.4913535118103027,0.4937437176704407,0.6484339833259583
1631290399535,0.7463659644126892,0.5239431262016296,0.5324323177337646,0.6484339833259583
1631290399692,0.7463659644126892,0.5606193542480469,0.578019380569458,0.6484339833259583
1631290399756,0.7463659644126892,0.6022465825080872,0.6390336155891418,0.6484339833259583
1631290399840,0.7463659644126892,0.6504029035568237,0.6390336155891418,0.6484339833259583
1631290399927,0.7463659644126892,0.417906105518341,0.6390336155891418,0.6484339833259583
1631290400129,0.7463659644126892,0.4776318967342376,0.6390336155891418,0.6484339833259583
1631290400193,0.7463659644126892,-0.2416934221982956,0.6390336155891418,0.6484339833259583
1631290400277,0.7463659644126892,-0.2416934221982956,0.6390336155891418,0.6484339833259583
1631290400329,0.7463659644126892,-0.2416934221982956,0.6390336155891418,0.6484339833259583
1631290400403,0.7463659644126892,-0.2416934221982956,0.6390336155891418,0.6484339833259583
1631290400558,0.7463659644126892,-0.2416934221982956,0.6390336155891418,0.6484339833259583
1631290400671,0.7463659644126892,-0.2416934221982956,0.6390336155891418,0.6484339833259583
1631290400762,0.7463659644126892,-0.2416934221982956,0.6390336155891418,0.6484339833259583
1631290400825,0.7463659644126892,-0.2416934221982956,0.6390336155891418,0.6484339833259583
1631290400905,0.7463659644126892,-0.2416934221982956,0.6390336155891418,0.6484339833259583
1631290401025,0.7463659644126892,-0.2416934221982956,0.6390336155891418,0.6484339833259583
1631290401152,0.7463659644126892,-0.2416934221982956,0.6390336155891418,0.6484339833259583
1631290401264,0.7463659644126892,-0.2416934221982956,0.6390336155891418,0.6484339833259583
1631290401367,0.7463659644126892,-0.2416934221982956,0.6390336155891418,0.6484339833259583
1631290401423,0.7463659644126892,-0.2416934221982956,0.6390336155891418,0.6484339833259583
1631290401543,0.7463659644126892,-0.2416934221982956,0.6390336155891418,0.6484339833259583
1631290401705,0.7463659644126892,0.1783524453639984,0.6390336155891418,0.6484339833259583
1631290401800,0.7463659644126892,0.1761756837368011,0.6390336155891418,0.3040937185287475
1631290401913,0.7463659644126892,0.1604247689247131,0.6390336155891418,0.3379330635070801
1631290401940,0.4097214937210083,0.1379209905862808,0.6390336155891418,0.3563601076602936
1631290402048,0.4060300588607788,0.1181306466460228,0.6390336155891418,0.3603016436100006
1631290402134,0.4059567749500274,0.1044340506196022,-0.0474378578364849,0.3596954047679901
1631290402263,0.4154269099235534,0.094886690378189,-0.0719329044222831,0.3650633096694946
1631290402376,0.4331839978694916,0.0856557413935661,-0.0970829129219055,0.3797893822193146
1631290402476,0.4545692801475525,0.0739717707037925,-0.1196974888443946,0.3963978588581085
1631290402554,0.4763814210891723,0.0596064180135726,-0.1355549097061157,0.4051845073699951
1631290402703,0.4972561299800873,0.0435140915215015,-0.1429382264614105,0.4030215442180633
1631290402760,0.5151419639587402,0.0267550572752952,-0.1422407180070877,0.3953689634799957
1631290402821,0.5260772705078125,0.0015483296010643,-0.1359149813652038,0.3897013068199157
1631290403013,0.5380064845085144,-0.0309434980154037,-0.1272979974746704,0.3980748951435089
1631290403050,0.5402308702468872,-0.0702457651495933,-0.1200268194079399,0.410252958536148
1631290403145,0.5285933613777161,-0.1154763624072074,-0.1156077608466148,0.4218874871730804
1631290403323,0.5162519216537476,-0.1614558845758438,-0.1119726374745369,0.430874615907669
1631290403418,0.5074202418327332,-0.197792500257492,-0.1151658818125724,0.437441736459732
1631290403461,0.5011773705482483,-0.2192148119211197,-0.1151720136404037,0.4432172179222107
1631290403607,0.498596578836441,-0.2299287319183349,-0.1129572764039039,0.4502934217453003
1631290403704,0.4984893202781677,-0.233956828713417,-0.1084142252802848,0.4585561454296112
1631290403790,0.4962511658668518,-0.2336857467889785,-0.0981335937976837,0.4641616940498352
1631290403874,0.492907702922821,-0.230687215924263,-0.0749622285366058,0.4619689285755157
1631290403973,0.4838808476924896,-0.2258920222520828,-0.0373331531882286,0.455829381942749
1631290404249,0.4685510694980621,-0.2211882025003433,0.0030427237506955,0.4527059495449066
1631290404373,0.4454558193683624,-0.2144822776317596,0.0331427492201328,0.4590373337268829
1631290404407,0.4161861538887024,-0.2029765844345092,0.0474482178688049,0.4733876585960388
1631290404449,0.393631249666214,-0.1854718029499054,0.0514279045164585,0.4783616364002228
1631290404487,0.3745686709880829,-0.1633822619915008,0.0533061921596527,0.487469881772995
1631290404541,0.3684118986129761,-0.1379036158323288,0.0568271465599536,0.4923832714557647
1631290404694,0.3718993663787842,-0.1109652295708656,0.0597691684961319,0.4920657575130462
1631290404807,0.3822217881679535,-0.0851874500513076,0.0583059825003147,0.4859597086906433
1631290404934,0.3975058197975158,-0.0664344504475593,0.050768319517374,0.4748997688293457
1631290405117,0.4164490103721618,-0.0583378076553344,0.0381921529769897,0.4635205864906311
1631290405163,0.4340100586414337,-0.0596346780657768,0.0237380247563123,0.4635205864906311
1631290405243,0.4340100586414337,-0.0659361332654953,0.0098952697589993,0.4635205864906311
1631290405305,0.4340100586414337,-0.0733538344502449,-0.0047854757867753,0.4635205864906311
1631290405524,0.4340100586414337,-0.0806506052613258,-0.0282911676913499,0.4635205864906311
1631290405534,0.4340100586414337,-0.0880672112107276,-0.0696417316794395,0.4635205864906311
1631290405692,0.4340100586414337,-0.0937676653265953,-0.127376839518547,0.4635205864906311
1631290405725,0.4340100586414337,-0.0954204797744751,-0.1878562718629837,0.4635205864906311
1631290405806,0.4340100586414337,-0.0932683050632476,-0.2322708666324615,0.3071643412113189
1631290405931,0.4340100586414337,-0.0923792123794555,-0.2577704191207886,0.2757355272769928
1631290406092,0.3618021607398987,-0.0983741134405136,-0.277186781167984,0.2851476371288299
1631290406114,0.3645944595336914,-0.1121740117669105,-0.3012828528881073,0.3119880855083465
1631290406214,0.3664212822914123,-0.129208043217659,-0.3309217393398285,0.3429633975028991
1631290406333,0.3664212822914123,-0.142012745141983,-0.3563954830169678,0.3429633975028991
1631290406390,0.3664212822914123,-0.1453653872013092,-0.364532470703125,0.3429633975028991
1631290406490,0.3664212822914123,-0.1408708393573761,-0.3502413034439087,0.3429633975028991
1631290406673,0.3664212822914123,-0.1342579126358032,-0.3226385414600372,0.3429633975028991
1631290406824,0.3664212822914123,-0.1302414834499359,-0.2970911264419555,0.3429633975028991
1631290406902,0.3664212822914123,-0.1276851892471313,-0.2804484069347381,0.3429633975028991
1631290406950,0.3664212822914123,-0.1213302165269851,-0.2684513628482818,0.3429633975028991
1631290407010,0.3664212822914123,-0.1068366169929504,-0.2524892687797546,0.3429633975028991
1631290407181,0.3664212822914123,-0.0854862332344055,-0.2287439852952957,0.3496491909027099
1631290407412,0.371945708990097,-0.0645084455609321,-0.1981219947338104,0.3603094518184662
1631290407412,0.3778764009475708,-0.0493649914860725,-0.1642285138368606,0.3824627995491028
1631290407466,0.3778764009475708,-0.0399484857916832,-0.1333304345607757,0.3824627995491028
1631290407549,0.3778764009475708,-0.0321711972355842,-0.1112515330314636,0.3824627995491028
1631290407610,0.3778764009475708,-0.0215484481304883,-0.0983155146241188,0.3824627995491028
1631290407743,0.3778764009475708,-0.005647141020745,-0.0838626846671104,0.3824627995491028
1631290407908,0.3778764009475708,0.0145069276914,-0.0587798915803432,0.612186849117279
1631290407957,0.4912438094615936,0.0351470708847045,-0.0263166911900043,0.5810308456420898
1631290408029,0.5275612473487854,0.0513835996389389,0.0018481620354577,0.5469884276390076
1631290408167,0.5390850305557251,0.0599096044898033,0.0186558626592159,0.5174041986465454
1631290408194,0.5325462818145752,0.0605788715183734,0.0252497140318155,0.4967143535614013
1631290408293,0.5163993835449219,0.0552522167563438,0.026490744203329,0.4881095290184021
1631290408608,0.4965694844722748,0.0448924079537391,0.0250603295862674,0.4919746816158294
1631290408648,0.4754890203475952,0.0290211718529462,0.0210905484855175,0.5029724836349487
1631290408688,0.4553777277469635,0.0071767168119549,0.014845841564238,0.5126618146896362
1631290408734,0.4404564201831817,-0.0197479836642742,0.0051793586462736,0.516781210899353
1631290408838,0.4350145757198334,-0.0486965179443359,-0.0100712291896343,0.5175715684890747
1631290409049,0.4406835436820984,-0.0743618831038475,-0.0296484529972076,0.5183075070381165
1631290409142,0.4576703608036041,-0.0918208658695221,-0.047119852155447,0.5119823813438416
1631290409312,0.4943802058696747,-0.1017196699976921,-0.0556918941438198,0.4976191222667694
1631290409446,0.5273927450180054,-0.1100897341966629,-0.0594829767942428,0.4776192009449005
1631290409494,0.5472040772438049,-0.1233763396739959,-0.0710399150848388,0.4598288834095001
1631290409724,0.552314817905426,-0.1418119817972183,-0.0982344970107078,0.4620368778705597
1631290409896,0.5445618033409119,-0.1590842604637146,-0.136927992105484,0.471282809972763
1631290410125,0.5406436920166016,-0.1663405895233154,-0.1760044991970062,0.4840607047080993
1631290410174,0.544528067111969,-0.1601088047027588,-0.2046825289726257,0.4965944588184356
1631290410222,0.5566456913948059,-0.1446597278118133,-0.2219658195972442,0.5041859745979309
1631290410268,0.575955331325531,-0.1271185427904129,-0.2306169718503952,0.501775860786438
1631290410300,0.6022483706474304,-0.112741619348526,-0.2304524034261703,0.4877912104129791
1631290410351,0.6349127292633057,0.3969157338142395,-0.2278295457363128,0.4677334725856781
1631290410459,0.6710085272789001,0.3994364738464355,-0.2258195430040359,0.4495226442813873
1631290410538,0.7062450051307678,0.4022569060325622,-0.2246233224868774,0.4320401549339294
1631290410757,0.7369243502616882,0.4045293629169464,-0.1679233610630035,0.404167503118515
1631290410818,0.7572829127311707,0.404559850692749,-0.1657083332538604,0.404167503118515
1631290410837,0.7572829127311707,0.40237757563591,-0.1673192381858825,0.404167503118515
1631290410924,0.7572829127311707,0.4004764556884765,-0.1743756234645843,0.404167503118515
1631290410947,0.7572829127311707,0.4013583660125732,-0.1849339753389358,0.404167503118515
1631290411025,0.7572829127311707,0.4050846695899963,-0.1930329948663711,0.404167503118515
1631290411092,0.7572829127311707,0.4231629073619842,-0.1906951069831848,0.404167503118515
1631290411264,0.7572829127311707,0.444040298461914,-0.1697705239057541,0.404167503118515
1631290411410,0.7572829127311707,0.4672012627124786,-0.1300562769174575,0.404167503118515
1631290411445,0.7572829127311707,0.4922956228256225,-0.1300562769174575,0.404167503118515
1631290411578,0.7572829127311707,0.4916046261787414,-0.1300562769174575,0.404167503118515
1631290411608,0.7572829127311707,0.4924032986164093,-0.1300562769174575,0.404167503118515
1631290411670,0.7572829127311707,-0.1015634313225746,-0.1300562769174575,0.404167503118515
1631290411825,0.7572829127311707,-0.0881490781903266,-0.1300562769174575,0.404167503118515
1631290411960,0.7572829127311707,-0.0716234743595123,0.0169197637587785,0.404167503118515
1631290412011,0.7572829127311707,-0.0728304088115692,-0.0358657166361808,0.404167503118515
1631290412144,0.7572829127311707,-0.0660156160593032,-0.0047756992280483,0.404167503118515
1631290412292,0.7572829127311707,-0.0510316304862499,0.0152062065899372,0.404167503118515
1631290412456,0.7572829127311707,-0.040925532579422,0.0217192079871892,0.404167503118515
1631290412489,0.7572829127311707,-0.0458824187517166,0.0173612423241138,0.404167503118515
1631290412520,0.7572829127311707,-0.063191257417202,0.0083007849752902,0.404167503118515
1631290412592,0.7572829127311707,-0.047962125390768,0.0016734999371692,0.404167503118515
1631290412713,0.3957801759243011,-0.0408131517469882,0.0017178696580231,0.5197597146034241
1631290412987,0.3983452916145324,-0.041235577315092,0.0106242280453443,0.5009387731552124
1631290413058,0.4021967649459839,-0.046253889799118,0.0259420499205589,0.4867809414863586
1631290413237,0.4030832648277282,-0.0553225874900817,0.0406323671340942,0.4836919903755188
1631290413295,0.4030832648277282,-0.0624116994440555,0.0494101978838443,0.4836919903755188
1631290413339,0.4030832648277282,-0.0624116994440555,0.060309462249279,0.4836919903755188
1631290413552,0.4030832648277282,-0.0624116994440555,0.0647225603461265,0.4836919903755188
1631290413590,0.4030832648277282,-0.0671897679567337,0.0629613846540451,0.4836919903755188
1631290413642,0.4030832648277282,-0.0638418048620224,0.0540172643959522,0.4836919903755188
1631290413679,0.4030832648277282,-0.0535545274615287,0.0373686850070953,0.4836919903755188
1631290413822,0.4030832648277282,-0.0477808788418769,0.0169505253434181,0.4836919903755188
1631290413824,0.4030832648277282,-0.0485617108643054,-0.0024173671845346,0.4836919903755188
1631290413918,0.4082657992839813,-0.0569668225944042,-0.0197788029909133,0.4806320965290069
1631290414034,0.4096645414829254,-0.1001669019460678,-0.036165926605463,0.4684765636920929
1631290414159,0.4098442196846008,-0.1441120356321334,-0.054480854421854,0.446777880191803
1631290414364,0.4098442196846008,-0.170645460486412,-0.0770002305507659,0.446777880191803
1631290414375,0.4098442196846008,-0.1616776883602142,-0.1063978299498558,0.446777880191803
1631290414442,0.4098442196846008,-0.1225490197539329,-0.1359272301197052,0.446777880191803
1631290414577,0.4098442196846008,-0.0750939026474952,-0.1761847883462906,0.446777880191803
1631290414692,0.4098442196846008,-0.0397967062890529,-0.2000353634357452,0.446777880191803
1631290414780,0.4098442196846008,-0.0283703971654176,-0.2074413150548935,0.5644258260726929
1631290414946,0.4098442196846008,-0.0292185023427009,-0.2032330334186554,0.5422164797782898
1631290415257,0.4098442196846008,-0.0266149267554283,-0.1975801885128021,0.5220787525177002
1631290415476,0.4098442196846008,-0.0177600271999835,-0.1921760588884353,0.5039180517196655
1631290415724,0.4098442196846008,-0.0195353887975215,-0.1855709999799728,0.4877139925956726
1631290415832,0.4098442196846008,-0.021000936627388,-0.1773255467414856,0.4757245481014251
1631290415870,0.4098442196846008,-0.0236247386783361,-0.1658722013235092,0.4701518714427948
1631290415928,0.4624713659286499,-0.0259796492755413,-0.1487721651792526,0.4694083929061889
1631290415965,0.4628126919269562,-0.0103032803162932,-0.129855528473854,0.4693699479103088
1631290416019,0.6521190404891968,0.2170436233282089,0.1717404425144195,0.5675930976867676
1631290416080,0.6247310638427734,0.2204856723546981,0.1774365454912185,0.8706990480422974
1631290416208,0.6024560332298279,0.2157992720603943,0.1796222776174545,0.8489459156990051
1631290416246,0.6024560332298279,0.2043770998716354,0.1796222776174545,0.8389595746994019
1631290416435,0.6024560332298279,0.1909540593624115,0.1796222776174545,0.827917218208313
1631290416537,0.6024560332298279,0.180920273065567,0.1923778653144836,0.8192251324653625
1631290416619,0.6024560332298279,0.1766321659088134,0.2046482264995575,0.8152016997337341
1631290416688,0.6024560332298279,0.1769285202026367,0.2184463739395141,0.814988374710083
1631290416755,0.6024560332298279,0.3382818698883056,0.2374669015407562,0.8166240453720093
1631290416817,0.6024560332298279,0.5236619710922241,0.2635142207145691,0.8894409537315369
1631290416853,0.6259248852729797,0.6417313814163208,0.2986775040626526,0.9108958840370178
1631290416911,0.6481581330299377,0.6437797546386719,0.343872994184494,0.9341506958007812
1631290416946,0.6729363799095154,0.6449191570281982,0.3428127467632293,0.9586491584777832
1631290417025,0.6513864994049072,0.643997073173523,0.3346164524555206,0.9619846940040588
1631290417117,0.63419109582901,0.640945553779602,0.3228845298290252,0.9614309072494508
1631290417184,0.345740795135498,0.5674338340759277,-0.3004081845283508,0.9194294810295104
1631290417250,0.3150031566619873,0.5631335973739624,-0.3336067497730255,0.5882095098495483
1631290417475,0.2804954946041107,0.5600243210792542,-0.340894490480423,0.5980333089828491
1631290417515,0.2773599922657013,0.5577157735824585,-0.3063860833644867,0.6151707768440247
1631290417589,0.3910942077636719,0.5864917039871216,0.030073931440711,0.6695774793624878
1631290417934,0.3764555752277374,0.584676206111908,0.0402752757072448,0.6851545572280884
1631290417991,0.3589664697647095,0.5833330750465393,0.0494846887886524,0.6914464235305786
1631290418040,0.341408759355545,0.5823841691017151,0.0520505793392658,0.6908255219459534
1631290418080,0.3304974436759949,0.4977779686450958,0.0489801913499832,0.6894521713256836
1631290418109,0.3304414749145508,0.2974925339221954,0.0435231886804103,0.5390440821647644
1631290418262,0.3397385478019714,-0.0257629826664924,0.039494227617979,0.5383391380310059
1631290418308,0.353285938501358,-0.0273640565574169,0.0393781103193759,0.537161648273468
1631290418547,0.36639004945755,-0.0171277448534965,0.053169697523117,0.5340669751167297
1631290418606,0.3808275163173675,0.0042803427204489,0.0685944855213165,0.5256046652793884
1631290418757,0.3901185691356659,0.0317187123000621,0.0792882144451141,0.5226767659187317
1631290418805,0.3950702250003814,0.0601329989731311,0.0838646367192268,0.5218119621276855
1631290418898,0.3976393640041351,0.0874353796243667,0.0860829502344131,0.5220247507095337
1631290419042,0.3992071747779846,0.1145719662308693,0.0892485380172729,0.5223099589347839
1631290419158,0.4012128710746765,0.1427058428525924,0.0927722975611686,0.5209206342697144
1631290419219,0.3579462170600891,0.0838589146733284,-0.0134626328945159,0.4753066897392273
1631290419277,0.3648029863834381,0.1076695695519447,-0.0174950063228607,0.4675982296466827
1631290419304,0.3768558204174042,0.1194604039192199,-0.0212489105761051,0.4658304750919342
1631290419652,0.4082842469215393,0.1294178962707519,-0.0162915214896202,0.4732454419136047
1631290419691,0.3931514620780945,0.1239212676882743,-0.0142270224168896,0.4698869884014129
1631290419785,0.416187435388565,0.1378970593214035,-0.0154079478234052,0.4705064594745636
1631290419960,0.4133702218532562,0.1460335701704025,-0.0153089882805943,0.4624930322170257
1631290420031,0.3995998501777649,0.1510305553674698,-0.0204700268805027,0.4533593654632568
1631290420136,0.3764184117317199,0.1518328040838241,-0.0315124802291393,0.4472611248493194
1631290420220,0.3470435440540313,0.1508136987686157,-0.0406909845769405,0.4488956928253174
1631290420292,0.3168084323406219,0.1903873085975647,-0.0353211648762226,0.4620321989059448
1631290420341,0.3168084323406219,0.2308513075113296,-0.0101042948663234,0.4620321989059448
1631290420396,0.3168084323406219,0.2648832201957702,0.0263754241168499,0.4620321989059448
1631290420442,0.3168084323406219,0.2881102859973907,0.0613151863217353,0.4620321989059448
1631290420554,0.3168084323406219,0.2996834814548492,0.0870609506964683,0.4620321989059448
1631290420758,0.3168084323406219,0.302020251750946,0.0870609506964683,0.4620321989059448
1631290421009,0.3168084323406219,0.3016639649868011,0.0870609506964683,0.4620321989059448
1631290421151,0.3168084323406219,0.3028500974178314,0.0870609506964683,0.4620321989059448
1631290421391,0.3168084323406219,0.3051958382129669,0.0870609506964683,0.4620321989059448
1631290421471,0.3168084323406219,0.3069115579128265,0.0870609506964683,0.4620321989059448
1631290421526,0.3168084323406219,0.3074961900711059,0.2975546717643738,0.4620321989059448
1631290421716,0.3168084323406219,0.3074419200420379,0.2967533469200134,0.4620321989059448
1631290421877,0.3168084323406219,0.4435011148452759,0.5721816420555115,0.4620321989059448
1631290421893,0.3168084323406219,0.4584089517593384,0.604533314704895,0.4620321989059448
1631290422003,0.6872860193252563,0.4325277507305145,0.542953372001648,0.5801346302032471
1631290422094,0.6362131237983704,0.4205228686332702,0.5150849223136902,0.544867992401123
1631290422111,0.5949257016181946,0.4079378247261047,0.491433709859848,0.5143239498138428
1631290422189,0.5949257016181946,0.4400024116039276,0.5906161069869995,0.5143239498138428
1631290422193,0.5949257016181946,0.4412350952625274,0.5994497537612915,0.5143239498138428
1631290422251,0.5949257016181946,0.4513981938362121,0.5901447534561157,0.5143239498138428
1631290422475,0.5949257016181946,0.4780737161636352,0.5901447534561157,0.5143239498138428
1631290422557,0.5949257016181946,0.5151576399803162,0.5901447534561157,0.5143239498138428
1631290422580,0.5949257016181946,0.6248363852500916,0.6048665642738342,0.5143239498138428
1631290422675,0.5949257016181946,0.6504064798355103,0.6246426701545715,0.5143239498138428
1631290422770,0.5949257016181946,0.6679297089576721,0.6484614610671997,0.5143239498138428
1631290422825,0.5949257016181946,0.6814202666282654,0.6545763611793518,0.5143239498138428
1631290423203,0.6402484178543091,0.6954153776168823,0.6576666235923767,0.4827744364738464
1631290423237,0.3210775554180145,0.7387221455574036,0.7009851336479187,0.433013379573822
1631290423361,0.3210775554180145,0.7533048391342163,0.7100361585617065,0.433013379573822
1631290423491,0.3210775554180145,0.7654686570167542,0.7220672965049744,0.433013379573822
1631290423823,0.3210775554180145,0.77330082654953,0.7364199757575989,0.433013379573822
1631290423855,0.3210775554180145,0.7760206460952759,0.7526211738586426,0.433013379573822
1631290423861,0.3210775554180145,0.8276698589324951,0.8042775988578796,0.433013379573822
1631290423933,0.3210775554180145,0.8235918283462524,0.8150897026062012,0.433013379573822
1631290424123,0.3210775554180145,0.8163907527923584,0.8169029951095581,0.433013379573822
1631290424148,0.3210775554180145,0.8197330832481384,0.823540985584259,0.433013379573822
1631290424179,0.3210775554180145,0.8547987937927246,0.8118487000465393,0.433013379573822
1631290424337,0.3210775554180145,0.8081160187721252,0.8055784106254578,0.433013379573822
1631290424469,0.3210775554180145,0.8019227385520935,0.7970756888389587,0.433013379573822
1631290424591,0.4498261213302612,0.7963966727256775,0.7880586981773376,0.433013379573822
1631290424720,0.4498261213302612,0.791146993637085,0.7971038818359375,0.433013379573822
1631290424907,0.4498261213302612,0.7857453227043152,0.8070479035377502,0.433013379573822
1631290424907,0.4498261213302612,0.6921114325523376,0.7339219450950623,0.433013379573822
1631290424971,0.4498261213302612,0.6858862042427063,0.7362663745880127,0.433013379573822
1631290425000,0.4498261213302612,0.7637973427772522,0.8141945004463196,0.433013379573822
1631290425032,0.4498261213302612,0.7590388655662537,0.8132203817367554,0.433013379573822
1631290425081,0.4498261213302612,0.8139578104019165,0.8110992908477783,0.433013379573822
1631290425116,0.4498261213302612,0.7620304822921753,0.7285788655281067,0.433013379573822
1631290425175,0.4498261213302612,0.7634877562522888,0.7194072604179382,0.433013379573822
1631290425258,0.4498261213302612,0.8130934834480286,0.7063993811607361,0.433013379573822
1631290425289,0.4498261213302612,0.8028603196144104,0.6895442008972168,0.433013379573822
1631290425375,0.4498261213302612,0.7381783723831177,0.6701127290725708,0.433013379573822
1631290425458,0.4498261213302612,0.7217950820922852,0.6518605947494507,0.433013379573822
1631290425791,0.4498261213302612,0.7092504501342773,0.6379647850990295,0.433013379573822
1631290425993,0.4498261213302612,0.7012926936149597,0.6269716024398804,0.433013379573822
1631290426058,0.4498261213302612,0.7609784007072449,0.6147897839546204,0.433013379573822
1631290426238,0.4498261213302612,0.7563523650169373,0.599846363067627,0.433013379573822
1631290426286,0.4498261213302612,0.828097939491272,0.5847692489624023,0.433013379573822
1631290426380,0.4498261213302612,0.8223791122436523,0.5875418186187744,0.433013379573822
1631290426463,0.4498261213302612,0.7432490587234497,0.4284566640853882,0.433013379573822
1631290426476,0.4498261213302612,0.7384856343269348,0.4229035377502441,0.433013379573822
1631290426558,0.4498261213302612,0.6661127209663391,0.4155800640583038,0.433013379573822
1631290426574,0.4498261213302612,0.6356449723243713,0.4076466560363769,0.433013379573822
1631290426691,0.4498261213302612,0.5479491353034973,0.39393150806427,0.433013379573822
1631290426693,0.4498261213302612,0.6339317560195923,0.4002743363380432,0.433013379573822
1631290427024,0.4498261213302612,0.5642210841178894,0.3896953761577606,0.433013379573822
1631290427074,0.4498261213302612,0.5828945636749268,0.3901408016681671,0.433013379573822
1631290427141,0.4498261213302612,0.6045531630516052,0.3925384283065796,0.433013379573822
1631290427333,0.4498261213302612,0.6299346089363098,0.389522910118103,0.433013379573822
1631290427365,0.4498261213302612,0.6589993834495544,0.389522910118103,0.433013379573822
1631290427509,0.4498261213302612,0.5256884098052979,0.389522910118103,0.433013379573822
1631290427602,0.4498261213302612,0.5209068655967712,0.389522910118103,0.433013379573822
1631290427650,0.4498261213302612,0.2010982781648636,0.389522910118103,0.433013379573822
1631290427703,0.4498261213302612,0.1729921102523803,0.389522910118103,0.433013379573822
1631290427741,0.4498261213302612,0.1402416080236435,0.389522910118103,0.433013379573822
1631290427789,0.4498261213302612,0.1052766516804695,0.389522910118103,0.433013379573822
1631290427893,0.4498261213302612,0.0666962340474128,0.389522910118103,0.433013379573822
1631290428049,0.4498261213302612,0.0234381258487701,0.389522910118103,0.433013379573822
1631290428173,0.4498261213302612,-0.0193677693605422,0.389522910118103,0.433013379573822
1631290428233,0.4498261213302612,-0.0484074465930461,0.389522910118103,0.433013379573822
1631290428303,0.4498261213302612,-0.0408841595053672,0.389522910118103,0.433013379573822
1631290428466,0.4498261213302612,-0.0314498804509639,0.2557495832443237,0.433013379573822
1631290428501,0.4498261213302612,-0.0265037640929222,0.2257368266582489,0.433013379573822
1631290428678,0.4498261213302612,-0.0292028710246086,0.1875095218420028,0.433013379573822
1631290428743,0.4498261213302612,-0.0356712974607944,0.1566931456327438,0.433013379573822
1631290428770,0.4498261213302612,-0.0514828786253929,0.142332911491394,0.433013379573822
1631290428861,0.4498261213302612,-0.0503365099430084,0.1422847658395767,0.433013379573822
1631290429017,0.4498261213302612,-0.0110646290704607,0.149135485291481,0.433013379573822
1631290429019,0.4498261213302612,-0.0333351343870162,0.146969735622406,0.433013379573822
1631290429311,0.167669266462326,0.0073171979747712,0.1480181813240051,0.4851671159267425
1631290429358,0.2069664001464843,0.0192022901028394,0.1468388736248016,0.4856358766555786
1631290429391,0.2353574186563491,0.0256574247032403,0.1524026095867157,0.4770898520946502
1631290429557,0.2672567069530487,0.0275192819535732,0.1459592282772064,0.4612025916576385
1631290429592,0.3134612441062927,0.0248580183833837,0.1468107551336288,0.4417354762554168
1631290429675,0.3701412677764892,0.0177233014255762,0.1440046429634094,0.4244901239871979
1631290429900,0.4246881604194641,0.0069336988963186,0.1153020560741424,0.4152375757694244
1631290429959,0.4652602970600128,-0.0044753518886864,0.0964021831750869,0.4156389236450195
1631290430153,0.4870862364768982,-0.0118253817781806,0.0916540473699569,0.4234130382537842
1631290430347,0.4915299117565155,-0.0118970312178134,0.0979982241988182,0.4335874617099762
1631290430396,0.483476847410202,-0.0081856083124876,0.1075054183602333,0.4427358508110046
1631290430442,0.4693174660205841,-0.0110477125272154,0.1118573993444442,0.4490706920623779
1631290430679,0.4715057909488678,-0.0309330001473426,0.1068670004606247,0.4544212222099304
1631290430767,0.4724096357822418,-0.0686730220913887,0.0949217230081558,0.4515232443809509
1631290430829,0.4821674823760986,-0.1512438803911209,0.0801685899496078,0.4400838315486908
1631290430832,0.4718870520591736,-0.1137071922421455,0.0841112658381462,0.4462966620922088
1631290430910,0.4916097223758697,-0.1757283210754394,0.0829704254865646,0.4358879923820495
1631290431024,0.5012840032577515,-0.1926289945840835,0.0874641686677932,0.4362722039222717
1631290431063,0.5078938007354736,-0.2068460136651992,0.0897657051682472,0.4439209401607513
1631290431228,0.503940761089325,-0.2177522033452987,0.0905428305268287,0.4592956304550171
1631290431324,0.4814538359642029,-0.2255172878503799,0.0941437631845474,0.4792485237121582
1631290431439,0.4351168870925903,-0.2348177134990692,0.102109670639038,0.497728168964386
1631290431561,0.3661477267742157,-0.2507503032684326,0.1112240478396415,0.5094805359840393
1631290431566,0.2840564548969269,-0.2737554311752319,0.1165871769189834,0.5111887454986572
1631290431658,0.2073658406734466,-0.2982703745365143,0.1153727695345878,0.5036576390266418
1631290431810,0.1580960303544998,-0.3147602379322052,0.1079894825816154,0.5036576390266418
1631290431867,0.1580960303544998,-0.3175486922264099,0.1002685204148292,0.5036576390266418
1631290432045,0.1580960303544998,-0.3079021871089935,0.0975666940212249,0.5036576390266418
1631290432172,0.1580960303544998,-0.2923406064510345,0.1003898307681083,0.5036576390266418
1631290432322,0.1580960303544998,-0.2741502523422241,0.1023899018764495,0.5036576390266418
1631290432430,0.2321110069751739,-0.2496791183948516,0.0980215147137641,0.2828556597232818
1631290432555,0.2283965349197387,-0.2133291661739349,0.0861516594886779,0.2839579582214355
1631290432675,0.2296743690967559,-0.168614462018013,0.0706908479332923,0.2919012904167175
1631290432847,0.2427345216274261,-0.1263278275728225,0.0560352504253387,0.3083784282207489
1631290432919,0.2672214806079864,-0.0956373214721679,0.0431416518986225,0.3303751945495605
1631290432983,0.2959228754043579,-0.078635461628437,0.0294757541269063,0.3561232388019562
1631290433138,0.3237415552139282,-0.0712362602353096,0.0129788815975189,0.3847286105155945
1631290433208,0.3521117866039276,-0.0681171119213104,-0.0052307997830212,0.4124883115291595
1631290433269,0.3807925879955292,-0.0661185607314109,-0.0211956240236759,0.4346371293067932
1631290433333,0.4048611223697662,-0.065868891775608,-0.0320676788687706,0.4487873315811157
1631290433430,0.4189990758895874,-0.07020253688097,-0.0382062159478664,0.4569857716560364
1631290433697,0.4243274927139282,-0.078411765396595,-0.0463449880480766,0.4650762379169464
1631290433768,0.4358453452587127,-0.0855994448065757,-0.0597707331180572,0.4897351264953613
1631290433817,0.451118141412735,-0.0878810063004493,-0.0746744498610496,0.5190275311470032
1631290433855,0.4671546518802643,-0.0881204232573509,-0.0838751718401908,0.5480780005455017
1631290434090,0.4800255596637726,-0.0926611796021461,-0.0834956094622612,0.5723236203193665
1631290434151,0.4895290434360504,-0.1027602776885032,-0.0771399438381195,0.5892245769500732
1631290434213,0.496998518705368,-0.1101044565439224,-0.0700897723436355,0.5992066860198975
1631290434413,0.5009703040122986,-0.1015803813934326,-0.0648356974124908,0.6029117107391357
1631290434469,0.4996098577976227,-0.0693462938070297,-0.0619443207979202,0.6016063094139099
1631290434573,0.4918100535869598,0.0676453039050102,-0.0620493963360786,0.5959407091140747
1631290434576,0.4951177835464477,-0.0104277329519391,-0.0614753179252147,0.59809410572052
1631290434708,0.4899267554283142,0.148361787199974,-0.0603570789098739,0.5976308584213257
1631290434785,0.4865280091762543,0.2171536386013031,-0.053882211446762,0.6029326319694519
1631290434843,0.4805378913879394,0.2691088914871216,-0.0473570600152015,0.6096083521842957
1631290434908,0.4737107455730438,0.3072015345096588,-0.0398066416382789,0.6135415434837341
1631290435057,0.4668085873126983,0.3361739814281463,-0.0299375299364328,0.6098535060882568
1631290435218,0.4580007195472717,0.3576511144638061,-0.0175834521651268,0.5954214930534363
1631290435273,0.4466216266155243,0.3716706931591034,-0.0059316870756447,0.5727981328964233
1631290435607,0.4363999664783478,0.3797687590122223,0.001005973899737,0.5498518347740173
1631290435761,0.4297527372837066,0.3836248815059662,-8.903090929379687e-05,0.5348764061927795
1631290435892,0.4248096942901611,0.3839168846607208,-0.0094441846013069,0.5308254957199097
1631290435954,0.4201694428920746,0.3805685043334961,0.0302708763629198,0.5343936085700989
1631290436263,0.4194657504558563,0.3727439641952514,0.0489126071333885,0.5420485138893127
1631290436408,0.6080062985420227,0.566443681716919,0.0611452795565128,0.5508878827095032
1631290436491,0.6124159693717957,0.5512488484382629,0.080504186451435,0.5563633441925049
1631290436519,0.6391443610191345,0.5605137944221497,0.2742190361022949,0.5858639478683472
1631290436604,0.7053280472755432,0.623663067817688,0.3035885393619537,0.5722835063934326
1631290436807,0.6946008205413818,0.5974258184432983,0.3324839174747467,0.5528447031974792
1631290436941,0.7713396549224854,0.6769277453422546,0.6066117882728577,0.652935802936554
1631290437078,0.7720178961753845,0.6609060764312744,0.5760266780853271,0.6463775038719177
1631290437111,0.885425865650177,0.7894248366355896,0.7873734831809998,0.6465850472450256
1631290437176,0.9027965664863586,0.8002138733863831,0.781803548336029,0.8041444420814514
1631290437347,0.9853923320770264,0.8997577428817749,0.8066704273223877,0.8430930972099304
1631290437413,0.9822396039962769,0.8957979083061218,0.7764426469802856,0.8840116858482361
1631290437558,0.9780919551849364,0.8926427364349365,0.7479965686798096,0.8765535950660706
1631290437571,1.0224459171295166,0.9481137990951538,0.805990993976593,0.9744936227798462
1631290437593,1.052320957183838,0.98452228307724,0.800473153591156,1.2054327726364136
1631290437654,1.0760058164596558,1.05864679813385,0.7966406941413879,1.2282800674438477
1631290437706,1.0412192344665527,1.055440902709961,0.877373218536377,1.253488540649414
1631290437746,1.0663939714431765,1.14579975605011,0.9023592472076416,1.2816596031188965
1631290437945,1.082436203956604,1.167982578277588,0.912424385547638,1.305375576019287
1631290437984,1.1135354042053225,1.1765683889389038,0.9392173886299132,1.382397174835205
1631290437996,1.0746872425079346,1.176642656326294,0.940081000328064,1.3415837287902832
1631290438191,1.0924855470657349,1.1463119983673096,0.869519054889679,1.3944116830825806
1631290438473,1.136441707611084,1.1652517318725586,0.9142796397209167,1.445552945137024
1631290438490,1.0476189851760864,1.1462860107421875,0.7828670740127563,1.5053631067276
1631290438520,1.0806524753570557,1.2088807821273804,0.9125156402587892,1.5069068670272827
1631290438537,0.916736364364624,1.1928216218948364,0.8699789047241211,1.5725579261779783
1631290438569,0.916736364364624,1.212629795074463,0.918989360332489,1.5725579261779783
1631290438682,0.916736364364624,1.2435009479522705,0.8649039268493652,1.5725579261779783
1631290438690,0.916736364364624,1.2201098203659058,0.9392545223236084,1.5725579261779783
1631290438694,0.916736364364624,1.2225614786148071,0.8664678931236267,1.5725579261779783
1631290438776,0.916736364364624,1.1715238094329834,0.8668428659439087,1.5725579261779783
1631290438819,0.916736364364624,1.129374861717224,0.7565397024154663,1.5725579261779783
1631290438995,0.916736364364624,1.0333632230758667,0.7263996601104736,1.5725579261779783
1631290439075,0.6269218325614929,1.0024092197418213,0.6994211673736572,1.5725579261779783
1631290439124,0.5655038356781006,0.95257169008255,0.6746836304664612,0.6543279886245728
1631290439196,0.5364665389060974,0.9544855356216432,0.6690418124198914,0.5996171236038208
1631290439324,0.5390793681144714,0.9564321637153624,0.6613721251487732,0.5668609142303467
1631290439534,0.8921942710876465,1.1284387111663818,0.6689075827598572,1.353365421295166
1631290439771,0.8921942710876465,1.116138219833374,0.6610502004623413,1.353365421295166
1631290439838,0.8921942710876465,1.026598572731018,0.4100988209247589,1.353365421295166
1631290439873,0.8921942710876465,0.9780496954917908,0.4027120172977447,1.353365421295166
1631290440125,0.8921942710876465,0.9441723227500916,0.2572066187858581,1.353365421295166
1631290440203,0.8981072306632996,0.9315006732940674,0.1743165552616119,1.353365421295166
1631290440342,0.8981072306632996,0.8171746134757996,0.1655297130346298,1.353365421295166
1631290440408,0.8981072306632996,0.8224267363548279,0.1605689227581024,1.353365421295166
1631290440439,0.8981072306632996,0.8287370204925537,0.1756261587142944,1.353365421295166
1631290440667,0.9453429579734802,0.8349220156669617,0.193930298089981,1.4167497158050537
1631290440773,1.0102020502090454,0.8398284912109375,0.212735429406166,1.4928429126739502
1631290440966,1.055680751800537,0.8251552581787109,0.2316013723611831,1.5751852989196775
1631290441274,1.055680751800537,0.8518977761268616,0.2528879940509796,1.5751852989196775
1631290441343,1.055680751800537,0.8800254464149475,0.2801974713802337,1.5751852989196775
1631290441518,1.055680751800537,0.3002521097660064,-0.2274065017700195,1.5751852989196775
1631290441534,1.055680751800537,0.9106173515319824,0.3161145150661468,1.5751852989196775
1631290441563,1.055680751800537,0.0298761148005723,-0.2054430395364761,1.5751852989196775
1631290441650,1.055680751800537,0.0496875829994678,-0.1787173748016357,1.5751852989196775
1631290441700,1.055680751800537,0.0773315951228141,0.4712762534618377,1.5751852989196775
1631290441739,1.055680751800537,0.1100790575146675,0.5489905476570129,1.5751852989196775
1631290441857,1.055680751800537,0.1415144354104995,0.5489905476570129,1.5751852989196775
1631290441919,1.055680751800537,0.163118228316307,0.5489905476570129,1.5751852989196775
1631290441964,1.055680751800537,0.1666593849658966,0.5489905476570129,1.5751852989196775
1631290442114,1.055680751800537,0.0461313314735889,0.5489905476570129,1.5751852989196775
1631290442191,1.055680751800537,-0.1034332960844039,0.5217922925949097,1.5751852989196775
1631290442300,1.055680751800537,0.7355812788009644,0.4482100009918213,1.5751852989196775
1631290442376,1.055680751800537,0.7225323915481567,0.3969659209251404,1.5751852989196775
1631290442462,1.055680751800537,0.7225323915481567,0.3597792983055115,1.5751852989196775
1631290442612,1.765044093132019,1.082950472831726,0.6774119734764099,1.2251631021499634
1631290442668,1.698181390762329,1.1022008657455444,0.6357306241989136,1.2199673652648926
1631290442734,1.6226094961166382,1.0375038385391235,0.5972962379455566,1.1472368240356443
1631290442788,1.559521198272705,0.9819583892822266,0.562859058380127,1.0887516736984253
1631290442962,1.505176305770874,0.9334735870361328,0.5331273674964905,1.0420879125595093
1631290443037,1.4572746753692627,0.8905041217803955,0.3949287533760071,1.051999568939209
1631290443083,1.414484977722168,0.8520296812057495,0.3719749450683594,1.0201231241226196
1631290443239,1.3758296966552734,0.8174859285354614,0.3493323922157287,1.0474774837493896
1631290443329,1.3404144048690796,0.7864742279052734,0.3264457285404205,1.0189237594604492
1631290443539,1.3076714277267456,0.7583563923835754,0.3276314735412597,0.9918782114982604
1631290443625,1.2774449586868286,0.7609484791755676,0.3267516493797302,0.9799991846084596
1631290443729,1.249722957611084,0.7623379826545715,0.3243845701217651,0.957542359828949
1631290443823,1.2592908143997192,0.6429274082183838,0.3213075697422027,0.9243568778038024
1631290443867,1.2878159284591677,0.7368388772010803,0.492432564496994,0.9272300601005554
1631290443975,0.7844386696815491,0.7111606597900391,0.4949336349964142,0.9521322250366212
1631290444093,0.4863258302211761,0.4098942279815674,0.2533011734485626,0.7546393871307373
1631290444611,0.2310949563980102,0.2032211720943451,0.2787308990955353,0.6849483847618103
1631290444714,0.220187708735466,0.2104062139987945,0.3032667934894562,0.7031272053718567
1631290444982,0.20061756670475,0.2187491655349731,0.3199382424354553,0.7117277979850769
1631290445151,0.1784131079912185,0.2297923415899276,0.3297622799873352,0.7125426530838013
1631290445184,0.1579945683479309,0.5047405362129211,0.4718413054943084,0.645226240158081
1631290445221,0.1376084387302398,1.0178250074386597,0.4808540046215057,0.656128466129303
1631290445254,0.1157660782337188,1.0305657386779783,0.4932964146137237,0.4825316965579986
1631290445284,0.1157660782337188,1.1188617944717407,0.6542139053344727,0.4896295070648193
1631290445325,0.1157660782337188,1.1186800003051758,0.6636484265327454,0.5062009692192078
1631290445391,0.1157660782337188,1.1180967092514038,0.6700050234794617,0.4352867305278778
1631290445428,0.1157660782337188,1.117495894432068,0.672758162021637,0.4001064896583557
1631290445465,0.0083749163895845,1.1170867681503296,0.6729825139045715,0.8232418894767761
1631290445502,0.8110303282737732,1.08298659324646,0.7452735304832458,0.805564284324646
1631290445530,0.7511007785797119,1.3981800079345703,0.742566704750061,0.8558013439178467
1631290445573,0.7511007785797119,1.4415018558502195,0.7945359945297241,0.9031432271003724
1631290445606,0.7511007785797119,1.4570555686950684,0.8539425730705261,0.9529204368591307
1631290445745,0.7511007785797119,1.5258896350860596,0.8475232720375061,1.227587103843689
1631290445760,0.8142139315605164,1.5343177318572998,0.891127347946167,1.252092361450195
1631290446005,0.8142139315605164,1.5336666107177734,0.8891391754150391,1.2967548370361328
1631290446281,0.8142139315605164,1.5141996145248413,0.8422778248786926,1.2967548370361328
1631290446508,0.8142139315605164,1.4190515279769895,0.8648795485496521,1.2967548370361328
1631290446803,0.8142139315605164,1.4310922622680664,0.888515293598175,1.2967548370361328
1631290446885,0.8142139315605164,1.3905677795410156,0.8190250396728516,1.2967548370361328
1631290446976,0.867973804473877,1.4048773050308228,0.8463175892829895,1.2967548370361328
1631290447022,0.9357340335845948,1.4059393405914309,0.8799235820770264,1.2967548370361328
1631290447044,1.0240556001663208,1.4073635339736938,0.920913815498352,1.3518341779708862
1631290447109,1.0240556001663208,1.4216371774673462,0.9688884615898132,1.336213231086731
1631290447145,1.0240556001663208,1.4510219097137451,0.8135026097297668,1.411841630935669
1631290447201,1.0240556001663208,1.189517617225647,0.8726364970207214,1.466826558113098
1631290447233,1.0240556001663208,1.1274964809417725,0.8086188435554504,1.466826558113098
1631290447283,1.0240556001663208,1.1200615167617798,0.6026092171669006,1.466826558113098
1631290447317,1.0240556001663208,0.8478074669837952,0.6026092171669006,1.466826558113098
1631290447366,1.0240556001663208,0.8215027451515198,0.6026092171669006,1.466826558113098
1631290447421,1.0240556001663208,0.8701516389846802,0.6026092171669006,1.466826558113098
1631290447464,1.0240556001663208,0.9243045449256896,0.6026092171669006,1.466826558113098
1631290447534,1.0240556001663208,0.8881530165672302,0.6026092171669006,1.466826558113098
1631290447600,1.0240556001663208,0.7791659832000732,0.6026092171669006,1.466826558113098
1631290447663,1.0240556001663208,0.8627551794052124,0.6026092171669006,1.466826558113098
1631290447700,1.0240556001663208,0.8627551794052124,0.6026092171669006,1.466826558113098
1631290447757,1.0240556001663208,0.8627551794052124,0.6026092171669006,1.466826558113098
1631290447913,1.0240556001663208,0.8627551794052124,0.6026092171669006,1.466826558113098
1631290447936,1.0240556001663208,0.8627551794052124,0.6026092171669006,1.466826558113098
1631290448141,1.0240556001663208,0.8627551794052124,0.6026092171669006,1.466826558113098
1631290448170,1.0240556001663208,0.8627551794052124,0.6026092171669006,1.466826558113098
1631290448268,1.0240556001663208,0.8627551794052124,0.6026092171669006,1.466826558113098
1631290448358,1.0240556001663208,0.8627551794052124,0.6026092171669006,1.466826558113098
1631290448441,1.0240556001663208,0.8627551794052124,0.6026092171669006,1.466826558113098
1631290448588,0.4844275712966919,0.8627551794052124,0.6026092171669006,1.466826558113098
1631290448652,0.4844275712966919,0.8627551794052124,0.6026092171669006,0.7063610553741455
1631290448763,0.4844275712966919,0.8627551794052124,0.6026092171669006,0.7319202423095703
1631290448953,0.4844275712966919,0.8627551794052124,0.6026092171669006,0.7535915970802307
1631290449070,0.4844275712966919,0.8627551794052124,0.6026092171669006,0.7585737109184265
1631290449075,0.4844275712966919,0.8627551794052124,0.6026092171669006,0.761976420879364
1631290449196,0.4844275712966919,0.8627551794052124,0.6026092171669006,0.7509289979934692
1631290449276,0.4844275712966919,0.8627551794052124,0.6026092171669006,0.7436245083808899
1631290449409,0.4844275712966919,0.8627551794052124,0.6026092171669006,0.7359161376953125
1631290449500,0.5054864883422852,0.8627551794052124,0.6026092171669006,0.7257457971572876
1631290449596,0.511728048324585,0.8627551794052124,0.6026092171669006,0.7130190134048462
1631290449659,0.502953052520752,0.4310374855995178,0.6026092171669006,0.6997575759887695
1631290449766,0.4764404892921448,0.3755397200584411,0.6026092171669006,0.6871638894081116
1631290449911,0.4402240812778473,0.2268573492765426,0.6026092171669006,0.6740515828132629
1631290450001,0.4007948935031891,-0.00601647188887,0.6026092171669006,0.6597949266433716
1631290450088,0.3696959018707275,-0.0190077852457761,0.006552780047059,0.6443028450012207
1631290450158,0.3546168804168701,-0.0291077457368373,-0.0089990962296724,0.6252081394195557
1631290450313,0.35054612159729,-0.0272714383900165,-0.0123453270643949,0.6006368398666382
1631290450406,0.3534175455570221,-0.0088179465383291,-0.0081322500482201,0.574104905128479
1631290450506,0.3571348786354065,0.019842131063342,-0.0046099633909761,0.5536622405052185
1631290450680,0.3571348786354065,0.0462782196700573,-0.0053409892134368,0.5373960733413696
1631290450792,0.3571348786354065,0.0656651109457016,-0.0008939063991419,0.5237277746200562
1631290450855,0.3571348786354065,0.0834741294384002,0.0323015116155147,0.5087831616401672
1631290450901,0.3571348786354065,0.106182649731636,0.0978579968214035,0.4933123290538788
1631290451155,0.3268483579158783,0.1325113475322723,0.1701781153678894,0.4817521870136261
1631290451253,0.2948189675807953,0.1677067875862121,0.2238591760396957,0.4771238267421722
1631290451308,0.2715645730495453,0.1980302780866623,0.2521569430828094,0.4773053228855133
1631290451337,0.2651290893554687,0.2212301641702652,0.2701568007469177,0.4801837205886841
1631290451461,0.2775727212429046,0.2400010675191879,0.2842375636100769,0.4875518977642059
1631290451525,0.3034740388393402,0.2568957507610321,0.2976668179035187,0.501976728439331
1631290451587,0.3342390656471252,0.2735547423362732,0.3102362155914306,0.5220360159873962
1631290451812,0.3342390656471252,0.2902660667896271,0.3209963142871856,0.5220360159873962
1631290451838,0.3342390656471252,0.3043294847011566,0.3292655944824219,0.5220360159873962
1631290451939,0.3342390656471252,0.3124048113822937,0.3351803421974182,0.5220360159873962
1631290452019,0.3342390656471252,0.3142482936382293,0.3405433595180511,0.5220360159873962
1631290452125,0.3342390656471252,0.3131211400032043,0.3477305769920349,0.5220360159873962
1631290452265,0.0300347208976745,0.311432421207428,0.3548182249069214,0.2008989453315735
1631290452391,0.1384246200323104,0.3074332177639007,0.3519580662250519,0.2269947081804275
1631290452423,0.2185257822275161,0.2989193797111511,0.3296179473400116,0.2625975012779236
1631290452492,0.2689885795116424,0.2895825505256653,0.287949651479721,0.2952272295951843
1631290452731,0.298626035451889,0.285558670759201,0.2401600480079651,0.3308669030666351
1631290452810,0.3165781199932098,0.2883477509021759,0.2059337198734283,0.3743018507957458
1631290452882,0.3268211185932159,0.2944833636283874,0.1946194171905517,0.4177964031696319
1631290452994,0.3299583494663238,0.3016277253627777,0.1992401778697967,0.4487118422985077
1631290453052,0.3276304006576538,0.3106569051742553,0.2080711424350738,0.4625363051891327
1631290453120,0.3239756822586059,0.3230816125869751,0.2160448431968689,0.4645244777202606
1631290453224,0.3220710456371307,0.3377946317195892,0.2258517295122146,0.4639785289764404
1631290453320,0.3220879733562469,0.353215754032135,0.2409562021493911,0.4664692878723144
1631290453482,0.3430679738521576,0.3664245903491974,0.2602451741695404,0.4791389107704162
1631290453561,0.3659200072288513,0.3760012090206146,0.2803155183792114,0.4990342557430267
1631290453618,0.3895274996757507,0.3831967115402221,0.2985710501670837,0.5185099840164185
1631290453836,0.4112852811813354,0.3914791047573089,0.3147344291210174,0.5312487483024597
1631290453913,0.4111348688602447,0.4038578867912292,0.3292727172374725,0.5431188941001892
1631290453962,0.4050027132034302,0.4201674163341522,0.3422322273254394,0.5520312786102295
1631290454046,0.3972495198249817,0.4387553036212921,0.3551138341426849,0.5594228506088257
1631290454176,0.3906935155391693,0.443109780550003,0.3709444999694824,0.5627017021179199
1631290454257,0.3856159150600433,0.44336998462677,0.3854886293411255,0.5565148591995239
1631290454397,0.3828757703304291,0.4431457221508026,0.3949211239814758,0.5393009781837463
1631290454562,0.3856353759765625,0.4450139105319977,0.3995254039764404,0.5187655091285706
1631290454593,0.3964655101299286,0.4481156766414642,0.4041130244731903,0.5073662996292114
1631290454640,0.4134674072265625,0.4488783478736877,0.4126259386539459,0.5105593204498291
1631290454766,0.4335030615329742,0.445303350687027,0.4225233793258667,0.5205532908439636
1631290454958,0.457357794046402,0.3948220908641815,0.4340477287769317,0.5255624055862427
1631290454958,0.457357794046402,0.4209657609462738,0.4283503293991089,0.5255624055862427
1631290455123,0.457357794046402,0.3716464340686798,0.4273890554904938,0.5255624055862427
1631290455240,0.457357794046402,0.354818731546402,0.4108692109584808,0.5255624055862427
1631290455327,0.457357794046402,0.3457389175891876,0.3931695818901062,0.5255624055862427
1631290455492,0.457357794046402,0.3443640172481537,0.391593724489212,0.5255624055862427
1631290455629,0.457357794046402,0.3484378457069397,0.4184744358062744,0.5255624055862427
1631290455720,0.7752826809883118,0.3492502570152282,0.4472134709358215,0.5255624055862427
1631290455780,0.8049473762512207,0.3836552202701568,0.4641335904598236,0.5255624055862427
1631290455809,0.8137217164039612,0.414273589849472,0.4670479893684387,0.5255624055862427
1631290455854,0.8088289499282837,0.4441149830818176,0.4631066620349884,0.5255624055862427
1631290456059,0.7986394166946411,0.4750981628894806,0.4631314277648926,0.5255624055862427
1631290456096,0.7883769273757935,0.5056692957878113,0.4737716913223266,0.5255624055862427
1631290456179,0.78017258644104,0.5313563346862793,0.4932312369346618,0.5255624055862427
1631290456328,0.7742049098014832,0.5471714735031128,0.5123114585876465,0.5255624055862427
1631290456406,0.7742049098014832,0.5645614862442017,0.5230397582054138,0.5255624055862427
1631290456525,0.7742049098014832,0.5736536383628845,0.5280625820159912,0.5255624055862427
1631290456612,0.7742049098014832,0.5795913934707642,0.5305434465408325,0.5255624055862427
1631290456779,0.7742049098014832,0.5859103202819824,0.5346337556838989,0.5255624055862427
1631290456882,0.789641261100769,0.5914252996444702,0.5389339923858643,0.5255624055862427
1631290456973,0.7968582510948181,0.5920001268386841,0.53897625207901,0.5255624055862427
1631290457075,0.7918288111686707,0.5852522253990173,0.532049298286438,0.5255624055862427
1631290457175,0.7735878229141235,0.5726104974746704,0.5197582244873047,0.5255624055862427
1631290457297,0.74681156873703,0.5577189922332764,0.5078109502792358,0.5255624055862427
1631290457375,0.7214862704277039,0.5431334376335144,0.5090771913528442,0.5255624055862427
1631290457438,0.7060538530349731,0.5279814600944519,0.5148597359657288,0.5255624055862427
1631290457533,0.7060538530349731,0.5083107948303223,0.5188865661621094,0.5255624055862427
1631290457589,0.7060538530349731,0.4807168543338775,0.5084423422813416,0.5255624055862427
1631290457747,0.7060538530349731,0.4467399716377258,0.4805210530757904,0.5255624055862427
1631290457843,0.7060538530349731,0.4151311218738556,0.4395581185817718,0.5255624055862427
1631290457952,0.7060538530349731,0.3956679701805115,0.401065856218338,0.5255624055862427
1631290458003,0.7060538530349731,0.3919226825237274,0.3806355595588684,0.5255624055862427
1631290458149,0.7060538530349731,0.3992214798927307,0.3781949877738952,0.5255624055862427
1631290458274,0.7060538530349731,0.4100536704063415,0.3805856108665466,0.5255624055862427
1631290458346,0.4327542185783386,0.4189391136169433,0.3775698542594909,0.5255624055862427
1631290458450,0.453985333442688,0.4246361851692199,0.3670044243335724,0.5255624055862427
1631290458543,0.460301399230957,0.4288699328899383,0.3524717390537262,0.5255624055862427
1631290458700,0.4626032710075378,0.4337429106235504,0.339178055524826,0.5255624055862427
1631290458832,0.4596098065376282,0.4389981031417846,0.3280451893806457,0.5255624055862427
1631290458882,0.4496677815914154,0.4430835545063019,0.3204703032970428,0.5255624055862427
1631290458942,0.4348099529743194,0.4466278851032257,0.312009334564209,0.5255624055862427
1631290459142,0.4197700917720794,0.4513682126998901,0.3034079372882843,0.5255624055862427
1631290459175,0.4197700917720794,0.4573716521263122,0.2836244404315948,0.5255624055862427
1631290459196,0.440295547246933,0.4625690579414367,0.2733802497386932,0.5255624055862427
1631290459292,0.46225106716156,0.4645865261554718,0.2752345502376556,0.5255624055862427
1631290459441,0.46225106716156,0.4640832841396332,0.28128781914711,0.5255624055862427
1631290459565,0.46225106716156,0.4620261788368225,0.2809607088565826,0.5255624055862427
1631290459680,0.46225106716156,0.4573530852794647,0.2719619572162628,0.5255624055862427
1631290459787,0.4386567771434784,0.4491614997386932,0.2620780766010284,0.5255624055862427
1631290459865,0.4121725261211395,0.4414338171482086,0.2595620155334472,0.5255624055862427
1631290459929,0.389042317867279,0.4425564408302307,0.2643219232559204,0.5255624055862427
1631290460035,0.3655416667461395,0.4592971205711365,0.2715394198894501,0.5255624055862427
1631290460151,0.3328442573547363,0.4887840449810028,0.278185099363327,0.5255624055862427
1631290460328,0.3328442573547363,0.4946102499961853,0.284484714269638,0.5255624055862427
1631290460418,0.3328442573547363,0.4981979429721832,0.2898783385753631,0.5255624055862427
1631290460498,0.3328442573547363,0.4979407489299774,0.2965534329414367,0.5255624055862427
1631290460546,0.3328442573547363,0.4939016103744507,0.3054347336292267,0.5255624055862427
1631290460637,0.3328442573547363,0.4766697585582733,0.3149304986000061,0.5255624055862427
1631290460757,0.3328442573547363,0.4601839184761047,0.3224322199821472,0.5255624055862427
1631290460876,0.3328442573547363,0.4502917528152466,0.3260418772697449,0.5255624055862427
1631290461011,0.3328442573547363,0.4472310245037079,0.3265925049781799,0.5255624055862427
1631290461070,0.3328442573547363,0.4476191103458404,0.325765311717987,0.5255624055862427
1631290461159,0.3328442573547363,0.4460852444171905,0.3223318755626678,0.5255624055862427
1631290461433,0.3328442573547363,0.438635379076004,0.3179051280021667,0.5255624055862427
1631290461539,0.3328442573547363,0.4223993718624115,0.3161570429801941,0.5255624055862427
1631290461615,0.3328442573547363,0.3936529457569122,0.3179655969142914,0.5255624055862427
1631290461654,0.3328442573547363,0.3456616699695587,0.3161488175392151,0.5255624055862427
1631290461692,0.3328442573547363,0.273501843214035,0.3036431968212127,0.6463254690170288
1631290461757,0.3328442573547363,0.2750361859798431,0.2807623445987701,0.6254591941833496
1631290461857,0.3328442573547363,0.2778564691543579,0.2554593980312347,0.5918952822685242
1631290461954,0.2336381822824478,0.2796554565429687,0.2368711829185485,0.5554219484329224
1631290462259,0.2211926281452179,0.2811498343944549,0.2250691652297973,0.5270237326622009
1631290462396,0.2324141561985016,0.2804554402828216,0.2231036126613617,0.5101296305656433
1631290462460,0.2783025205135345,0.2849152386188507,0.2423460930585861,0.4919699430465698
1631290462460,0.2547131776809692,0.2838034331798553,0.2309370785951614,0.500495195388794
1631290462513,0.2986002266407013,0.279221773147583,0.2445045262575149,0.4827780127525329
1631290462593,0.3171921670436859,0.2659459114074707,0.2404197305440902,0.4765796065330505
1631290462743,0.3355700969696045,0.2488894909620285,0.2318040579557418,0.4768816828727722
1631290462862,0.3542552590370178,0.2341733425855636,0.2191670835018158,0.4833911061286926
1631290462920,0.372110366821289,0.2265609204769134,0.2016486525535583,0.4802404940128326
1631290462953,0.3858713209629059,0.2261449694633484,0.1799634844064712,0.4739933609962463
1631290463044,0.3924791812896728,0.2281897962093353,0.1603318899869918,0.4613401889801025
1631290463218,0.3937466442584991,0.2264469563961029,0.1490536481142044,0.4458394944667816
1631290463323,0.3948133885860443,0.217660591006279,0.1467636376619339,0.4376213848590851
1631290463421,0.3993875682353973,0.2037622332572937,0.1487309038639068,0.4442221522331238
1631290463515,0.4081559479236603,0.1886542290449142,0.1498811691999435,0.4605997800827026
1631290463639,0.4181444346904754,0.1740326583385467,0.1461377143859863,0.4747547805309295
1631290463744,0.4264795482158661,0.1591304838657379,0.1339103728532791,0.4809349775314331
1631290463811,0.4321908354759216,0.1435893923044204,0.1118109077215194,0.4837790131568908
1631290464096,0.4337493479251861,0.1285640001296997,0.0849806666374206,0.490288496017456
1631290464165,0.4294793307781219,0.1156003549695015,0.0637964755296707,0.5002722144126892
1631290464219,0.4175589978694916,0.1052006930112838,0.0558445788919925,0.5062955021858215
1631290464274,0.3984226882457733,0.0982166975736618,0.0578327625989913,0.502312421798706
1631290464313,0.3745958507061004,0.0940217077732086,0.0601101480424404,0.4884740114212036
1631290464419,0.3514208793640136,0.0899763777852058,0.0573623143136501,0.4711204171180725
1631290464555,0.3367175459861755,0.0838568285107612,0.0529804266989231,0.4600183665752411
1631290464631,0.3354780972003937,0.0758405774831771,0.0532211437821388,0.4636310040950775
1631290464829,0.3448179960250854,0.0677981004118919,0.0608456097543239,0.4803782403469085
1631290464829,0.3569610714912414,0.0621858276426792,0.0735490694642067,0.4983695447444916
1631290464985,0.3658821284770965,0.058620098978281,0.088213987648487,0.5067793130874634
1631290465016,0.3685080111026764,0.054503608494997,0.1027326211333274,0.5052417516708374
1631290465163,0.3633427023887634,0.0469342321157455,0.1152631044387817,0.5024347305297852
1631290465310,0.3504526019096374,0.0345110781490802,0.1246016696095466,0.505763590335846
1631290465418,0.3328930139541626,0.0186254996806383,0.1307388395071029,0.5118402242660522
1631290465427,0.317436009645462,0.00237672845833,0.133447378873825,0.5135464072227478
1631290465610,0.3126190304756164,-0.0103503353893756,0.1314419507980346,0.5096886157989502
1631290465793,0.3224504292011261,-0.0178143139928579,0.1249984502792358,0.5059347152709961
1631290465994,0.3427671194076538,-0.0220803320407867,0.1176804080605506,0.5069630742073059
1631290466033,0.3642390072345733,-0.0262567345052957,0.1141861379146575,0.5114074945449829
1631290466070,0.3730759024620056,-0.0326908938586711,0.1151221171021461,0.5210849642753601
1631290466196,0.3739957809448242,-0.0419346466660499,0.1190305948257446,0.5266962647438049
1631290466206,0.3523137271404266,-0.065382182598114,0.1228931248188018,0.5102352499961853
1631290466214,0.3657814264297485,-0.0536509975790977,0.1225370243191719,0.5234007835388184
1631290466529,0.3397024273872375,-0.072672538459301,0.1175657138228416,0.4926416277885437
1631290466558,0.3317213952541351,-0.071440540254116,0.1059445813298225,0.480335533618927
1631290466642,0.3294290602207184,-0.0613863579928875,0.0906696990132331,0.4782681465148926
1631290466666,0.3347888886928558,-0.0470442250370979,0.0752298757433891,0.4805024266242981
1631290466794,0.3508158922195434,-0.0341519862413406,0.0614806748926639,0.4758147895336151
1631290466976,0.3773790299892425,-0.0260635875165462,0.0510748662054538,0.4607067406177521
1631290467057,0.4109665155410766,-0.0236548501998186,0.0458998046815395,0.4421959817409515
1631290467294,0.4109665155410766,-0.0271687880158424,0.0500135049223899,0.4421959817409515
1631290467337,0.4109665155410766,-0.0356179326772689,0.0614153780043125,0.4421959817409515
1631290467388,0.4109665155410766,-0.0459702014923095,0.0723300725221633,0.4421959817409515
1631290467453,0.4109665155410766,-0.0540034510195255,0.0758612677454948,0.4421959817409515
1631290467519,0.4109665155410766,-0.0558889731764793,0.0716656148433685,0.4421959817409515
1631290467608,0.4109665155410766,-0.0530211962759494,0.061134498566389,0.4386902451515198
1631290467757,0.3450907468795776,-0.0500834845006465,0.0459544993937015,0.4374367892742157
1631290467845,0.3839328289031982,-0.0517681650817394,0.0276726502925157,0.4330044388771057
1631290467909,0.3999317288398742,-0.0611122250556945,0.0104285636916756,0.4258685708045959
1631290468009,0.402281641960144,-0.078790545463562,-0.00105798675213,0.4188403189182281
1631290468053,0.4015317559242248,-0.1032945811748504,-0.0035996746737509,0.4106734097003937
1631290468351,0.4026851058006286,-0.1290498971939087,0.0032275847624987,0.3978852331638336
1631290468492,0.4034067392349243,-0.1447088718414306,0.0164242815226316,0.3793361186981201
1631290468713,0.3984997570514679,-0.1401894688606262,0.0286319833248853,0.3590844273567199
1631290468759,0.3859418332576751,-0.1176422014832496,0.033277191221714,0.3440122604370117
1631290468908,0.3683152794837951,-0.0891717076301574,0.0262933392077684,0.338062971830368
1631290469048,0.3509558737277984,-0.0654977783560752,0.0106827961280941,0.3388940095901489
1631290469189,0.3372038900852203,-0.0513707213103771,-0.0068974336609244,0.3324870467185974
1631290469256,0.3368117809295654,-0.0475009083747863,-0.0212300606071949,0.3221897780895233
1631290469274,0.3418589532375335,-0.0540653094649314,-0.0306594558060169,0.3130618631839752
1631290469415,0.337454617023468,0.2643665671348572,0.2951084673404693,0.3021497130393982
1631290469547,0.3219285309314728,0.2566984593868255,0.2943502068519592,0.2893056273460388
1631290469631,0.2997269034385681,0.2527707815170288,0.2940564751625061,0.2764523029327392
1631290469863,0.2780309915542602,0.2552333772182464,0.2936974763870239,0.264546275138855
1631290469987,0.259581595659256,0.2635829448699951,0.2949349880218506,0.2516336143016815
1631290470080,0.2390262335538864,0.2759075462818146,0.2995096147060394,0.2393433153629303
1631290470162,0.1623992621898651,0.3085243105888366,0.3143377006053924,0.251395046710968
1631290470168,0.2076028138399124,0.2911085188388824,0.3068654537200928,0.2360336482524871
1631290470235,0.1140699461102485,0.3241992592811584,0.3241307139396667,0.2841302752494812
1631290470373,0.0841134488582611,0.3382240831851959,0.3364828526973724,0.3194178640842438
1631290470403,0.0841134488582611,0.5055205821990967,0.3529236316680908,0.3194178640842438
1631290470427,0.0841134488582611,0.5045149326324463,0.3738186955451965,0.3194178640842438
1631290470618,0.0841134488582611,0.5015838742256165,0.3994371294975281,0.3194178640842438
1631290470885,0.0841134488582611,0.4990842640399933,0.4309179186820984,0.3194178640842438
1631290470935,0.0841134488582611,0.4975699484348297,0.4390884339809418,0.3194178640842438
1631290471092,0.0841134488582611,0.2810302376747131,0.0222216825932264,0.3194178640842438
1631290471206,0.0841134488582611,0.7494361996650696,0.0456894785165786,0.3194178640842438
1631290471275,0.0841134488582611,0.8920726180076599,0.6185407042503357,0.3194178640842438
1631290471406,0.0841134488582611,0.8928554654121399,0.6264914870262146,0.3194178640842438
1631290471623,0.0841134488582611,0.8929248452186584,0.6351163983345032,0.3194178640842438
1631290471729,0.0841134488582611,0.945661187171936,0.7580873966217041,0.3194178640842438
1631290471825,0.0841134488582611,0.9427120685577391,0.7605822086334229,0.3194178640842438
1631290471980,0.0841134488582611,0.912193477153778,0.7606296539306641,0.3194178640842438
1631290472046,0.0841134488582611,0.912193477153778,0.7606296539306641,0.3194178640842438
1631290472099,0.0841134488582611,0.912193477153778,0.7606296539306641,0.3194178640842438
1631290472136,0.0841134488582611,0.887355387210846,0.7606296539306641,0.3194178640842438
1631290472169,0.0841134488582611,0.919936180114746,0.7606296539306641,0.3194178640842438
1631290472239,0.0841134488582611,0.9580719470977784,0.7606296539306641,0.3194178640842438
1631290472285,0.0841134488582611,0.9587147831916808,0.7606296539306641,0.3194178640842438
1631290472391,0.0841134488582611,0.9590100646018982,0.8019884824752808,0.3194178640842438
1631290472502,0.0841134488582611,0.9588871598243712,0.8502576947212219,0.3194178640842438
1631290472658,0.0841134488582611,0.6669623255729675,0.9075722098350524,0.3194178640842438
