timestamp,TP9,AF7,AF8,TP10
1630411793195,0.4607930779457092,0.0490099228918552,0.2816759943962097,0.9995002746582032
1630411793364,0.4918473362922668,0.0616442114114761,0.2980978488922119,1.0096474885940552
1630411793444,0.5031341314315796,0.0710326358675956,0.319723516702652,1.033251166343689
1630411793529,0.4833880662918091,0.0683779120445251,0.3471929430961609,1.0760557651519775
1630411793629,0.4274546504020691,0.101067841053009,0.3986855745315552,1.1272950172424316
1630411793704,0.4274546504020691,0.1631269007921219,0.4506003260612488,1.1272950172424316
1630411793824,0.4274546504020691,0.2338207215070724,0.4898549020290375,1.1272950172424316
1630411793958,0.4274546504020691,0.2873257398605346,0.5099951028823853,1.1272950172424316
1630411794057,0.4274546504020691,0.3148530423641205,0.515186607837677,1.1272950172424316
1630411794157,0.4274546504020691,0.3213187158107757,0.5139628648757935,1.1272950172424316
1630411794278,0.4274546504020691,0.3048484325408935,0.505916178226471,1.1272950172424316
1630411794356,0.4274546504020691,0.2274850457906723,0.4757834374904632,1.1272950172424316
1630411794476,0.4274546504020691,0.2512211799621582,0.3954642713069916,1.1272950172424316
1630411794579,0.4274546504020691,0.3461437225341797,0.255297303199768,1.1272950172424316
1630411794676,0.4274546504020691,0.4913533329963684,0.3324967920780182,1.1272950172424316
1630411794784,0.4274546504020691,0.4913533329963684,0.4227632284164428,1.1272950172424316
1630411794846,0.4274546504020691,0.4913533329963684,0.4871706962585449,1.1272950172424316
1630411795001,0.4274546504020691,0.577491819858551,0.5143046975135803,1.1272950172424316
1630411795029,0.4274546504020691,0.590923547744751,0.5108080506324768,1.1272950172424316
1630411795191,0.4274546504020691,0.5912150740623474,0.4889088869094848,1.1272950172424316
1630411795280,0.4274546504020691,0.5826261043548584,0.4565665423870086,1.1272950172424316
1630411795391,0.4274546504020691,0.5742931962013245,0.4273537695407867,1.1272950172424316
1630411795496,0.4274546504020691,0.5678679943084717,0.4114473462104797,1.1272950172424316
1630411795588,0.4274546504020691,0.5634806156158447,0.4088893830776214,1.1272950172424316
1630411795678,0.4274546504020691,0.560340404510498,0.4109916985034942,1.1272950172424316
1630411795803,0.4274546504020691,0.5569556951522827,0.4120196402072906,1.1272950172424316
1630411795870,0.4274546504020691,0.551048994064331,0.4109579622745514,1.1590051651000977
1630411795969,0.4274546504020691,0.5336518287658691,0.4063679575920105,1.1257328987121582
1630411796078,0.4274546504020691,0.4793068766593933,0.3831225037574768,1.0895073413848877
1630411796219,0.4274546504020691,0.3364802300930023,0.3197010457515716,1.0895073413848877
1630411796278,0.4274546504020691,0.3162643909454345,0.1998339146375656,1.0895073413848877
1630411796376,0.4274546504020691,0.2975936532020569,0.033848613500595,1.0895073413848877
1630411796494,0.4274546504020691,0.1302165389060974,-0.1056244522333145,1.0895073413848877
1630411796581,0.4274546504020691,0.1139387711882591,-0.1086814925074577,1.0895073413848877
1630411796723,0.4274546504020691,0.0932877212762832,-0.0118334023281931,1.0895073413848877
1630411796760,0.4274546504020691,0.0820829644799232,0.0834076479077339,1.0895073413848877
1630411796854,0.4274546504020691,0.0670302137732505,0.1420752108097076,1.0895073413848877
1630411797034,0.4274546504020691,0.061269499361515,0.1702893227338791,1.0895073413848877
1630411797132,0.4274546504020691,0.0740056708455085,0.1868888139724731,1.0527642965316772
1630411797199,0.4274546504020691,0.1017623618245124,0.2061830908060073,1.0013304948806765
1630411797282,0.4274546504020691,0.136725977063179,0.2292611002922058,1.0013304948806765
1630411797423,0.4274546504020691,0.1735417395830154,0.249694675207138,1.0013304948806765
1630411797525,0.4274546504020691,0.2091595530509948,0.2623750865459442,1.0013304948806765
1630411797613,0.4274546504020691,0.2453772127628326,0.2751589715480804,1.0013304948806765
1630411797693,0.4274546504020691,0.3084238171577453,0.3019177317619324,1.0013304948806765
1630411797839,0.4274546504020691,0.4095990061759949,0.3446858525276184,1.0013304948806765
1630411797877,0.4274546504020691,0.4975685477256775,0.387005090713501,1.0013304948806765
1630411797963,0.4274546504020691,0.5343189835548401,0.4079460501670837,1.0013304948806765
1630411798059,0.4274546504020691,0.4824469089508056,0.3969689905643463,1.0013304948806765
1630411798215,0.4274546504020691,0.4795826375484466,0.3586675226688385,1.0013304948806765
1630411798305,0.4274546504020691,0.4795826375484466,0.309382677078247,1.0013304948806765
1630411798436,0.4274546504020691,0.4844298362731933,0.2661556303501129,1.0013304948806765
1630411798509,0.4274546504020691,0.4732626080513,0.2355675101280212,1.0013304948806765
1630411798624,0.4274546504020691,0.4483337104320526,0.211369127035141,1.0013304948806765
1630411798696,0.4274546504020691,0.4188871085643768,0.18784099817276,1.0013304948806765
1630411798851,0.4274546504020691,0.391951322555542,0.1672486960887909,1.0013304948806765
1630411798918,0.4274546504020691,0.3694991767406463,0.1544819772243499,1.0013304948806765
1630411799004,0.4274546504020691,0.3501591980457306,0.1503551453351974,1.0013304948806765
1630411799117,0.4274546504020691,0.3501591980457306,0.1422128975391388,1.0013304948806765
1630411799218,0.4274546504020691,0.3491964340209961,0.1149763911962509,1.0013304948806765
1630411799369,0.4274546504020691,0.3270482420921325,0.06438510119915,1.0013304948806765
1630411799433,0.4274546504020691,0.294716477394104,0.0062930933199822,1.0013304948806765
1630411799545,0.4274546504020691,0.2653760910034179,-0.0337362997233867,1.0013304948806765
1630411799636,0.4274546504020691,0.2408290356397628,-0.0438403747975826,1.0013304948806765
1630411799715,0.4274546504020691,0.1967578530311584,-0.0254816468805074,1.0013304948806765
1630411799839,0.4274546504020691,0.1967578530311584,0.0325490124523639,1.0013304948806765
1630411799911,0.4274546504020691,0.1115790903568267,0.1278882473707199,1.0013304948806765
1630411800067,0.4274546504020691,0.0274586509913206,0.2287676781415939,1.0013304948806765
1630411800150,0.4274546504020691,-0.0170808862894773,0.3026018142700195,1.0013304948806765
1630411800229,0.4274546504020691,-0.0170808862894773,0.3401384353637695,1.0013304948806765
1630411800315,0.4274546504020691,-0.0170808862894773,0.3513350486755371,1.0013304948806765
1630411800456,0.4274546504020691,-0.0170808862894773,0.3570921719074249,1.0013304948806765
1630411800546,0.4274546504020691,-0.0170808862894773,0.3714006245136261,1.0013304948806765
1630411800671,0.4274546504020691,-0.0170808862894773,0.3923241794109344,1.0013304948806765
1630411800745,0.4274546504020691,-0.0170808862894773,0.4083717465400696,1.0013304948806765
1630411800848,0.4274546504020691,-0.0170808862894773,0.4117157459259033,1.0013304948806765
1630411800945,0.4274546504020691,-0.0170808862894773,0.4027241468429565,1.0013304948806765
1630411801023,0.4274546504020691,-0.0170808862894773,0.3893263041973114,1.0013304948806765
1630411801166,0.4274546504020691,-0.1097839102149009,0.3791986405849457,1.0013304948806765
1630411801262,0.4274546504020691,-0.1513146311044693,0.3704130947589874,1.0013304948806765
1630411801354,0.4274546504020691,-0.169969841837883,0.3489403426647186,1.0013304948806765
1630411801422,0.4274546504020691,-0.1741583347320556,0.300858199596405,1.0013304948806765
1630411801535,0.4274546504020691,-0.1714779287576675,0.2256850898265838,1.0013304948806765
1630411801622,0.4402718544006347,-0.1649174690246582,0.1452405005693435,0.9181644320487976
1630411801764,0.4402718544006347,-0.1501325368881225,0.0919921845197677,0.8600714802742004
1630411801854,0.4402718544006347,-0.1109281927347183,0.0809099525213241,0.8193315267562866
1630411801984,0.4402718544006347,-0.0177253615111112,0.0997945442795753,0.8040280342102051
1630411802114,0.4402718544006347,0.1158235669136047,0.1317229717969894,0.8052842617034912
1630411802212,0.4402718544006347,0.2362073063850402,0.162624254822731,0.8052842617034912
1630411802283,0.4402718544006347,0.2362073063850402,0.1884257942438125,0.8052842617034912
1630411820027,0.1678697168827057,-0.2313717603683471,-0.1692660450935363,0.4828756749629974
1630411821347,-0.1269466578960418,-0.116462729871273,-0.2801012694835663,0.4715431332588196
1630411824440,-0.0077701858244836,-0.137063130736351,-0.4283095896244049,0.4788705110549927
1630411824550,-0.0090552382171154,-0.0987117066979408,-0.4178955256938934,0.4734648764133453
1630411824628,-0.0108640938997268,-0.0657833069562912,-0.416766345500946,0.4735519886016845
1630411824706,-0.0073219095356762,-0.0418881364166736,-0.4154148697853088,0.4881718158721924
1630411824800,0.0057361940853297,-0.0184375084936618,-0.4096382558345794,0.5193045735359192
1630411824925,0.0289784986525774,0.024790734052658,-0.4004816710948944,0.5611829161643982
1630411825065,0.0550700016319751,0.092044249176979,-0.3900488615036011,0.6000685691833496
1630411825128,0.0760586783289909,0.1616175919771194,-0.380750447511673,0.6276909708976746
1630411825258,0.0890897065401077,0.2130456715822219,-0.3717417418956756,0.6417945027351379
1630411825290,0.1013990938663482,0.2425432652235031,-0.3581204414367676,0.6447019577026367
1630411825401,0.1117839813232421,0.2573780119419098,-0.3398089408874511,0.6401945948600769
1630411825537,0.1173881962895393,0.2633506953716278,-0.3248278796672821,0.6374152302742004
1630411825646,0.117969810962677,0.2599450349807739,-0.3245448470115661,0.6432723999023438
1630411825724,0.1156458705663681,0.2474972158670425,-0.3461569547653198,0.6562585830688477
1630411825834,0.1156093999743461,0.2297411262989044,-0.3873560726642608,0.6700596809387207
1630411825943,0.1234919056296348,0.2110984176397323,-0.4379682838916778,0.680973470211029
1630411826037,0.1392402648925781,0.193745270371437,-0.4883004128932953,0.6889880299568176
1630411826115,0.1573244333267212,0.1774899512529373,-0.5315455198287964,0.692531406879425
1630411826271,0.1718928515911102,0.1609217524528503,-0.5640783905982971,0.685808002948761
1630411826380,0.1775168478488922,0.1391811370849609,-0.5794221758842468,0.6645851731300354
1630411826492,0.1677665412425995,0.1000577956438064,-0.5729029774665833,0.6302580237388611
1630411826572,0.1448154300451278,0.0333946198225021,-0.5452582836151123,0.5940837860107422
1630411826660,0.1173314601182937,-0.0558567978441715,-0.5016943216323853,0.5706128478050232
1630411826739,0.0971816852688789,-0.1432960927486419,-0.4589823484420776,0.5692068934440613
1630411826886,0.0849521309137344,-0.2003681659698486,-0.4337495565414428,0.5870876908302307
1630411826995,0.0862980261445045,-0.2251709997653961,-0.428060919046402,0.5978711843490601
1630411827058,0.0867811292409896,-0.2373722642660141,-0.4308274090290069,0.6079276204109192
1630411827136,0.0862772613763809,-0.2367360293865203,-0.4293466508388519,0.6088553667068481
1630411827245,0.0869576781988143,-0.2271805107593536,-0.418640524148941,0.6005160212516785
1630411827339,0.0893207788467407,-0.212708979845047,-0.3958829045295715,0.592500627040863
1630411827466,0.0865451619029045,-0.1977555602788925,-0.3538022935390472,0.5936503410339355
1630411827607,0.0701118260622024,-0.1887145489454269,-0.2975921630859375,0.6019639372825623
1630411827716,0.0392011255025863,-0.1878080517053604,-0.2470153123140335,0.6090846061706543
1630411827763,-0.0022677285596728,-0.1909893453121185,-0.2175367176532745,0.6104367971420288
1630411827841,-0.0456381626427173,-0.1893643885850906,-0.2083570063114166,0.6128478646278381
1630411827935,-0.0740015879273414,-0.177307054400444,-0.2114041149616241,0.6277515888214111
1630411828138,-0.0740015879273414,-0.1598987132310867,-0.2167493253946304,0.6277515888214111
1630411828185,-0.0740015879273414,-0.1598987132310867,-0.2041324824094772,0.6277515888214111
1630411828266,-0.0740015879273414,-0.1598987132310867,-0.1360749453306198,0.6277515888214111
1630411828375,-0.0740015879273414,-0.1598987132310867,-0.0176021177321672,0.6277515888214111
1630411828484,-0.0740015879273414,-0.1598987132310867,-0.0006949288654141,0.6277515888214111
1630411828547,-0.0740015879273414,-0.1598987132310867,0.0204441770911216,0.6277515888214111
1630411828719,-0.0740015879273414,-0.1598987132310867,0.0444633997976779,0.6277515888214111
1630411828797,-0.0740015879273414,-0.1598987132310867,0.1633408069610595,0.6277515888214111
1630411828859,-0.0740015879273414,-0.1598987132310867,0.2572779059410095,0.6277515888214111
1630411828984,-0.0740015879273414,-0.1598987132310867,0.3180249631404876,0.6277515888214111
1630411829078,-0.0740015879273414,-0.1598987132310867,0.350128710269928,0.6277515888214111
1630411829125,-0.0740015879273414,-0.1598987132310867,0.3685320615768432,0.6277515888214111
1630411829330,-0.0740015879273414,-0.1598987132310867,0.3930768072605133,0.6277515888214111
1630411829424,-0.0740015879273414,-0.1598987132310867,0.4254561364650726,0.6277515888214111
1630411829486,-0.0740015879273414,-0.1598987132310867,0.4639107584953308,0.6277515888214111
1630411829580,-0.0740015879273414,-0.1598987132310867,0.5063015222549438,0.6277515888214111
1630411829658,-0.0740015879273414,-0.1598987132310867,0.5471808314323425,0.6277515888214111
1630411829814,-0.0740015879273414,-0.1598987132310867,0.571783721446991,0.6277515888214111
1630411829939,-0.0740015879273414,-0.1598987132310867,0.5651600956916809,0.6277515888214111
1630411830002,-0.0740015879273414,-0.1598987132310867,0.5651600956916809,0.6277515888214111
1630411830111,-0.0740015879273414,-0.1598987132310867,0.5651600956916809,0.6277515888214111
1630411830189,-0.0740015879273414,-0.1598987132310867,0.5651600956916809,0.6277515888214111
1630411830302,-0.0740015879273414,-0.1598987132310867,0.539434552192688,0.6277515888214111
1630411830364,-0.0740015879273414,-0.1598987132310867,0.539434552192688,0.6277515888214111
1630411830505,-0.0740015879273414,-0.1598987132310867,0.539434552192688,0.6277515888214111
1630411830630,-0.0740015879273414,-0.1598987132310867,0.539434552192688,0.6277515888214111
1630411830692,-0.0740015879273414,-0.1598987132310867,0.539434552192688,0.6277515888214111
1630411830801,-0.0740015879273414,-0.1598987132310867,0.539434552192688,0.6277515888214111
1630411830879,-0.0740015879273414,-0.1598987132310867,-0.2193510383367538,0.6277515888214111
1630411831020,-0.0740015879273414,-0.1598987132310867,-0.013276508077979,0.6277515888214111
1630411831129,-0.0740015879273414,-0.1598987132310867,-0.013276508077979,0.6277515888214111
1630411831239,-0.0740015879273414,-0.1598987132310867,-0.013276508077979,0.6277515888214111
1630411831320,-0.0740015879273414,-0.1598987132310867,-0.013276508077979,0.6277515888214111
1630411831429,-0.0740015879273414,-0.1598987132310867,0.2171822190284729,0.6277515888214111
1630411831492,-0.0740015879273414,-0.1598987132310867,0.2171822190284729,0.6277515888214111
1630411831617,-0.0740015879273414,-0.1598987132310867,0.2171822190284729,0.6277515888214111
1630411831757,-0.0740015879273414,-0.1598987132310867,0.2171822190284729,0.6277515888214111
1630411831835,-0.0740015879273414,-0.1598987132310867,0.2171822190284729,0.6277515888214111
1630411831913,-0.0740015879273414,-0.1598987132310867,0.2171822190284729,0.6277515888214111
1630411832054,-0.0740015879273414,-0.1598987132310867,0.2572405338287353,0.6277515888214111
1630411832132,-0.0740015879273414,-0.1598987132310867,0.2884694337844848,0.6277515888214111
1630411832195,-0.0740015879273414,-0.1598987132310867,0.2925134599208832,0.6277515888214111
1630411832385,-0.0740015879273414,-0.1598987132310867,0.2803032100200653,0.6277515888214111
1630411832447,-0.0740015879273414,-0.1598987132310867,0.2423540651798248,0.6277515888214111
1630411832509,-0.0740015879273414,-0.1598987132310867,0.1694430857896804,0.6277515888214111
1630411832666,-0.0740015879273414,-0.1598987132310867,0.1436568945646286,0.6277515888214111
1630411832759,-0.0740015879273414,-0.1598987132310867,0.1257303208112716,0.6277515888214111
1630411832822,-0.0740015879273414,-0.1598987132310867,0.1053519546985626,0.6277515888214111
1630411832931,-0.0740015879273414,0.3564172685146332,-0.0889438688755035,0.6277515888214111
1630411833072,-0.0740015879273414,0.2852269411087036,-0.1169347912073135,0.6277515888214111
1630411833166,-0.0740015879273414,0.2244147211313247,-0.1423662006855011,0.6277515888214111
1630411833262,-0.0740015879273414,0.1802249103784561,-0.1590820103883743,0.6277515888214111
1630411833357,-0.0740015879273414,0.1502712368965149,-0.1671763062477111,0.6277515888214111
1630411833435,-0.0740015879273414,0.1321494728326797,-0.1702043712139129,0.6277515888214111
1630411833592,-0.0740015879273414,0.1260446459054947,-0.2714239358901977,0.6277515888214111
1630411833670,-0.0740015879273414,0.1405612230300903,-0.2872471213340759,0.6277515888214111
1630411833764,-0.0740015879273414,0.1712188571691513,-0.2581474483013153,0.6277515888214111
1630411833842,-0.0740015879273414,0.2026292085647583,-0.2220664471387863,0.6277515888214111
1630411833951,-0.0740015879273414,0.2218439877033233,-0.2008061408996582,0.6277515888214111
1630411834045,-0.0740015879273414,0.2253472954034805,-0.2047762423753738,0.6277515888214111
1630411834201,-0.0740015879273414,0.1948750615119934,-0.2325103431940078,0.6277515888214111
1630411834298,-0.0740015879273414,0.1668061167001724,-0.2694713175296783,0.6277515888214111
1630411834360,-0.0740015879273414,0.1946025341749191,-0.2977164089679718,0.6277515888214111
1630411834469,-0.0740015879273414,0.2029409855604171,-0.3083438575267792,0.6277515888214111
1630411834563,-0.0740015879273414,0.2242101728916168,-0.3064567148685455,0.6277515888214111
1630411834657,-0.0740015879273414,0.2505867183208465,-0.2992372810840606,0.6277515888214111
1630411834797,-0.0740015879273414,0.2772349119186401,-0.2909611761569977,0.6277515888214111
1630411834860,-0.0740015879273414,0.3036301136016845,-0.2911140918731689,0.6277515888214111
1630411835016,-0.0740015879273414,0.3296589851379394,-0.2454345822334289,0.6277515888214111
1630411835063,-0.0740015879273414,0.3536309003829956,-0.1906749010086059,0.6277515888214111
1630411835157,-0.0740015879273414,0.3650491237640381,-0.0929022133350372,0.6277515888214111
1630411835271,-0.0740015879273414,0.356289654970169,0.0922078862786293,0.6277515888214111
1630411835380,-0.0740015879273414,0.5967101454734802,0.3066343367099762,0.6277515888214111
1630411835489,-0.0740015879273414,0.7776156663894653,0.4769779443740845,0.6277515888214111
1630411835599,-0.0740015879273414,0.8851310610771179,0.5822165608406067,0.6277515888214111
1630411835708,-0.0740015879273414,0.9339173436164856,0.6324626803398132,0.6277515888214111
1630411835786,-0.0740015879273414,0.9450228810310364,0.6483705043792725,0.6277515888214111
1630411835849,-0.0740015879273414,0.9269289970397948,0.6512861251831055,0.6277515888214111
1630411835989,-0.0740015879273414,0.871803343296051,0.6528138518333435,0.6277515888214111
1630411836130,-0.0740015879273414,0.8302274346351624,0.6604002714157104,0.6277515888214111
1630411836224,-0.0740015879273414,0.8038790225982666,0.6814295649528503,0.6277515888214111
1630411836289,-0.0740015879273414,0.7887423038482666,0.6861808896064758,0.6277515888214111
1630411836367,-0.0740015879273414,0.7756720781326294,0.6948146820068359,0.6277515888214111
1630411836508,-0.0740015879273414,0.7582313418388367,0.7158864736557007,0.6277515888214111
1630411836649,-0.0740015879273414,0.7359388470649719,0.7220800518989563,0.6277515888214111
1630411836711,0.3935433626174927,0.7130205631256104,0.7119982838630676,0.6277515888214111
1630411836820,0.3440968692302704,0.6925591230392456,0.6763843297958374,0.6277515888214111
1630411836914,0.2977476716041565,0.6196364760398865,0.603422999382019,0.6277515888214111
1630411836992,0.2536891102790832,0.5139126777648926,0.4949870705604553,1.2595757246017456
1630411837086,0.2536891102790832,0.4070253074169159,0.3787467777729034,1.2595757246017456
1630411837242,0.2536891102790832,0.3532559871673584,0.3012484312057495,1.2595757246017456
1630411837314,0.2536891102790832,0.3455388844013214,0.2948273420333862,1.2595757246017456
1630411837408,0.2536891102790832,0.3588014245033264,0.3487653136253357,1.2595757246017456
1630411837486,0.2536891102790832,0.3738386034965515,0.4288668036460876,1.2595757246017456
1630411837626,0.2536891102790832,0.3803580701351166,0.4962257742881775,1.2595757246017456
1630411837704,0.2536891102790832,0.3643935322761535,0.5257097482681274,1.2595757246017456
1630411837829,0.2536891102790832,0.3181126415729522,0.5148130655288696,1.2595757246017456
1630411837907,0.1949761509895324,0.2517692148685455,0.4819322824478149,1.2595757246017456
1630411838079,0.1154676079750061,0.1927039325237274,0.4534316658973694,1.2595757246017456
1630411838126,0.0303777754306793,0.2318319827318191,0.4435112476348877,1.2595757246017456
1630411838236,0.0303777754306793,0.2691485583782196,0.451008528470993,1.2595757246017456
1630411838316,0.0303777754306793,0.3337724506855011,0.4706296026706695,1.2595757246017456
1630411838441,0.0303777754306793,0.4495955407619476,0.500627875328064,1.2595757246017456
1630411838519,0.0303777754306793,0.5823180079460144,0.5349883437156677,1.2595757246017456
1630411838628,0.0303777754306793,0.687348484992981,0.564583420753479,0.770145833492279
1630411838753,0.0303777754306793,0.7002092599868774,0.5826374292373657,0.7776599526405334
1630411838800,0.0303777754306793,0.6845695376396179,0.5852155685424805,0.8068175315856934
1630411838894,0.7209110260009766,0.6526317000389099,0.5681763291358948,0.8567149043083191
1630411839100,0.6791896820068359,0.6153860092163086,0.5309337377548218,0.9057989716529846
1630411839134,0.6439402103424072,0.5801199078559875,0.4831731617450714,0.9379693865776062
1630411839275,0.6206403970718384,0.5484767556190491,0.4398319125175476,0.9468181133270264
1630411839384,0.6144662499427795,0.5223389267921448,0.4136098325252533,0.9371308088302612
1630411839413,0.6238061189651489,0.503269612789154,0.4051052033901214,0.9185553789138794
1630411839526,0.6438226103782654,0.4905138611793518,0.4102907180786133,0.9008352756500244
1630411839672,0.6693989038467407,0.4824016988277435,0.4277484118938446,0.8887101411819458
1630411839735,0.6926296949386597,0.4776627421379089,0.4487039446830749,0.8834816217422485
1630411839829,0.7077835202217102,0.4601696133613586,0.4590704143047333,0.8851578831672668
1630411839969,0.7113479375839233,0.4151865243911743,0.4507611095905304,0.8889927268028259
1630411840016,0.7046589851379395,0.3382294178009033,0.4272967278957367,0.8866124153137207
1630411840141,0.6798818707466125,0.2528722882270813,0.4063817262649536,0.876471221446991
1630411840250,0.6853787899017334,0.2109749615192413,0.4083269536495209,0.8596644401550293
1630411840391,0.723975658416748,0.2423938661813736,0.4349883496761322,0.8318448066711426
1630411840485,0.7855591177940369,0.3161827325820923,0.4715290665626526,0.786766529083252
1630411840532,0.8483316898345947,0.3859886825084686,0.5017632246017456,0.727023184299469
1630411840641,0.8948603272438049,0.4300206303596496,0.5175564289093018,0.6660593152046204
1630411840782,0.9176772832870485,0.4518824517726898,0.5253189206123352,0.626103937625885
1630411840891,0.9191579222679138,0.4589096307754516,0.5336639881134033,0.620650053024292
1630411840969,0.9072742462158204,0.4582376778125763,0.5454722046852112,0.6430811882019043
1630411841110,0.8902677297592163,0.4696371257305145,0.554724395275116,0.6768365502357483
1630411841156,0.870208203792572,0.4799674153327942,0.5527703762054443,0.7090866565704346
1630411841235,0.8481869101524353,0.4926011562347412,0.5378909707069397,0.7322431802749634
1630411841328,0.826575517654419,0.484324187040329,0.5176666378974915,0.7450553774833679
1630411841516,0.8092273473739624,0.4771133065223694,0.4997035264968872,0.7517169117927551
1630411841578,0.7979475259780884,0.4707756042480469,0.4860942661762237,0.7561020851135254
1630411841656,0.7853861451148987,0.4546302556991577,0.4701970219612121,0.7603228688240051
1630411841781,0.7592556476593018,0.4145215451717376,0.4420157372951507,0.7655996084213257
1630411841859,0.7080502510070801,0.3378293514251709,0.3928017318248749,0.7736262679100037
1630411841937,0.6197032928466797,0.2183058559894561,0.3197165131568908,0.783622145652771
1630411842094,0.4929454624652862,0.0630820393562316,0.2325992137193679,0.7915949821472168
1630411842234,0.347061425447464,-0.0947892963886261,0.1534451842308044,0.7937107682228088
1630411842299,0.2282606363296508,-0.2163396328687667,0.0897939130663871,0.7895032167434692
1630411842377,0.1741034686565399,-0.2839035391807556,0.0228496212512254,0.7798945307731628
1630411842502,0.1643713265657425,-0.3197939991950989,-0.0763488784432411,0.7645155787467957
1630411842598,0.1505373269319534,-0.2697030305862427,-0.2210997194051742,0.740726888179779
1630411842724,0.1194252297282219,-0.2005216032266616,-0.3904273808002472,0.7087563872337341
1630411842789,0.0796357840299606,-0.1299779862165451,-0.5282378196716309,0.6717700958251953
1630411842881,0.0407062992453575,-0.075118102133274,-0.6003478169441223,0.6344851851463318
1630411842994,0.008589370176196,-0.0257649384438991,-0.6210209131240845,0.6009573340415955
1630411843069,-0.0169800743460655,0.0169358756393194,-0.5987960696220398,0.5769714713096619
1630411843179,-0.0240203626453876,0.059370644390583,-0.5361297130584717,0.567480206489563
1630411843351,-0.0098055200651288,0.1038305163383483,-0.4558511674404144,0.5723172426223755
1630411843431,0.0155000342056155,0.1448948830366134,-0.3877318501472473,0.5835675597190857
1630411843507,0.0355681404471397,0.1756321340799331,-0.348315954208374,0.5913535356521606
1630411843600,0.0450917072594165,0.195137619972229,-0.3364793062210083,0.5917860865592957
1630411843697,0.0493203811347484,0.2090278714895248,-0.3395069539546966,0.5895870923995972
1630411843772,0.0539094805717468,0.2239904701709747,-0.3412965536117553,0.5872289538383484
1630411843916,0.0620889589190483,0.2387796938419342,-0.3341014087200165,0.5829304456710815
1630411844040,0.0876120328903198,0.2497355192899704,-0.3163533210754394,0.5778692364692688
1630411844113,0.170193076133728,0.2590923309326172,-0.2955483198165893,0.5759565234184265
1630411844212,0.3131493628025055,0.2758166193962097,-0.2782756686210632,0.5786114931106567
1630411844335,0.456544429063797,0.3008264899253845,-0.2687531113624573,0.5803981423377991
1630411844437,0.5595408082008362,0.3233891427516937,-0.2639543712139129,0.5810551643371582
1630411844528,0.6154569387435913,0.3314777314662933,-0.2601475417613983,0.5808534026145935
1630411844668,0.6389354467391968,0.3230680227279663,-0.2587287724018097,0.5791332125663757
1630411844712,0.6473895311355591,0.3032933175563812,-0.2652735412120819,0.5716215372085571
1630411844861,0.6504579186439514,0.275954395532608,-0.2773483097553253,0.5548369288444519
1630411844915,0.6516250967979431,0.245354950428009,-0.2801055908203125,0.5289961695671082
1630411845026,0.6556387543678284,0.2198135107755661,-0.252946674823761,0.5024318695068359
1630411845147,0.6654761433601379,0.2058834582567215,-0.1967860162258148,0.4848935008049011
1630411845257,0.677537739276886,0.200717881321907,-0.1357340365648269,0.4750229120254516
1630411845318,0.686028778553009,0.1948212087154388,-0.0923502743244171,0.4683636128902435
1630411845446,0.6875900626182556,0.1844217777252197,-0.0737921968102455,0.4608449935913086
1630411845520,0.7048186659812927,0.1709386557340622,-0.0746839717030525,0.4507902562618255
1630411845613,0.7072813510894775,0.1509050130844116,-0.0776417180895805,0.4315663874149322
1630411845757,0.6765933632850647,0.1271588951349258,-0.0469424799084663,0.4014712274074554
1630411845826,0.6059582233428955,0.1474145352840423,0.0723214372992515,0.368852823972702
1630411845929,0.5103636384010315,0.0858687534928321,0.253440797328949,0.339224100112915
1630411846040,0.4319705963134765,0.0404800809919834,0.4170330762863159,0.3201385140419006
1630411846134,0.4040824770927429,0.0311195626854896,0.5248078107833862,0.3154591917991638
1630411846260,0.4094946980476379,0.0472366847097873,0.5797611474990845,0.324168711900711
1630411846399,0.4220947325229645,0.0734515190124511,0.6011450886726379,0.3387967646121979
1630411846447,0.4348706901073456,0.1064765155315399,0.6098326444625854,0.3558205366134643
1630411846540,0.4386343955993652,0.2180031836032867,0.6134301424026489,0.3714592754840851
1630411846633,0.4386343955993652,0.2542107701301574,0.6165531277656555,0.3714592754840851
1630411846728,0.4386343955993652,0.2895850837230682,0.6269950270652771,0.3714592754840851
1630411846807,0.4386343955993652,0.328402042388916,0.6494828462600708,0.3714592754840851
1630411846963,0.4386343955993652,0.3792406916618347,0.6776360869407654,0.3714592754840851
1630411847093,0.4386343955993652,0.448902428150177,0.7005805373191833,0.3714592754840851
1630411847164,0.4386343955993652,0.5413199067115784,0.71192467212677,0.6164160966873169
1630411847273,0.4386343955993652,0.52080899477005,0.7098355889320374,0.5871649384498596
1630411847335,0.9812770485877992,0.3500642478466034,0.6857329607009888,0.5502469539642334
1630411847413,0.9083324670791626,0.2896478772163391,0.6278747320175171,0.5185184478759766
1630411847542,0.8519353270530701,0.2533904016017914,0.5361169576644897,0.4961571097373962
1630411847680,0.8158941268920898,0.2318958044052124,0.4324393272399902,0.4781994521617889
1630411847774,0.7952279448509216,0.2181803584098816,0.3509923815727234,0.4684773087501526
1630411847853,0.7858420014381409,0.2137806266546249,0.3054275810718536,0.4700430929660797
1630411847978,0.7909694910049438,0.2202925682067871,0.2769764065742492,0.4814806282520294
1630411848039,0.8082031607627869,0.1792974025011062,0.2540914118289947,0.4932007193565368
1630411848198,0.8252730369567871,0.1968200206756591,0.2273503690958023,0.4971982836723327
1630411848327,0.8296769261360168,0.2031217515468597,0.1781759858131408,0.4907936751842499
1630411848394,0.81842440366745,0.2000938802957534,0.0886205807328224,0.4739963114261627
1630411848468,0.7971010208129883,0.193832665681839,-0.0342950671911239,0.4487417340278625
1630411848594,0.731981635093689,0.1900091916322708,-0.130448579788208,0.4366345107555389
1630411848640,0.6703914999961853,0.1549959033727646,-0.1173820793628692,0.4636780321598053
1630411848779,0.6319295763969421,0.1751817613840103,-0.0263843536376953,0.5244195461273193
1630411848878,0.6200541257858276,0.2128821909427642,0.0619526244699955,0.5857870578765869
1630411849007,0.6239182949066162,0.2508284449577331,0.1153338253498077,0.6265361309051514
1630411849067,0.6276926398277283,0.2806984186172485,0.1355753242969513,0.6427000164985657
1630411849171,0.6236310005187988,0.2977632582187652,0.1386550813913345,0.6453626751899719
1630411849256,0.6118792295455933,0.3030489087104797,0.1399570554494857,0.6408071517944336
1630411849414,0.5972877144813538,0.3026647865772247,0.1468136757612228,0.6326555609703064
1630411849507,0.575651228427887,0.3062392473220825,0.1674461960792541,0.6225425601005554
1630411849568,0.547019362449646,0.3281375467777252,0.2127414494752884,0.6144340634346008
1630411849694,0.5208510160446167,0.3736591041088104,0.2769745290279388,0.6156786680221558
1630411849807,0.517758846282959,0.4329866170883178,0.3388964831829071,0.6323820948600769
1630411849885,0.542750358581543,0.4885973930358886,0.3794577717781067,0.658014714717865
1630411849995,0.5767892003059387,0.5064798593521118,0.3937418758869171,0.6809836030006409
1630411850108,0.6007711291313171,0.5237479209899902,0.384251207113266,0.685766875743866
1630411850247,0.6115856766700745,0.5219134092330933,0.3541646897792816,0.665389358997345
1630411850311,0.6131770014762878,0.5090618133544922,0.307765930891037,0.6246821880340576
1630411850401,0.6101420521736145,0.4914978146553039,0.2564874589443207,0.5779393911361694
1630411850497,0.6058409214019775,0.4725231826305389,0.2184747457504272,0.5400311946868896
1630411850624,0.604476273059845,0.4544133841991424,0.2056440412998199,0.5190404653549194
1630411850717,0.6047576069831848,0.4393595457077026,0.2126407921314239,0.5087050199508667
1630411850810,0.6028999090194702,0.4286448359489441,0.2245280593633651,0.5034045577049255
1630411850887,0.5956571698188782,0.4191465973854065,0.2303119003772735,0.5004879832267761
1630411851027,0.5959526896476746,0.403685450553894,0.2183205187320709,0.5123739838600159
1630411851119,0.5849201083183289,0.372730940580368,0.1740190535783767,0.5580695271492004
1630411851245,0.666469156742096,0.3218694925308227,0.09068313986063,0.631787896156311
1630411851321,0.7541460394859314,0.2584190368652344,-0.0065445364452898,0.7052920460700989
1630411851414,0.7447102069854736,0.2036236822605133,-0.0513283722102642,0.7638107538223267
1630411851603,0.7410210371017456,0.2514841854572296,-0.0137881310656666,0.8112018704414368
1630411851666,0.7489774823188782,0.262126088142395,0.0505589507520198,0.8550418019294739
1630411851716,0.7691494226455688,0.27810800075531,0.0911418870091438,0.892432451248169
1630411851840,0.7990353107452393,0.283852756023407,0.1036484986543655,0.9146178364753724
1630411851917,0.8352543711662292,0.2792567908763885,0.10306216776371,0.921710968017578
1630411852063,0.876010537147522,0.2702953815460205,0.1001570075750351,0.9206225872039796
1630411852153,0.9214552640914916,0.2632057964801788,0.0946400091052055,0.9201623797416688
1630411852231,0.9775389432907104,0.261440098285675,0.0845335200428962,0.9262162446975708
1630411852360,1.054126858711243,0.2672613263130188,0.075075127184391,0.9378454089164734
1630411852453,1.0538605451583862,0.2864103019237518,0.0759404674172401,0.9515912532806396
1630411852578,1.0536850690841677,0.3214622735977173,0.0934974774718284,0.9574335217475892
1630411852640,1.008281707763672,0.3621266782283783,0.1252464950084686,0.945862591266632
1630411852732,0.8967314958572388,0.3911001980304718,0.1628860086202621,0.9132115840911864
1630411852845,0.6525061130523682,0.3938996493816376,0.1895817220211029,0.8651570677757263
1630411852937,0.6332972645759583,0.370320051908493,0.1930221617221832,0.8097238540649414
1630411853129,0.6142383813858032,0.3332854211330414,0.1770872771739959,0.7482039332389832
1630411853170,0.605427622795105,0.2999793887138366,0.1621594876050949,0.6755609512329102
1630411853296,0.5980125665664673,0.2823596596717834,0.1669038385152816,0.5961028337478638
1630411853343,0.5980125665664673,0.2801209390163421,0.1851188838481903,0.5521435141563416
1630411853428,0.5980125665664673,0.2840984165668487,0.2002642750740051,0.5368430614471436
1630411853530,0.5980125665664673,0.2895420491695404,0.2119871079921722,0.5473900437355042
1630411853655,0.5980125665664673,0.2940771281719208,0.2391456663608551,0.5663498640060425
1630411853747,0.5980125665664673,0.296047568321228,0.2879339456558227,0.5745335817337036
1630411853890,0.5980125665664673,0.2908576130867004,0.3403619229793548,0.5648723840713501
1630411853936,0.6242305636405945,0.2696672677993774,0.3759380877017975,0.5338258147239685
1630411854014,0.627740740776062,0.2274037599563598,0.3899523615837097,0.4933132827281952
1630411854153,0.6021718978881836,0.168039321899414,0.3916735649108886,0.45264932513237
1630411854285,0.5562624931335449,0.1098449230194091,0.390160858631134,0.4109537899494171
1630411854377,0.5186001062393188,0.0773211792111396,0.3871370851993561,0.3530441224575043
1630411854530,0.5186001062393188,0.0720875710248947,0.3824045956134796,0.3530441224575043
1630411854583,0.5186001062393188,0.0724685043096542,0.3758933544158935,0.3530441224575043
1630411854709,0.5186001062393188,0.0669072046875953,0.3656679093837738,0.3530441224575043
1630411854767,0.5186001062393188,0.0583513081073761,0.3498284816741943,0.3530441224575043
1630411854885,0.5186001062393188,0.0528057850897312,0.3333915174007416,0.3530441224575043
1630411854989,0.5186001062393188,0.0501502901315689,0.3227936327457428,0.3530441224575043
1630411855104,0.5186001062393188,0.045009396970272,0.3139777779579162,0.3530441224575043
1630411855215,0.5186001062393188,0.0384251959621906,0.2896898090839386,0.3530441224575043
1630411855246,0.5186001062393188,0.0346774384379386,0.2424448877573013,0.3530441224575043
1630411855394,0.5186001062393188,0.0406292751431465,0.189460352063179,0.3530441224575043
1630411855514,0.5186001062393188,0.0557565987110137,0.14029461145401,0.3530441224575043
1630411855623,0.5186001062393188,0.0737969055771827,0.1123402565717697,0.3530441224575043
1630411855699,0.5186001062393188,0.0733754783868789,0.0962636098265647,0.3530441224575043
1630411855779,0.5186001062393188,0.0589534677565097,0.1534474194049835,0.3530441224575043
1630411855912,0.5186001062393188,0.0347041860222816,0.2003098875284195,0.3530441224575043
1630411855980,0.5186001062393188,0.0885956585407257,0.2325555086135864,0.3530441224575043
1630411856107,0.5186001062393188,0.1329980790615081,0.2471816837787628,0.3530441224575043
1630411856200,0.5186001062393188,0.1584595441818237,0.2542236149311065,0.3530441224575043
1630411856294,0.5186001062393188,0.1692176759243011,0.2715488076210022,0.3530441224575043
1630411856387,0.5186001062393188,0.1866231262683868,0.3267275989055633,0.3530441224575043
1630411856498,0.5186001062393188,0.2415430843830108,0.4361729919910431,0.3530441224575043
1630411856594,0.5186001062393188,0.3266360461711883,0.5708389282226562,0.3530441224575043
1630411856766,0.5186001062393188,0.4059229791164398,0.6860836744308472,0.3530441224575043
1630411856845,0.5186001062393188,0.4559482932090759,0.7581803202629089,0.3530441224575043
1630411856909,0.5186001062393188,0.4738124907016754,0.7859805226325989,0.3530441224575043
1630411857002,0.5186001062393188,0.4710164666175842,0.7633957862854004,0.3530441224575043
1630411857172,0.5186001062393188,0.460379958152771,0.7337760925292969,0.3530441224575043
1630411857250,0.5186001062393188,0.460379958152771,0.7052428722381592,0.3530441224575043
1630411857360,0.5186001062393188,0.4551328122615814,0.684903621673584,0.3530441224575043
1630411857409,0.5186001062393188,0.4780530929565429,0.6684117913246155,0.3530441224575043
1630411857540,0.5186001062393188,0.5146381258964539,0.6591556072235107,0.3530441224575043
1630411857628,0.5186001062393188,0.5536601543426514,0.6562155485153198,0.3530441224575043
1630411857800,0.5186001062393188,0.5808660984039307,0.6541284322738647,0.3530441224575043
1630411857815,0.5186001062393188,0.5931317806243896,0.6486040949821472,0.3530441224575043
1630411857976,0.5186001062393188,0.5940699577331543,0.6311264038085938,0.3530441224575043
1630411858023,0.5186001062393188,0.5825163722038269,0.5838258862495422,0.3530441224575043
1630411858102,0.5186001062393188,0.5571696758270264,0.4891416728496551,0.3530441224575043
1630411858214,0.5186001062393188,0.5255241990089417,0.3430489003658294,0.9278298616409302
1630411858339,1.0315382480621338,0.500654935836792,0.1735655218362808,0.8783391118049622
1630411858387,1.0119423866271973,0.4913601875305176,0.0495040118694305,0.8289462327957153
1630411858546,1.0114147663116455,0.4935981333255768,0.0081291459500789,0.7885079383850098
1630411858684,1.0178698301315308,0.4966030716896057,0.0092611154541373,0.7545087337493896
1630411858731,1.0161349773406982,0.4724955856800079,0.0132770920172333,0.7244516015052795
1630411858842,1.000931978225708,0.4520463347434997,0.0046048359945416,0.701641321182251
1630411858888,0.9758979678153992,0.4009433686733246,-0.0237050615251064,0.6858496069908142
1630411859000,0.949163854122162,0.3135230541229248,-0.0691777393221855,0.6714443564414978
1630411859207,0.925652801990509,0.2025433927774429,-0.1148184835910797,0.6555245518684387
1630411859254,0.9028294682502748,0.1025923863053321,-0.1422751694917678,0.6366226673126221
1630411859363,0.8784281611442566,0.0435652025043964,-0.1544129252433776,0.6185271739959717
1630411859458,0.8522334098815918,0.0120896063745021,-0.1702047437429428,0.5659053325653076
1630411859553,0.8059563040733337,-0.0259290393441915,-0.1968310922384262,0.5079691410064697
1630411859647,0.7753024101257324,-0.085905484855175,-0.2297600656747818,0.4516707062721252
1630411859756,0.7473437786102295,-0.160263106226921,-0.2521043121814728,0.4102534055709839
1630411859882,0.7278356552124023,-0.2015284299850464,-0.2382241785526275,0.3910287916660309
1630411859963,0.7047922015190125,-0.09053485840559,-0.1451150327920913,0.3874513208866119
1630411860038,0.6583776473999023,0.1434834003448486,0.0160849094390869,0.3855499625205993
1630411860132,0.5797321200370789,0.1550819724798202,0.1765259653329849,0.3852821886539459
1630411860242,0.4790754616260528,0.174126923084259,0.2914876043796539,0.3889703154563904
1630411860389,0.3838913738727569,0.2001190930604934,0.3536474704742431,0.3854013979434967
1630411860463,0.3199665248394012,0.2309938073158264,0.3748044371604919,0.3663362264633178
1630411860593,0.2689181864261627,0.2641797661781311,0.3743906915187835,0.3422361314296722
1630411860650,0.1773204952478408,0.2990074753761291,0.3671155869960785,0.3272674083709717
1630411860745,0.1773204952478408,0.336883008480072,0.359898179769516,0.3272674083709717
1630411860869,0.1773204952478408,0.3813690841197967,0.3573705852031708,0.3272674083709717
1630411861026,0.1773204952478408,0.3859944343566894,0.3643181324005127,0.3272674083709717
1630411861122,0.1773204952478408,0.4159993827342987,0.3855544030666351,0.3272674083709717
1630411861151,0.1773204952478408,0.4709280133247375,0.4195049703121185,0.3272674083709717
1630411861295,0.6323214173316956,0.5282370448112488,0.4539488554000854,0.3272674083709717
1630411861391,0.6664729118347168,0.559177041053772,0.4741640090942383,0.3807460069656372
1630411861438,0.6496009230613708,0.5147053003311157,0.4662852883338928,0.3784793615341186
1630411861612,0.6056675314903259,0.3067754805088043,0.4217797517776489,0.3805354237556457
1630411861687,0.5565158724784851,0.2783575654029846,0.3438635766506195,0.3925504982471466
1630411861814,0.514033317565918,0.2562904953956604,0.2516375482082367,0.40254807472229
1630411861940,0.4809168577194214,0.2354402691125869,0.1764928549528122,0.4012597799301147
1630411861988,0.4537787139415741,0.2127669304609298,0.1393804401159286,0.3913191258907318
1630411862130,0.4297940731048584,0.1886374503374099,0.1294431239366531,0.3832840025424957
1630411862177,0.4065524935722351,0.1650785505771637,0.1289753317832946,0.3814217150211334
1630411862270,0.3832859992980957,0.1434770226478576,0.1309952288866043,0.3809294402599334
1630411862364,0.3607386946678161,0.1246597841382026,0.1303321421146392,0.3772773444652557
1630411862505,0.3511556386947632,0.1223727986216545,0.1185409426689148,0.3710752725601196
1630411862614,0.3162074387073517,0.0987210050225257,0.0819984823465347,0.3687838017940521
1630411862708,0.2397675216197967,0.0444835610687732,0.0090683409944176,0.3599425256252289
1630411862787,0.1198546439409256,-0.033604510128498,-0.0942967310547828,0.3464919030666351
1630411862900,-0.0154410172253847,-0.1121338233351707,-0.1991046220064163,0.3362681269645691
1630411862961,-0.1044528409838676,-0.1676109284162521,-0.2710501551628113,0.3297826945781708
1630411863072,-0.12537781894207,-0.2033915370702743,-0.3081496655941009,0.3227947652339935
1630411863198,-0.1184509098529815,-0.2382657527923584,-0.3394443690776825,0.3126507401466369
1630411863310,-0.1106108427047729,-0.2781668305397033,-0.3767525255680084,0.3061844408512115
1630411863448,-0.1149759888648986,-0.3166259229183197,-0.4075457453727722,0.3160594403743744
1630411863543,-0.1276289373636245,-0.3431347012519836,-0.4194417893886566,0.3470720648765564
1630411863609,0.1313620805740356,-0.3398610949516296,-0.4028439223766327,0.3872649669647217
1630411863716,0.2993740439414978,-0.2954248785972595,-0.3568239510059356,0.4299122095108032
1630411863780,0.3269190490245819,-0.226840853691101,-0.2962020933628082,0.4730817377567291
1630411863873,0.3605871498584747,-0.1687282025814056,-0.2441961616277694,0.5079874992370605
1630411864032,0.4269008934497833,-0.1404941529035568,-0.2177848666906356,0.5296790599822998
1630411864110,0.4739276170730591,-0.1410244852304458,-0.2177039235830307,0.5417076349258423
1630411864192,0.5150942206382751,-0.1552864760160446,-0.2296193689107895,0.5498702526092529
1630411864333,0.5569358468055725,-0.1706301718950271,-0.2352896630764007,0.5656457543373108
1630411864424,0.6034575700759888,-0.1804726719856262,-0.220656156539917,0.5825190544128418
1630411864487,0.6563236713409424,-0.1832657754421234,-0.1825050264596939,0.6007367372512817
1630411864674,0.720848798751831,-0.1791556924581527,-0.1343725025653839,0.6204870343208313
1630411864750,0.720848798751831,-0.1685987412929535,-0.090492770075798,0.6410958170890808
1630411864812,0.720848798751831,-0.1574890464544296,-0.0578403510153293,0.6615822315216064
1630411864923,0.720848798751831,-0.1507713943719864,-0.0367140546441078,0.6781834363937378
1630411865034,0.720848798751831,-0.1486522257328033,-0.0260007549077272,0.6848794221878052
1630411865111,0.6673499345779419,-0.1552913337945938,-0.0277273338288068,0.6794683933258057
1630411865286,0.6673499345779419,-0.1832726448774337,-0.0450857542455196,0.6554142236709595
1630411865331,0.6673499345779419,-0.24131640791893,-0.0776418671011924,0.6027266979217529
1630411865446,0.6673499345779419,-0.3175515830516815,-0.1181781142950058,0.6027266979217529
1630411865534,0.6673499345779419,-0.377481073141098,-0.1491313427686691,0.6027266979217529
1630411865675,0.6673499345779419,-0.3862971365451813,-0.1545243710279464,0.6027266979217529
1630411865706,0.6673499345779419,-0.3436952531337738,-0.1366246342658996,0.6027266979217529
1630411865876,0.6673499345779419,-0.2671130895614624,-0.1150296628475189,0.6027266979217529
1630411865970,-0.0535952188074588,-0.1827048063278198,-0.1104097664356231,0.5465189814567566
1630411866031,0.0260413084179162,-0.11434206366539,-0.1320395320653915,0.530216634273529
1630411866158,0.1432697474956512,-0.0746639221906662,-0.1713144928216934,0.543390691280365
1630411866254,0.2526037991046905,-0.0623228251934051,-0.2091214805841446,0.5663988590240479
1630411866332,0.3186570107936859,-0.0640906989574432,-0.2302639782428741,0.5723684430122375
1630411866457,0.3470043540000915,-0.0666496306657791,-0.231909841299057,0.5577589869499207
1630411866583,0.3667015135288238,-0.0657669007778167,-0.2178040295839309,0.5440624952316284
1630411866771,0.4036093056201935,-0.0637986809015274,-0.1944969743490219,0.5547438859939575
1630411866818,0.4621737897396087,-0.057341031730175,-0.1706730723381042,0.5921661257743835
1630411866897,0.5209974646568298,-0.0409008339047431,-0.1503355205059051,0.636264979839325
1630411866964,0.5648077130317688,-0.0152346715331077,-0.1271208971738815,0.6740293502807617
1630411867078,0.5894534587860107,0.0104999421164393,-0.1003296375274658,0.7013471126556396
1630411867165,0.6227760910987854,0.024754099547863,-0.079470656812191,0.7257871627807617
1630411867296,0.6428219079971313,0.0193228982388973,-0.0742302164435386,0.7459492087364197
1630411867354,0.653101921081543,-0.0081490259617567,-0.0828316360712051,0.7625144124031067
1630411867449,0.6558672189712524,-0.049152310937643,-0.0953004360198974,0.7738456726074219
1630411867540,0.6564511656761169,-0.0862843468785286,-0.102784514427185,0.7814256548881531
1630411867728,0.6573610901832581,-0.1030900999903678,-0.1055299192667007,0.7847734093666077
1630411867778,0.6582889556884766,-0.0913194715976715,-0.1078860983252525,0.7865623235702515
1630411867898,0.6594937443733215,-0.0522279925644397,-0.1140558496117591,0.7929802536964417
1630411867961,0.6603079438209534,0.001644424861297,-0.1266453266143798,0.8036693930625916
1630411868074,0.6576331853866577,0.0510674454271793,-0.1475000977516174,0.8105403780937195
1630411868198,0.6488028168678284,0.0826722830533981,-0.1744479686021804,0.8029364943504333
1630411868287,0.6308372616767883,0.0920822843909263,-0.2016691267490387,0.7784700393676758
1630411868354,0.6079244017601013,0.0836949348449707,-0.2243973314762115,0.7450951933860779
1630411868497,0.5862413048744202,0.0648095980286598,-0.247743159532547,0.7139400243759155
1630411868561,0.5695824027061462,0.0424749292433261,-0.2782267928123474,0.6931649446487427
1630411868671,0.5556820034980774,0.0234643798321485,-0.3117994964122772,0.680790901184082
1630411868762,0.5519230961799622,0.0122217666357755,-0.3324996829032898,0.6804298162460327
1630411868888,0.5613056421279907,0.0101495385169982,-0.3245405852794647,0.6901748776435852
1630411868979,0.5806978940963745,0.0128944534808397,-0.2897551357746124,0.7056941986083984
1630411869089,0.5986303687095642,0.0139336083084344,-0.2481089830398559,0.716896116733551
1630411869197,0.6058586835861206,0.0089110787957906,-0.2200138866901397,0.7164303064346313
1630411869275,0.6011701226234436,-0.0080595547333359,-0.2122840285301208,0.7038472294807434
1630411869374,0.591238796710968,-0.0456012338399887,-0.215753436088562,0.6824296712875366
1630411869483,0.5852351784706116,-0.1075389087200164,-0.2156012207269668,0.6611290574073792
1630411869577,0.588277280330658,-0.1830297410488128,-0.2048820704221725,0.649479866027832
1630411869687,0.5926777720451355,-0.2479783147573471,-0.1845525354146957,0.6544339060783386
1630411869796,0.5891602039337158,-0.2840464115142822,-0.1568827480077743,0.6701993942260742
1630411869874,0.5765436291694641,-0.2971500158309936,-0.1264864057302475,0.6859488487243652
1630411870015,0.5663861632347107,-0.3017866909503937,-0.100837156176567,0.6930327415466309
1630411870108,0.5695488452911377,-0.3042696714401245,-0.0838085711002349,0.6879974603652954
1630411870202,0.5820350646972656,-0.307376891374588,-0.0746308416128158,0.6718155741691589
1630411870329,0.5891399383544922,-0.3132444024085998,-0.0697787404060363,0.646179735660553
1630411870423,0.5844383239746094,-0.3261563181877136,-0.0703029632568359,0.6134806871414185
1630411870532,0.572554349899292,-0.348330020904541,-0.080640859901905,0.5777886509895325
1630411870626,0.5589966773986816,-0.3782779574394226,-0.1027787104249,0.5477561354637146
1630411870736,0.5464365482330322,-0.4117284119129181,-0.1303061097860336,0.5366454124450684
1630411870860,0.5363093614578247,-0.4432895183563232,-0.1553455889225006,0.5459832549095154
1630411870923,0.5332793593406677,-0.4684284925460815,-0.1729284822940826,0.5642722249031067
1630411871032,0.5401266813278198,-0.484201967716217,-0.1854846775531768,0.5784351825714111
1630411871126,0.5492071509361267,-0.4885969758033752,-0.1971620172262191,0.580071747303009
1630411871189,0.5532332062721252,-0.4726966023445129,-0.2117263078689575,0.568526029586792
1630411871347,0.5510168075561523,-0.4245398640632629,-0.2324378937482834,0.554327666759491
1630411871457,0.5455878973007202,-0.3539557158946991,-0.258443683385849,0.560943067073822
1630411871550,0.5383324027061462,-0.28504678606987,-0.2819870114326477,0.6089316606521606
1630411871629,0.5278920531272888,-0.236428290605545,-0.2961037158966064,0.683255136013031
1630411871722,0.5158053636550903,-0.209286481142044,-0.3029097318649292,0.752412736415863
1630411871832,0.5058997273445129,-0.1958224773406982,-0.3126899302005768,0.797874391078949
1630411871941,0.5004379153251648,-0.1919434815645218,-0.3332492709159851,0.819060742855072
1630411872066,0.4993864595890045,-0.1958567202091217,-0.3621729910373688,0.8264384865760803
1630411872144,0.5025947093963623,-0.202578917145729,-0.3877469599246979,0.8301883935928345
1630411872285,0.5096957087516785,-0.2028929740190506,-0.400909960269928,0.8324888348579407
1630411872366,0.5178421139717102,-0.1917361319065094,-0.4002717435359955,0.833023726940155
1630411872397,0.5220704674720764,-0.1712750941514969,-0.3966823220252991,0.8331476449966431
1630411872569,0.5238003134727478,-0.1478232145309448,-0.398722380399704,0.8366588950157166
1630411872662,0.5296449065208435,-0.1282475888729095,-0.4071443080902099,0.8446010947227478
1630411872803,0.5438892841339111,-0.1214207559823989,-0.4202084839344024,0.8539312481880188
1630411872866,0.561271071434021,-0.1368490308523178,-0.4374213814735412,0.8588823080062866
1630411872928,0.5722442865371704,-0.1755616515874862,-0.4578833878040313,0.8523231744766235
1630411873069,0.568334698677063,-0.2237837314605713,-0.4805342853069305,0.8251538276672363
1630411873209,0.5509274005889893,-0.2494663745164871,-0.5060389637947083,0.7763440608978271
1630411873256,0.5291208624839783,-0.2096962481737136,-0.5352460741996765,0.7186582684516907
1630411873381,0.5140194892883301,-0.1064007356762886,-0.5668122172355652,0.6736322045326233
1630411873475,0.5087774395942688,0.0114199081435799,-0.5918448567390442,0.6561423540115356
1630411873537,0.5055302381515503,0.1014815121889114,-0.6023458242416382,0.6583271026611328
1630411873662,0.4970086812973022,0.1520788073539734,-0.6010819673538208,0.6639417409896851
1630411873787,0.4835533797740936,0.1701515763998031,-0.5989362001419067,0.663532018661499
1630411873912,0.4733076691627502,0.1700433194637298,-0.6037828326225281,0.6589115858078003
1630411874006,0.4684516787528991,0.1628261059522628,-0.611080527305603,0.654405415058136
1630411874115,0.459002286195755,0.1537232547998428,-0.61064213514328,0.6501848101615906
1630411874209,0.4315939843654632,0.1456242501735687,-0.6040899753570557,0.6429033875465393
1630411874240,0.3825702965259552,0.142194777727127,-0.5984869599342346,0.6301568150520325
1630411874415,0.324255496263504,0.1473629623651504,-0.5959641337394714,0.6133508682250977
1630411874509,0.2749309539794922,0.16310416162014,-0.5876531600952148,0.5908248424530029
1630411874587,0.2457837760448455,0.1834746152162552,-0.5645521879196167,0.5587943196296692
1630411874681,0.2364744842052459,0.1967360377311706,-0.5225156545639038,0.5208063125610352
1630411874774,0.244773656129837,0.186834454536438,-0.4642090797424316,0.4821358621120453
1630411874899,0.2616743743419647,0.1435004919767379,-0.3959245681762695,0.446656584739685
1630411875024,0.2748507857322693,0.0696150735020637,-0.3267963826656341,0.413171648979187
1630411875087,0.2797492146492004,-0.0121465474367141,-0.2635833919048309,0.3875922560691833
1630411875196,0.2780022025108337,-0.0701854899525642,-0.2137922644615173,0.375049740076065
1630411875321,0.2763949930667877,-0.0919377282261848,-0.1813695579767227,0.3778171241283417
1630411875385,0.2738854885101318,-0.0927111580967903,-0.1657836586236953,0.3882915377616882
1630411875465,0.2646186649799347,-0.0868094190955162,-0.162926509976387,0.3921951353549957
1630411875637,0.2474678009748459,-0.07766904681921,-0.1667773574590683,0.381033182144165
1630411875699,0.2302884608507156,-0.0687531977891922,-0.171573594212532,0.3617682754993438
1630411875840,0.2214466482400894,-0.0649679228663444,-0.1722087264060974,0.3520267903804779
1630411875902,0.2196936458349228,-0.0668491348624229,-0.1670446097850799,0.3570834100246429
1630411875980,0.2237226217985153,-0.0722613707184791,-0.1611458361148834,0.3805824518203735
1630411876121,0.233297124505043,-0.0785842686891555,-0.1605156660079956,0.4136435091495514
1630411876261,0.2486646920442581,-0.0839226022362709,-0.1660387516021728,0.4418389797210693
1630411876308,0.2695918679237366,-0.087520845234394,-0.1708476990461349,0.457422137260437
1630411876452,0.2950330376625061,-0.0922851115465164,-0.1708827763795852,0.4602889716625213
1630411876499,0.3247734904289245,-0.1009033173322677,-0.1697857230901718,0.4531514346599579
1630411876577,0.3522332608699798,-0.1112169176340103,-0.1713231652975082,0.4386479556560516
1630411876718,0.3688085377216339,-0.1142842248082161,-0.1688345819711685,0.4157544672489166
1630411876812,0.3693892657756805,-0.1055544763803482,-0.1510315537452697,0.3858135938644409
1630411876921,0.3551909327507019,-0.0923340991139411,-0.1174678057432174,0.347061425447464
1630411877015,0.3366436064243316,-0.0862770676612854,-0.0796095430850982,0.3089382648468017
1630411877108,0.3217061161994934,-0.0930903851985931,-0.0482917800545692,0.2834169864654541
1630411877233,0.3165128827095032,-0.1064136028289794,-0.0260341297835111,0.2793165743350982
1630411877311,0.3240826427936554,-0.1190410554409027,-0.0120513988658785,0.2872190177440643
1630411877424,0.341513454914093,-0.1321087330579757,-0.0055630458518862,0.293770432472229
1630411877502,0.3574845492839813,-0.1494914591312408,-0.0063117961399257,0.2782396078109741
1630411877612,0.3652417957782745,-0.1660452336072921,-0.0130764739587903,0.2417608201503753
1630411877721,0.3664378821849823,-0.172494575381279,-0.0253741387277841,0.2060220688581466
1630411877799,0.3618243634700775,-0.1692792028188705,-0.0451561100780963,0.2007344961166381
1630411877908,0.3486763536930084,-0.167220652103424,-0.0734380334615707,0.243302896618843
1630411878065,0.325561374425888,-0.1740211099386215,-0.1064096316695213,0.318643718957901
1630411878127,0.2986180186271667,-0.1914867907762527,-0.1406852900981903,0.3913788199424743
1630411878236,0.276987075805664,-0.216935247182846,-0.1784771531820297,0.4478937685489654
1630411878346,0.2626820504665375,-0.2401926815509796,-0.227451741695404,0.4895477890968323
1630411878458,0.2574121356010437,-0.2417154163122177,-0.2888336777687073,0.5303249955177307
1630411878536,0.2574663460254669,-0.2094342112541198,-0.350226879119873,0.5684535503387451
1630411878677,0.2631193697452545,-0.1488803029060363,-0.3895035088062286,0.5978673696517944
1630411878786,0.2708919048309326,-0.0820969492197036,-0.3959384858608246,0.6108939051628113
1630411878833,0.2747757136821747,-0.0304699521511793,-0.3793640434741974,0.6077030897140503
1630411878958,0.2701136469841003,-0.0038552989717572,-0.3614594936370849,0.5956799983978271
1630411879068,0.2597857117652893,0.0003977991000283,-0.3532171249389648,0.5863536596298218
1630411879160,0.2450469434261322,-0.0050780395977199,-0.3552784621715545,0.5836508870124817
1630411879268,0.2262028604745865,-0.0070854374207556,-0.3582430779933929,0.5858018398284912
1630411879378,0.2017728090286255,0.0013153055915609,-0.3437135219573974,0.5892742872238159
1630411879503,0.1773922890424728,0.0207154024392366,-0.2918322086334228,0.5879186391830444
1630411879534,0.1571768224239349,0.0458246879279613,-0.2073108851909637,0.5787700414657593
1630411879659,0.1433743983507156,0.0691723227500915,-0.1199588924646377,0.566964864730835
1630411879737,0.1388556212186813,0.0833874344825744,-0.0542775690555572,0.5569708347320557
1630411879862,0.1457364559173584,0.0857954546809196,-0.0167899765074253,0.5472627878189087
1630411880003,0.1544034034013748,0.0763568580150604,-0.0018493386451154,0.5282641053199768
1630411880049,0.1602607816457748,0.0535927861928939,0.000157185117132,0.5098869204521179
1630411880143,0.1583989709615707,0.0138653423637151,-0.0054989368654787,0.5095073580741882
1630411880253,0.153332844376564,-0.0423088483512401,-0.0170645471662282,0.5398628115653992
1630411880346,0.1516512930393219,-0.1015369072556495,-0.0335986800491809,0.595165491104126
1630411880523,0.1585801243782043,-0.1446401476860046,-0.0507693402469158,0.6543907523155212
1630411880570,0.1720167249441146,-0.1653100401163101,-0.0641814693808555,0.6970074772834778
1630411880664,0.1886757016181945,-0.180717796087265,-0.0693177580833435,0.7193043828010559
1630411880757,0.1986975818872451,-0.2075530439615249,-0.0640060305595398,0.7254062294960022
1630411880898,0.2075874358415603,-0.2449217587709427,-0.0498450770974159,0.7268886566162109
1630411880945,0.2300876975059509,-0.283120185136795,-0.0379328429698944,0.7312732934951782
1630411881086,0.2729454934597015,-0.3167139589786529,-0.0428994446992874,0.7437194585800171
1630411881195,0.3222338855266571,-0.3351527750492096,-0.0680246129631996,0.7627894282341003
1630411881257,0.3636370897293091,-0.3198828101158142,-0.0992487072944641,0.784299910068512
1630411881398,0.3949497044086456,-0.2706240713596344,-0.110953003168106,0.8013762831687927
1630411881463,0.4224022328853607,-0.2140079885721206,-0.0929449126124382,0.8118852972984314
1630411881573,0.4446494579315185,-0.1721009612083435,-0.0638541653752327,0.8111283183097839
1630411881729,0.4593423902988434,-0.1492142975330352,-0.0427595861256122,0.7985005974769592
1630411881776,0.4644345045089721,-0.1394795328378677,-0.0341844446957111,0.7749184370040894
1630411881885,0.4622353911399841,-0.1378210186958313,-0.0321180112659931,0.7427946329116821
1630411881979,0.4558915793895721,-0.1396413594484329,-0.0293950717896223,0.7083582282066345
1630411882073,0.4493711292743683,-0.1422578394412994,-0.0223387219011783,0.6812430024147034
1630411882198,0.4471200406551361,-0.1439280956983566,-0.0142567660659551,0.6668922305107117
1630411882338,0.4604006707668304,-0.1434860825538635,-0.0123678380623459,0.6625581383705139
1630411882432,0.4716285765171051,-0.1381998658180236,-0.0244028568267822,0.671728253364563
1630411882494,0.4696721732616424,-0.1228151991963386,-0.0488468445837497,0.6695765256881714
1630411882651,0.4471582174301147,-0.0965946987271308,-0.0679314658045768,0.6485212445259094
1630411882697,0.3806326389312744,-0.0717387795448303,-0.0640836209058761,0.5751070380210876
1630411882776,0.3096719980239868,-0.063501626253128,-0.0426576919853687,0.480522871017456
1630411882916,0.2441980242729187,-0.0779548957943916,-0.0266844928264617,0.3886899650096893
1630411882994,0.1876599937677383,-0.1059796065092086,-0.0303110387176275,0.3282076418399811
1630411883104,0.1588489711284637,-0.1320519149303436,-0.0469627268612384,0.3208551406860351
1630411883197,0.1739904433488845,-0.1480468213558197,-0.0623479522764682,0.3483937680721283
1630411883307,0.2135670781135559,-0.1559752225875854,-0.0684526935219764,0.3787981569766998
1630411883385,0.2461717277765274,-0.1603920310735702,-0.0676208287477493,0.3924328088760376
1630411883559,0.2698029577732086,-0.1636780351400375,-0.0654367506504058,0.391273945569992
1630411883653,0.2901719808578491,-0.1650817394256591,-0.0664462000131607,0.3807670176029205
1630411883746,0.3123842179775238,-0.1632882803678512,-0.0722839087247848,0.3775149285793304
1630411883825,0.3300123512744903,-0.1623348444700241,-0.0815668180584907,0.3919399082660675
1630411883903,0.3481946289539337,-0.1732360124588012,-0.0924652442336082,0.418549507856369
1630411884012,0.371038556098938,-0.2056450992822647,-0.1078731641173362,0.4506521224975586
1630411884137,0.399165540933609,-0.2590035498142242,-0.1400547623634338,0.4737949669361114
1630411884215,0.4460800588130951,-0.3203338980674743,-0.1993691325187683,0.5019063949584961
1630411884312,0.4856355190277099,-0.3694906830787658,-0.2805468440055847,0.5207619071006775
1630411884421,0.5134142637252808,-0.3869910836219787,-0.3585232198238373,0.5368820428848267
1630411884515,0.5299904942512512,-0.3684958219528198,-0.4052122235298157,0.5518388748168945
1630411884640,0.5361204147338867,-0.3232126533985138,-0.4196354746818542,0.5656992197036743
1630411884765,0.5310372114181519,-0.2703716158866882,-0.4234634339809418,0.5794965624809265
1630411884827,0.5188024640083313,-0.2273408770561218,-0.4286827147006988,0.5929630994796753
1630411884937,0.5070310831069946,-0.1999413967132568,-0.4352088570594787,0.6030354499816895
1630411885046,0.4969496428966522,-0.1847609281539917,-0.4397710263729095,0.6052539348602295
1630411885140,0.4874778687953949,-0.1787629276514053,-0.4412955343723297,0.6059737801551819
1630411885218,0.4756217896938324,-0.1812199354171753,-0.4355007708072662,0.6078767776489258
1630411885377,0.4590615332126617,-0.1882252544164657,-0.4203031659126282,0.6066877245903015
1630411885518,0.4373823702335357,-0.1908067017793655,-0.4028355181217193,0.5964611172676086
1630411885549,0.4058440923690796,-0.1849009394645691,-0.3933886587619781,0.5784076452255249
1630411885643,0.3631393909454345,-0.1746169030666351,-0.3914432525634765,0.564165472984314
1630411885783,0.3128102421760559,-0.1668673306703567,-0.3866952657699585,0.5628078579902649
1630411885830,0.2635274529457092,-0.1631430685520172,-0.3733462393283844,0.5677070617675781
1630411885971,0.2337124943733215,-0.1585719883441925,-0.3572235405445099,0.5688522458076477
1630411886065,0.237726405262947,-0.1427389085292816,-0.3437919914722442,0.5644916296005249
1630411886221,0.2713046371936798,-0.104326993227005,-0.3345570564270019,0.5569745302200317
1630411886276,0.3142411410808563,-0.0466932021081447,-0.3287577033042907,0.5477945804595947
1630411886338,0.3516047894954681,0.0117377927526831,-0.3301696479320526,0.5405080318450928
1630411886479,0.3790514767169952,0.0573046468198299,-0.3397231698036194,0.5417696833610535
1630411886604,0.3999459445476532,0.0878421738743782,-0.3502309322357178,0.5505772829055786
1630411886666,0.4184765517711639,0.1103483438491821,-0.3443805575370788,0.5583920478820801
1630411886744,0.4365712702274322,0.132484570145607,-0.310439258813858,0.556571900844574
1630411886869,0.4568803310394287,0.1565015465021133,-0.2587816119194031,0.5492032766342163
1630411887025,0.4771076440811157,0.1810058355331421,-0.2099814713001251,0.542570173740387
1630411887088,0.4954531788825989,0.2032114863395691,-0.1764688491821289,0.5459494590759277
1630411887213,0.5078054666519165,0.2207528799772262,-0.159788891673088,0.5566999912261963
1630411887291,0.5169365406036377,0.2334049195051193,-0.1557047367095947,0.5711133480072021
1630411887385,0.5255781412124634,0.2418952286243438,-0.1594269126653671,0.5735096335411072
1630411887478,0.5327234864234924,0.2441312223672866,-0.1649125069379806,0.5782757997512817
1630411887572,0.5312256813049316,0.2358714789152145,-0.1673085838556289,0.5721242427825928
1630411887682,0.5166815519332886,0.2124354839324951,-0.1646335124969482,0.5592857599258423
1630411887791,0.4919199049472809,0.1758262813091278,-0.1567317843437194,0.5482470393180847
1630411887932,0.4659610986709595,0.1378325521945953,-0.1410393863916397,0.5474386215209961
1630411888025,0.4449962079524994,0.1113776564598083,-0.1175422966480255,0.5549330711364746
1630411888103,0.4270627498626709,0.0988095179200172,-0.094352938234806,0.5665478110313416
1630411888181,0.4068209230899811,0.0906471908092498,-0.0840144306421279,0.5780414342880249
1630411888276,0.380605548620224,0.0758716538548469,-0.0934604257345199,0.5873265266418457
1630411888406,0.3510189354419708,0.0496610738337039,-0.1172640696167945,0.589887797832489
1630411888547,0.3260645568370819,0.0122334556654095,-0.1427160799503326,0.5829604864120483
1630411888640,0.3119463622570038,-0.0311155188828706,-0.1590594053268432,0.5645356178283691
1630411888703,0.3154646456241607,-0.0711868777871131,-0.1661564260721206,0.5419376492500305
1630411888797,0.3374562561511993,-0.0987287759780883,-0.1676431000232696,0.5255501866340637
1630411888890,0.3698602318763733,-0.1117275655269622,-0.1621660888195037,0.5356225371360779
1630411889015,0.3956228494644165,-0.114806093275547,-0.1506972908973693,0.539944052696228
1630411889125,0.4060190916061401,-0.1173008978366851,-0.1399903744459152,0.5394282937049866
1630411889223,0.4034596383571625,-0.127471387386322,-0.1348240822553634,0.531495988368988
1630411889288,0.3975908756256103,-0.147767961025238,-0.1318680197000503,0.5130012631416321
1630411889398,0.3921209275722503,-0.1762876510620117,-0.1231550648808479,0.4804515242576599
1630411889476,0.3887816369533539,-0.2072705030441284,-0.1049273237586021,0.4411633312702179
1630411889648,0.3954728841781616,-0.2298334091901779,-0.0811987891793251,0.4129571616649627
1630411889726,0.4169670641422272,-0.2325680404901504,-0.0618655309081077,0.4126843512058258
1630411889820,0.4443337917327881,-0.214006707072258,-0.0553119778633117,0.4320743978023529
1630411889929,0.4663269519805908,-0.1858492344617843,-0.0643610134720802,0.4548710286617279
1630411890023,0.4761809408664703,-0.1624466925859451,-0.0838192403316497,0.4718316793441772
1630411890116,0.4773071706295013,-0.1500869393348693,-0.1045467108488082,0.4797631502151489
1630411890309,0.4758468866348266,-0.1493226438760757,-0.1183392405509948,0.4776090085506439
1630411890340,0.4664967656135559,-0.1592027097940445,-0.1237243860960006,0.4705705344676971
1630411890449,0.4436883330345154,-0.1783340722322464,-0.1278316676616668,0.4532668590545654
1630411890559,0.4141629040241241,-0.2017244398593902,-0.1361560523509979,0.438912957906723
1630411890652,0.3913944363594055,-0.2190453112125396,-0.1474795043468475,0.441710889339447
1630411890746,0.3856801688671112,-0.2208611369132995,-0.1567478328943252,0.4636082351207733
1630411890855,0.3961080014705658,-0.2062982767820358,-0.1602737456560135,0.4963991940021515
1630411890980,0.4173716306686401,-0.1793381869792938,-0.1614788323640823,0.5329667925834656
1630411891074,0.4411147534847259,-0.1440454721450805,-0.1670142114162445,0.5623197555541992
1630411891168,0.4532100260257721,-0.0988628715276718,-0.1811850368976593,0.5712408423423767
1630411891293,0.4400492012500763,-0.0450002551078796,-0.1996059417724609,0.5422861576080322
1630411891340,0.407307356595993,0.0120593635365366,-0.21050426363945,0.4763376414775848
1630411891480,0.407307356595993,0.0708445608615875,-0.2061937004327774,0.4763376414775848
1630411891561,0.407307356595993,0.1274346709251403,-0.1909694820642471,0.4763376414775848
1630411891717,0.407307356595993,0.1754136383533477,-0.1710184663534164,0.4763376414775848
1630411891733,0.407307356595993,0.2127841413021087,-0.1471471488475799,0.4763376414775848
1630411891827,0.407307356595993,0.2411630004644394,-0.1213864907622337,0.4763376414775848
1630411891905,0.407307356595993,0.262040227651596,-0.09820356965065,0.4763376414775848
1630411892030,0.407307356595993,0.27720707654953,-0.0844060704112052,0.4763376414775848
1630411892186,0.407307356595993,0.2870203852653503,-0.0808475539088249,0.4763376414775848
1630411892298,0.407307356595993,0.2937173545360565,-0.0843664854764938,0.4763376414775848
1630411892330,0.407307356595993,0.2980203330516815,-0.0932021811604499,0.4763376414775848
1630411892439,0.407307356595993,0.2976473867893219,-0.1082217916846275,0.4763376414775848
1630411892533,0.6711652874946594,0.2896299958229065,-0.1314652115106582,0.4763376414775848
1630411892689,0.6570149064064026,0.2714866101741791,-0.1606333255767822,0.4763376414775848
1630411892814,0.6230257749557495,0.2419998198747635,-0.1891244053840637,0.9411798119544984
1630411892861,0.5902390480041504,0.201566457748413,-0.2130376100540161,0.8935032486915588
1630411892970,0.5684263110160828,0.1497956961393356,-0.2331347167491912,0.8560231328010559
1630411893048,0.5598376989364624,0.0901858955621719,-0.2523573040962219,0.8377723693847656
1630411893126,0.5722687840461731,0.0307822953909635,-0.2751994729042053,0.8513173460960388
1630411893314,0.6044288277626038,-0.0213487967848777,-0.3098936378955841,0.8941019773483276
1630411893407,0.6343604326248169,-0.0644624233245849,-0.3606436550617218,0.9425891041755676
1630411893470,0.6801356077194214,-0.0962999239563942,-0.4167866706848144,0.9698086977005004
1630411893567,0.6877521872520447,-0.1186515986919403,-0.4510855674743652,0.9689186811447144
1630411893691,0.677372932434082,-0.1342203319072723,-0.4521589875221252,0.9503021836280824
1630411893816,0.6578984260559082,-0.1515588760375976,-0.4387665688991546,0.9283382296562196
1630411893879,0.6362419724464417,-0.1703901141881942,-0.4313721358776092,0.913916826248169
1630411893988,0.6285360455513,-0.1790242791175842,-0.4328499734401703,0.9041621088981628
1630411894098,0.6199169754981995,-0.170138344168663,-0.4298963546752929,0.8942279815673828
1630411894207,0.6219070553779602,-0.1506094187498092,-0.4148566722869873,0.8925114870071411
1630411894285,0.6376289129257202,-0.1309286504983902,-0.3932302296161651,0.9035627245903016
1630411894394,0.6598609089851379,-0.1143482103943824,-0.3720992803573608,0.9237746596336364
1630411894488,0.68251633644104,-0.1002215221524238,-0.3488356471061706,0.9486259818077089
1630411894601,0.7019727230072021,-0.0914673879742622,-0.3207144439220428,0.9710946083068848
1630411894694,0.706281304359436,-0.0889275521039962,-0.2943202555179596,0.9759005904197692
1630411894804,0.6797561049461365,-0.0900416299700737,-0.2788288593292236,0.9420406222343444
1630411894866,0.6071789264678955,-0.091217041015625,-0.2750068604946136,0.8501806259155273
1630411894976,0.4859867990016937,-0.0926011353731155,-0.2791355550289154,0.7079191207885742
1630411895147,0.4859867990016937,-0.0962319299578666,-0.2892190814018249,0.7079191207885742
1630411895210,0.4859867990016937,-0.097376525402069,-0.3049627244472503,0.7079191207885742
1630411895335,0.4859867990016937,-0.0835286155343055,-0.3179435133934021,0.7079191207885742
1630411895413,0.4859867990016937,-0.0538335479795932,-0.3137068152427673,0.7079191207885742
1630411895475,0.4859867990016937,-0.0229331608861684,-0.2883188426494598,0.0845612809062004
1630411895600,0.0259677786380052,-0.0063717318698763,-0.256084144115448,0.1138935014605522
1630411895741,0.0622432194650173,-0.0092807812616229,-0.2294198870658874,0.1394016444683075
1630411895803,0.0826727226376533,-0.0263965558260679,-0.2030113488435745,0.1481491774320602
1630411896007,0.0914679914712905,-0.0500008277595043,-0.1679719239473343,0.1470755338668823
1630411896100,0.1046957671642303,-0.0765868499875068,-0.1277786791324615,0.1387128382921219
1630411896132,0.1464287191629409,-0.1014686375856399,-0.0916887670755386,0.1387157291173935
1630411896210,0.2013793736696243,-0.1221964284777641,-0.0622075982391834,0.1521596312522888
1630411896319,0.24516262114048,-0.1389684975147247,-0.03569907695055,0.1770503222942352
1630411896428,0.2607874572277069,-0.1480972915887832,-0.0115132723003625,0.2027000188827514
1630411896553,0.250416487455368,-0.144139289855957,0.0058601601049304,0.2243994623422622
1630411896725,0.229842409491539,-0.1286002993583679,0.0161214303225278,0.2334393411874771
1630411896756,0.214885413646698,-0.1181137859821319,0.0260711684823036,0.2327748239040374
1630411896819,0.2263861149549484,-0.1341548562049865,0.0449078865349292,0.2413011342287063
1630411896991,0.2425988912582397,-0.185841754078865,0.0740527212619781,0.2632593512535095
1630411897069,0.2551015019416809,-0.2651641964912414,0.1036349684000015,0.3052086234092712
1630411897147,0.2601965069770813,-0.3481588661670685,0.1233600303530693,0.3110060095787048
1630411897225,0.2598358392715454,-0.4085640013217926,0.1302767395973205,0.3154692947864532
1630411897319,0.2588540911674499,-0.437127947807312,0.1248970031738281,0.3240106999874115
1630411897412,0.2595833241939544,-0.4423992037773132,0.1090437024831771,0.3720130026340484
1630411897557,0.261810153722763,-0.431483656167984,0.0835184603929519,0.3802233040332794
1630411897651,0.2559770345687866,-0.4116650521755218,0.0517971701920032,0.3725274801254272
1630411897729,0.2390863448381424,-0.3864713609218597,0.0197304915636777,0.3695565164089203
1630411897870,0.2138325423002243,-0.3587442338466644,-0.0074190790764987,0.3766754269599914
1630411897948,0.1972561031579971,-0.3390711545944214,-0.0271502137184143,0.3950593769550323
1630411898026,0.1993718445301056,-0.3393806219100952,-0.0375963263213634,0.4128361046314239
1630411898167,0.2206067591905594,-0.359966903924942,-0.0363515987992286,0.4370861947536468
1630411898260,0.2476881295442581,-0.3785531520843506,-0.0230168141424655,0.4710943400859833
1630411898341,0.2711914181709289,-0.3671405017375946,-0.006524050142616,0.5094714760780334
1630411898482,0.2890315651893616,-0.325064480304718,0.000484996358864,0.5371395349502563
1630411898591,0.3065132200717926,-0.2791765332221985,-0.0067652435973286,0.5436256527900696
1630411898638,0.3263987302780151,-0.2453181892633438,-0.0201863534748554,0.5525233745574951
1630411898810,0.3477496206760406,-0.2227970659732818,-0.0292995814234018,0.5585642457008362
1630411898872,0.3636790215969085,-0.2041854709386825,-0.0314323864877224,0.5593982338905334
1630411898966,0.3701945841312408,-0.1824478507041931,-0.0292549785226583,0.5474599003791809
1630411899075,0.3629995882511139,-0.1547303795814514,-0.0217845719307661,0.547545850276947
1630411899190,0.3458713889122009,-0.1229382008314132,-0.0073673543520271,0.548386812210083
1630411899237,0.3261272609233856,-0.0947328805923461,0.0158962793648242,0.5393375158309937
1630411899365,0.3133976757526397,-0.0777679309248924,0.0462018065154552,0.5189199447631836
1630411899475,0.3075485229492187,-0.0736549720168113,0.0765915364027023,0.4888645708560943
1630411899599,0.3033515810966491,-0.0777310356497764,0.0977757796645164,0.4586580991744995
1630411899662,0.2879270315170288,-0.0846735462546348,0.1013754606246948,0.430139809846878
1630411899771,0.25862517952919,-0.0945378094911575,0.0837751030921936,0.4027204215526581
1630411899849,0.2175139188766479,-0.1110920757055282,0.0485500767827034,0.3688234090805053
1630411900039,0.1731811463832855,-0.1368269771337509,0.0021669033449143,0.3302410840988159
1630411900123,0.1251679360866546,-0.1662931889295578,-0.0469274781644344,0.2889234721660614
1630411900198,0.0703142285346984,-0.1924733221530914,-0.091464951634407,0.2589470148086548
1630411900280,0.0040681893005967,-0.2132111489772796,-0.1246234253048896,0.2452210634946823
1630411900339,-0.0577845722436904,-0.2340608835220337,-0.1396589577198028,0.2523605525493622
1630411900482,-0.0912916883826255,-0.2612165510654449,-0.1386589556932449,0.2720943689346313
1630411900606,-0.0707762390375137,-0.2929344475269317,-0.133737251162529,0.3112587332725525
1630411900715,-0.009826953522861,-0.3203079104423523,-0.1387868821620941,0.3704798817634582
1630411900828,0.0596330463886261,-0.3342966735363006,-0.1662304103374481,0.4426513612270355
1630411900858,0.1097610965371131,-0.3368287980556488,-0.2218491584062576,0.5050625205039978
1630411900967,0.1335774362087249,-0.3378573656082153,-0.3002842366695404,0.5463993549346924
1630411901061,0.1378130614757537,-0.346065878868103,-0.3810951709747314,0.5654894709587097
1630411901217,0.1360660940408706,-0.3569161593914032,-0.4328015148639679,0.5695034861564636
1630411901341,0.1324532479047775,-0.3588086068630218,-0.4386912584304809,0.5644342303276062
1630411901388,0.125975489616394,-0.347468614578247,-0.4196763038635254,0.5613372325897217
1630411901483,0.1154965385794639,-0.3281764090061188,-0.4028337299823761,0.567023515701294
1630411901627,0.1042126789689064,-0.312034398317337,-0.396647185087204,0.5772959589958191
1630411901702,0.095421627163887,-0.3041266500949859,-0.3934991657733917,0.5813388824462891
1630411901821,0.0947888270020484,-0.2976732552051544,-0.3814803063869476,0.5723037123680115
1630411901927,0.1088475212454795,-0.2806774079799652,-0.3615608513355255,0.5557666420936584
1630411902004,0.1355256289243698,-0.2555489838123321,-0.3450372815132141,0.5460770130157471
1630411902098,0.1543729603290558,-0.2392643243074417,-0.338483989238739,0.5433258414268494
1630411902178,0.1445545405149459,-0.2433956414461136,-0.3360628187656402,0.5345519185066223
1630411902309,0.1003943309187889,-0.2632912695407867,-0.3274561166763305,0.5087287425994873
1630411902461,0.0397036969661712,-0.2840969860553741,-0.3053242862224579,0.4772356450557709
1630411902538,-0.0046186610125005,-0.2942003607749939,-0.2709681093692779,0.4643913507461548
1630411902618,-0.018330967053771,-0.2832368314266205,-0.2305834740400314,0.4767241477966308
1630411902761,-0.0135273924097418,-0.2447803616523742,-0.1947786659002304,0.4981454908847809
1630411902800,-0.0022520148195326,-0.180000439286232,-0.1730268448591232,0.5096399188041687
1630411902885,0.0143769597634673,-0.0999626293778419,-0.1661209315061569,0.505707323551178
1630411903104,0.0357304625213146,-0.0220033340156078,-0.1663340628147125,0.4872401654720306
1630411903142,0.0561848394572734,0.0421762950718402,-0.1659107506275177,0.4668851494789123
1630411903245,0.0732884854078292,0.0885645225644111,-0.1648102849721908,0.4603196978569031
1630411903331,0.0845347493886947,0.1200440376996994,-0.1697155982255935,0.4765533208847046
1630411903469,0.0840352326631546,0.1411034017801284,-0.1844999343156814,0.501741349697113
1630411903512,0.0616408623754978,0.1571680009365081,-0.2039625793695449,0.5131761431694031
1630411903672,0.026417039334774,0.1703236699104309,-0.2193971872329712,0.505664587020874
1630411903734,-0.0083764251321554,0.1792197376489639,-0.2243018895387649,0.4849424362182617
1630411903842,-0.0269979462027549,0.1817452907562255,-0.2181378602981567,0.4636524021625519
1630411903950,-0.0289166290313005,0.1804104745388031,-0.2080845832824707,0.4460222721099853
1630411904000,-0.0243159290403127,0.179634541273117,-0.2042168080806732,0.429776519536972
1630411904105,-0.0193457994610071,0.1807937622070312,-0.2147456109523773,0.4212951958179474
1630411904258,-0.0141973104327917,0.1770932525396347,-0.2371193915605545,0.4238565862178802
1630411904377,-0.0112578133121132,0.1594633758068084,-0.2603541612625122,0.4368753731250763
1630411904441,-0.0128521788865327,0.1215734928846359,-0.2749167680740356,0.4496901631355285
1630411904565,-0.0181373115628957,0.0654353275895118,-0.2812629640102386,0.4575721323490143
1630411904596,-0.0157768111675977,0.0027135019190609,-0.283090591430664,0.456045538187027
1630411904724,0.0027196565642952,-0.048671368509531,-0.2829514443874359,0.4423142671585083
1630411904883,0.0272406339645385,-0.0797165483236312,-0.2802730798721313,0.4158157110214233
1630411904994,0.0448045618832111,-0.0962801650166511,-0.2756753265857696,0.3824317753314972
1630411905028,0.0518917478621006,-0.1103793531656265,-0.2749900817871094,0.3555172383785248
1630411905150,0.0509062334895134,-0.1253565996885299,-0.2826823592185974,0.3408553004264831
1630411905229,0.0506433360278606,-0.1378259509801864,-0.3005822300910949,0.3394478559494018
1630411905324,0.0511764399707317,-0.146057516336441,-0.3275590240955353,0.3411775529384613
1630411905498,0.0488367155194282,-0.1561073958873748,-0.3575398027896881,0.3376516103744507
1630411905594,0.0487274564802646,-0.1714991927146911,-0.3805786967277527,0.320469468832016
1630411905656,0.0569597668945789,-0.1927945464849472,-0.3835750222206116,0.2821082174777984
1630411905750,0.0760625004768371,-0.2125977873802185,-0.3686361908912658,0.2321638017892837
1630411905844,0.0996663942933082,-0.2263042479753494,-0.3491846024990082,0.1887426823377609
1630411905922,0.1210598349571228,-0.2325349450111389,-0.3353651165962219,0.1687316447496414
1630411906064,0.133433997631073,-0.2325238734483719,-0.3288577198982239,0.167863130569458
1630411906158,0.1355070620775222,-0.2242426574230194,-0.3277983963489532,0.1892743557691574
1630411906268,0.1245302036404609,-0.2078862488269806,-0.3322845697402954,0.2301366329193115
1630411906379,0.1059845685958862,-0.1929764300584793,-0.344946414232254,0.2814367711544037
1630411906457,0.0872784629464149,-0.1908939927816391,-0.3652580678462982,0.3243480622768402
1630411906569,0.0788600444793701,-0.1996355503797531,-0.3871746659278869,0.3492746651172638
1630411906712,0.0770698264241218,-0.2020251750946045,-0.4045740365982055,0.3545023202896118
1630411906774,0.0827810913324356,-0.1846550554037094,-0.4168097674846649,0.3487462401390075
1630411906854,0.0996550619602203,-0.1524686068296432,-0.4286379814147949,0.3431864082813263
1630411907029,0.1314514875411987,-0.1197762712836265,-0.4483603537082672,0.3437269628047943
1630411907088,0.1760006546974182,-0.094115138053894,-0.4788632094860077,0.3541187345981598
1630411907164,0.2296169549226761,-0.076552078127861,-0.5175519585609436,0.3810266554355621
1630411907276,0.2772549986839294,-0.0678954273462295,-0.5493986010551453,0.4168907403945923
1630411907432,0.3109341561794281,-0.0676250159740448,-0.5591583847999573,0.4522943496704101
1630411907494,0.3277122378349304,-0.0722759664058685,-0.5514840483665466,0.48142871260643
1630411907604,0.3379213213920593,-0.0786726176738739,-0.5420013666152954,0.5090991258621216
1630411907683,0.3492054045200348,-0.0898444503545761,-0.5395162105560303,0.5319874286651611
1630411907792,0.360912412405014,-0.112499862909317,-0.5373677611351013,0.5410308837890625
1630411907888,0.369542509317398,-0.1465950608253479,-0.5243455767631531,0.5308993458747864
1630411907981,0.3747727572917938,-0.1831796616315841,-0.4984994530677795,0.5100786089897156
1630411908093,0.3778614997863769,-0.2174078673124313,-0.4662359356880188,0.4942809045314789
1630411908169,0.3791411221027374,-0.2517056763172149,-0.4335183799266815,0.4906440377235412
1630411908276,0.3763905465602875,-0.2777347564697265,-0.4044537842273712,0.4939404428005218
1630411908385,0.3673283755779266,-0.2708727717399597,-0.3818231523036957,0.4985036253929138
1630411908513,0.3488975763320923,-0.2249402403831482,-0.3630627393722534,0.5045011043548584
1630411908609,0.313842624425888,-0.1705008596181869,-0.344362199306488,0.5087265968322754
1630411908734,0.2561017572879791,-0.1359906047582626,-0.3274609446525574,0.5016444325447083
1630411908828,0.1863651722669601,-0.1231671720743179,-0.3197785019874573,0.4789135158061981
1630411908891,0.1283924132585525,-0.1174890846014022,-0.3230279386043548,0.4443041980266571
1630411908970,0.0993968099355697,-0.1089409440755844,-0.3223541975021362,0.4053970873355865
1630411909114,0.0833271369338035,-0.0965540632605552,-0.2998222112655639,0.3593337833881378
1630411909208,0.0578928738832473,-0.0818487033247947,-0.2563992142677307,0.3004331886768341
1630411909320,0.0216226670891046,-0.0647604241967201,-0.2109553813934326,0.2352738380432129
1630411909429,-0.012906695716083,-0.046579398214817,-0.1790231764316558,0.1781162619590759
1630411909525,-0.0440803803503513,-0.0291179809719324,-0.1619263291358947,0.138454720377922
1630411909635,-0.0790487974882125,-0.0125789577141404,-0.1532463878393173,0.1096531450748443
1630411909714,-0.1126125380396843,0.0014434946933761,-0.1473872661590576,0.0884922444820404
1630411909810,-0.1377296894788742,0.0046101999469101,-0.1400871276855468,0.0761446133255958
1630411909921,-0.1528884768486023,-0.012710390612483,-0.1319241225719452,0.0700041949748992
1630411910017,-0.1599978357553482,-0.0510528907179832,-0.1268542110919952,0.0632213577628135
1630411910111,-0.1493880152702331,-0.0952041670680046,-0.1271270662546157,0.0578382313251495
1630411910189,-0.1108782961964607,-0.1212460473179817,-0.1299249678850174,0.0633396431803703
1630411910344,-0.0519750602543354,-0.121508665382862,-0.1317523419857025,0.0888697355985641
1630411910487,0.0101376334205269,-0.1105196997523307,-0.1343695372343063,0.1288533955812454
1630411910517,0.0673634335398674,-0.099584199488163,-0.145523339509964,0.1696301847696304
1630411910627,0.123472087085247,-0.085515521466732,-0.168552353978157,0.2160149961709976
1630411910738,0.1831244975328445,-0.0622563287615776,-0.196526825428009,0.2722339034080505
1630411910819,0.2397089004516601,-0.0343468971550464,-0.2148429155349731,0.3288093507289886
1630411910945,0.2892791032791137,-0.0131424535065889,-0.2113124132156372,0.3752734661102295
1630411911053,0.3334310352802276,-0.003989047370851,-0.1885978728532791,0.4059444367885589
1630411911182,0.3727765679359436,-0.0050827166996896,-0.1605753749608993,0.4230696558952331
1630411911228,0.4053654968738556,-0.0089919781312346,-0.1390687376260757,0.4349299967288971
1630411911323,0.4285904169082641,-0.006389127112925,-0.1283894926309585,0.4444235563278198
1630411911434,0.4456067085266113,0.0112404972314834,-0.1237687021493911,0.4520256519317627
1630411911607,0.4623182117938995,0.0445822887122631,-0.1181337386369705,0.4590517878532409
1630411911675,0.4768921732902527,0.0837989076972007,-0.1102822571992874,0.4655584692955017
1630411911751,0.4817100465297699,0.114743173122406,-0.1054601669311523,0.4724089503288269
1630411911829,0.471586525440216,0.1303332448005676,-0.107425756752491,0.4796666502952575
1630411911938,0.4479486644268036,0.133166566491127,-0.1138872429728508,0.4853296279907226
1630411912079,0.4159689843654632,0.1285257786512375,-0.1188462376594543,0.4872438013553619
1630411912173,0.3819986879825592,0.117868922650814,-0.1203783527016639,0.4810904264450073
1630411912285,0.3509317934513092,0.0995642244815826,-0.1227094829082489,0.4648842811584472
1630411912379,0.3334803283214569,0.0757529959082603,-0.1321836560964584,0.4455722570419311
1630411912425,0.331077516078949,0.0545700155198574,-0.1530918329954147,0.434684157371521
1630411912550,0.3333690464496612,0.0403970927000045,-0.1852014511823654,0.4411590993404388
1630411912629,0.3261500298976898,0.032036755234003,-0.2225340604782104,0.4557167589664459
1630411912787,0.3074769675731659,0.0258565731346607,-0.2567565143108368,0.4655731320381164
1630411912850,0.2856435179710388,0.018531622365117,-0.2840146720409393,0.4667699635028839
1630411912990,0.2648271024227142,0.0033635618165135,-0.3061557412147522,0.4625793695449829
1630411913085,0.2403168529272079,-0.0244344174861907,-0.3256115615367889,0.4542238414287567
1630411913163,0.2109140455722808,-0.0631236359477043,-0.3414921462535858,0.4402176737785339
1630411913275,0.1873631477355957,-0.1008582338690757,-0.351498007774353,0.4189215898513794
1630411913384,0.1788626015186309,-0.1212141439318656,-0.3536326885223388,0.3900485932826996
1630411913478,0.184241384267807,-0.112451858818531,-0.3454947769641876,0.3610785901546478
1630411913591,0.1944456547498703,-0.0772885158658027,-0.3221938610076904,0.3426964282989502
1630411913668,0.1977491378784179,-0.0317420661449432,-0.2839036583900451,0.3382852375507355
1630411913747,0.1836460530757904,0.0050365538336336,-0.2416880875825882,0.3491502404212951
1630411913861,0.1429212093353271,0.0235667079687118,-0.208026647567749,0.3721792101860046
1630411914030,0.0735864490270614,0.0272752586752176,-0.1853613555431366,0.4022037982940674
1630411914101,-0.0142224514856934,0.0265466924756765,-0.1690500229597091,0.4304313659667969
1630411914171,-0.0880016312003135,0.0278474856168031,-0.1564497351646423,0.4537975490093231
1630411914265,-0.1238733083009719,0.0295713264495134,-0.1487946361303329,0.4660591781139374
1630411914360,-0.1263551861047744,0.0261386223137378,-0.1452367007732391,0.4726561903953552
1630411914487,-0.1134876906871795,0.0178248882293701,-0.1419823318719864,0.4769915342330932
1630411914645,-0.0965098887681961,0.0094098849222064,-0.1381897628307342,0.4786695837974548
1630411914755,-0.0781450122594833,0.0044427486136555,-0.1361545771360397,0.4811079502105713
1630411914803,-0.0632828921079635,0.0016062352806329,-0.1354449987411499,0.4888213276863098
1630411914913,-0.055452574044466,-0.0061167157255113,-0.1307133734226226,0.5043196082115173
1630411914992,-0.057135559618473,-0.0278757624328136,-0.1169314607977867,0.5223292708396912
1630411915086,-0.0567251928150653,-0.0697513148188591,-0.0946836993098259,0.5384917259216309
1630411915275,-0.043124470859766,-0.1295021325349807,-0.0680019780993461,0.5564863085746765
1630411915322,-0.0086035588756203,-0.1915910542011261,-0.0426650643348693,0.5815097093582153
1630411915431,0.036300640553236,-0.2373729348182678,-0.0258998181670904,0.6079890131950378
1630411915510,0.0763702765107154,-0.2616001069545746,-0.0232021491974592,0.6209839582443237
1630411915639,0.1073625311255455,-0.2738249003887176,-0.0352492406964302,0.6116403937339783
1630411915732,0.1353481560945511,-0.2811708748340606,-0.0542418323457241,0.5886836051940918
1630411915858,0.1618028283119201,-0.2867468893527984,-0.0693454071879386,0.5702039003372192
1630411915952,0.1808267086744308,-0.2916996479034424,-0.0770728960633277,0.5580739974975586
1630411916062,0.189449056982994,-0.30274498462677,-0.0812668055295944,0.5495719313621521
1630411916106,0.192320168018341,-0.3247255384922027,-0.0850850641727447,0.5455436706542969
1630411916219,0.1954535841941833,-0.3498269021511078,-0.0830740630626678,0.5457435846328735
1630411916342,0.1979382783174514,-0.3623424768447876,-0.0682491883635521,0.5474435687065125
1630411916437,0.1981363892555236,-0.35285684466362,-0.0429206602275371,0.5497844219207764
1630411916514,0.1948741227388382,-0.3332358598709106,-0.0207067802548408,0.5509806275367737
1630411916621,0.1885525435209274,-0.3183578848838806,-0.0176867991685867,0.548209547996521
1630411916716,0.180322527885437,-0.3117835819721222,-0.0430031418800354,0.5337353944778442
1630411916874,0.1708321869373321,-0.3036286532878876,-0.0921516939997673,0.4988818764686584
1630411916918,0.1723140180110931,-0.2812330722808838,-0.1431967467069625,0.4503301084041595
1630411917045,0.1957190185785293,-0.2473452985286712,-0.1709142029285431,0.413512110710144
1630411917138,0.2324586510658264,-0.2157258987426757,-0.1695111840963363,0.4092362523078918
1630411917249,0.260649025440216,-0.1973082721233368,-0.1556561589241027,0.4259765446186065
1630411917326,0.2688345611095428,-0.1909186989068985,-0.1454397290945053,0.4398692846298218
1630411917467,0.2654325664043426,-0.1867649555206298,-0.1427441835403442,0.4452478289604187
1630411917532,0.2612515091896057,-0.1785926967859268,-0.1457359939813614,0.4455745816230774
1630411917672,0.2578146457672119,-0.1709328442811966,-0.1528851985931396,0.4446330368518829
1630411917750,0.2500414848327636,-0.173357605934143,-0.1685164868831634,0.4428169429302215
1630411917829,0.2380704879760742,-0.1916113048791885,-0.1995507776737213,0.4385691583156585
1630411917956,0.2243208140134811,-0.2196167856454849,-0.250269740819931,0.4277717173099518
1630411918002,0.2124708443880081,-0.2415846586227417,-0.3149448335170746,0.4137555062770843
1630411918112,0.202480211853981,-0.2476292252540588,-0.3733100593090057,0.4051400423049927
1630411918269,0.200094074010849,-0.2409228086471557,-0.4003578126430511,0.4174292683601379
1630411918364,0.2132506519556045,-0.2358020395040512,-0.3919544517993927,0.4530244469642639
1630411918524,0.2381054610013961,-0.2442760616540908,-0.3709753751754761,0.4937902987003326
1630411918569,0.2628570795059204,-0.2665367424488067,-0.3616296350955963,0.5170981884002686
1630411918648,0.2865387499332428,-0.2900499403476715,-0.3713012337684631,0.5167151689529419
1630411918760,0.3205959796905517,-0.2999250888824463,-0.393510639667511,0.5023467540740967
1630411918885,0.3735695481300354,-0.294244647026062,-0.4152889549732208,0.4913375079631805
1630411918994,0.4279612004756927,-0.2851541042327881,-0.4236813187599182,0.4921295046806335
1630411919106,0.4700967073440552,-0.2817908227443695,-0.416155457496643,0.5026792287826538
1630411919152,0.4949463903903961,-0.28485968708992,-0.4009502530097961,0.5154343247413635
1630411919263,0.5095074772834778,-0.2916929423809051,-0.3875373303890228,0.5259712338447571
1630411919358,0.5210262537002563,-0.3002465367317199,-0.3771457374095917,0.536065399646759
1630411919468,0.5339866876602173,-0.3108251988887787,-0.3673126995563507,0.5528674125671387
1630411919611,0.5480203628540039,-0.3252380490303039,-0.3591320514678955,0.5881117582321167
1630411919675,0.5610942840576172,-0.3429937958717346,-0.3590869009494781,0.6442770957946777
1630411919767,0.566360592842102,-0.3600750863552093,-0.3722659945487976,0.6978459358215332
1630411919864,0.558465301990509,-0.3666609227657318,-0.3983799815177917,0.7284122109413147
1630411919986,0.5351746082305908,-0.3562918603420257,-0.429854154586792,0.730021595954895
1630411920130,0.4997655153274536,-0.3344489336013794,-0.4522573351860046,0.7138940691947937
1630411920193,0.4573425948619842,-0.3155897557735443,-0.445409893989563,0.6979827284812927
1630411920304,0.4094359278678894,-0.3111285269260406,-0.4031891524791717,0.6920536160469055
1630411920399,0.3541429340839386,-0.3235325813293457,-0.3459031879901886,0.6915648579597473
1630411920542,0.301340103149414,-0.3447960615158081,-0.3024917244911194,0.6926968097686768
1630411920590,0.2582484781742096,-0.3628524243831634,-0.2858494818210602,0.6927987337112427
1630411920732,0.2308520823717117,-0.3656771183013916,-0.2906696796417236,0.6920191049575806
1630411920780,0.2122411429882049,-0.3475929796695709,-0.3019121885299682,0.6899304389953613
1630411920889,0.1926282346248626,-0.3071863949298858,-0.3103839755058288,0.6862319111824036
1630411921032,0.1658823937177658,-0.2516021728515625,-0.3185417652130127,0.6769191026687622
1630411921094,0.1348023414611816,-0.1937819123268127,-0.3283933997154236,0.6555467247962952
1630411921188,0.1073153838515281,-0.1464531868696212,-0.3341349065303802,0.6145156025886536
1630411921282,0.1001003086566925,-0.1156111806631088,-0.3318293988704681,0.5610167980194092
1630411921455,0.1147686541080474,-0.1017572507262229,-0.3235337138175964,0.5156034827232361
1630411921518,0.1417587846517563,-0.10223338752985,-0.3115712404251098,0.5029077529907227
1630411921597,0.1644558608531952,-0.1132265031337738,-0.2880679070949554,0.5233671069145203
1630411921724,0.1710930466651916,-0.1288254559040069,-0.2573305666446686,0.5543756484985352
1630411921783,0.1593369990587234,-0.1419811248779297,-0.2359992265701294,0.5767214894294739
1630411921923,0.1287169158458709,-0.1464628726243972,-0.2354642152786255,0.5865843296051025
1630411922033,0.0822338908910751,-0.1389883905649185,-0.2483128905296325,0.5868312120437622
1630411922113,0.0348865874111652,-0.1215354278683662,-0.2553117275238037,0.5852131247520447
1630411922189,0.005393648520112,-0.1002765372395515,-0.239889457821846,0.5889622569084167
1630411922284,-0.0028121348004788,-0.0811197757720947,-0.2022708654403686,0.5984405875205994
1630411922376,0.005303019657731,-0.0719543397426605,-0.1508637219667434,0.6087798476219177
1630411922515,0.0276749487966299,-0.0787510350346565,-0.0955471694469451,0.6163514256477356
1630411922610,0.0645094066858291,-0.1024782136082649,-0.0487148761749267,0.6201969385147095
1630411922719,0.10602468252182,-0.1353195756673813,-0.0155850434675812,0.6189851760864258
1630411922842,0.1435071229934692,-0.163893774151802,0.006276000291109,0.615402102470398
1630411922950,0.1725586205720901,-0.1791852265596389,0.0221780128777027,0.6077128648757935
1630411923012,0.1971782892942428,-0.1824180036783218,0.03317666426301,0.5949933528900146
1630411923139,0.2274505048990249,-0.1746854484081268,0.0330733694136142,0.5800223350524902
1630411923216,0.2630173861980438,-0.1528693437576294,0.0200146827846765,0.5663514733314514
1630411923340,0.2916489839553833,-0.120709404349327,0.0021286150440573,0.5568726658821106
1630411923449,0.3074128627777099,-0.0911519974470138,-0.0079225581139326,0.5535725355148315
1630411923562,0.3171686232089996,-0.0757290348410606,-0.0052546574734151,0.5561445355415344
1630411923606,0.3297101259231567,-0.0700828805565834,0.0052526057697832,0.5576674938201904
1630411923777,0.3475288152694702,-0.0626473575830459,0.012471773661673,0.5511298775672913
1630411923840,0.367379367351532,-0.0512762628495693,0.0074328677728772,0.5365850925445557
1630411923933,0.3849126994609833,-0.0440574362874031,-0.0156472995877265,0.5200660228729248
1630411924011,0.3968186378479004,-0.045017447322607,-0.0566109269857406,0.508858859539032
1630411924123,0.3980946540832519,-0.0479012317955493,-0.1056645810604095,0.4984977841377258
1630411924233,0.3869141042232513,-0.0447341762483119,-0.153728500008583,0.4852156937122345
1630411924359,0.3638978004455566,-0.0373867340385913,-0.1989085227251052,0.4647020101547241
1630411924519,0.3353200852870941,-0.0302646607160568,-0.2430892437696457,0.4418913125991821
1630411924578,0.3036118149757385,-0.0209907740354537,-0.282473623752594,0.4192905724048614
1630411924657,0.2664409279823303,-0.0035236647818237,-0.3079471290111542,0.3933432102203369
1630411924720,0.2240089625120163,0.0242413394153118,-0.3169822096824646,0.3613805174827575
1630411924928,0.1909045428037643,0.0571225732564926,-0.3208848536014557,0.3285808861255646
1630411924977,0.1770693212747573,0.0868269428610801,-0.3332094848155975,0.3040967285633087
1630411925086,0.1722744554281234,0.1057531386613845,-0.3594369292259216,0.2892970442771911
1630411925148,0.1569118499755859,0.10737144947052,-0.3990047872066498,0.2814152538776397
1630411925255,0.1231462731957435,0.0906663388013839,-0.4443406164646148,0.2774060368537903
1630411925415,0.076583132147789,0.0626104846596717,-0.4855019748210907,0.274514228105545
1630411925446,0.0266406256705522,0.0371964797377586,-0.5129595994949341,0.2664122879505157
1630411925554,-0.0248081572353839,0.0252967607229948,-0.5173310041427612,0.2498766183853149
1630411925696,-0.0733419954776763,0.0244901664555072,-0.4987087249755859,0.2290688455104828
1630411925772,-0.1018225774168968,0.0246847476810216,-0.467785507440567,0.2104919701814651
1630411925849,-0.0968359857797622,0.0201334189623594,-0.4396333694458008,0.20448999106884
1630411925943,-0.0733637139201164,0.009705513715744,-0.4226569235324859,0.2112232893705368
1630411926098,-0.0549768917262554,-0.0072842072695493,-0.4185594320297241,0.22126105427742
1630411926190,-0.0476855225861072,-0.0344907902181148,-0.4254055023193359,0.2294377237558365
1630411926251,-0.0376134365797042,-0.0767085924744606,-0.4416885077953338,0.2391448616981506
1630411926360,-0.017856640741229,-0.1322484016418457,-0.4639565646648407,0.2588619887828827
1630411926457,0.0138956569135189,-0.1892003417015075,-0.4828749895095825,0.2916484773159027
1630411926565,0.0518305227160453,-0.2309456020593643,-0.486532598733902,0.3292636275291443
1630411926643,0.0927154570817947,-0.2477099746465683,-0.4676252007484436,0.3636127412319183
1630411926863,0.1310571432113647,-0.2432682514190673,-0.4336677491664886,0.3896596431732178
1630411926942,0.1626665443181991,-0.2274262607097625,-0.4017969369888305,0.4095773100852966
1630411927006,0.184537336230278,-0.2066904604434967,-0.3839985132217407,0.4277136623859405
1630411927120,0.1954362690448761,-0.1837984770536422,-0.3851622939109802,0.4409843683242798
1630411927226,0.2012913823127746,-0.1571001559495926,-0.4041465520858764,0.45091712474823
1630411927274,0.2013972848653793,-0.1268148869276046,-0.4342476427555084,0.4576177597045898
1630411927398,0.196047767996788,-0.0954655259847641,-0.4613374769687652,0.4693163633346557
1630411927506,0.1908403486013412,-0.0664823725819587,-0.4700931310653686,0.4959903359413147
1630411927615,0.1933530867099762,-0.0438795574009418,-0.4582419693470001,0.5349690914154053
1630411927677,0.2012668699026107,-0.0309664364904165,-0.4357793927192688,0.5722320675849915
1630411927848,0.20477095246315,-0.0300006587058305,-0.4074920117855072,0.5952790379524231
1630411927902,0.1957695633172989,-0.0403583869338035,-0.3709375858306885,0.6001988053321838
1630411928115,0.1794673651456833,-0.0573915056884288,-0.330659419298172,0.5908575654029846
1630411928161,0.1642140448093414,-0.0747063010931015,-0.2988036870956421,0.574281632900238
1630411928209,0.1519851833581924,-0.0895692035555839,-0.2844687700271606,0.5544295907020569
1630411928301,0.1366374194622039,-0.1036380156874656,-0.2851411402225494,0.5329943299293518
1630411928379,0.1168017089366912,-0.1196929514408111,-0.2891833186149597,0.5104275941848755
1630411928501,0.0967380926012992,-0.1407495141029358,-0.2872623801231384,0.4892585575580597
1630411928657,0.0864133462309837,-0.1673172414302826,-0.2786372005939483,0.4799507856369018
1630411928752,0.0857707038521766,-0.1942835748195648,-0.2670226991176605,0.4871990382671356
1630411928861,0.0949485823512077,-0.2088223844766616,-0.2569692432880401,0.507729709148407
1630411928938,0.10774727165699,-0.2058236747980117,-0.2500786185264587,0.5219214558601379
1630411929017,0.1144725009799003,-0.1956140547990799,-0.2468973100185394,0.5127850770950317
1630411929079,0.1124204471707344,-0.1895205527544021,-0.2450364828109741,0.4813970327377319
1630411929261,0.1082621738314628,-0.1904123127460479,-0.2443368136882782,0.4428467154502868
1630411929339,0.1065227463841438,-0.1921598613262176,-0.249204009771347,0.4172981083393097
1630411929404,0.106939397752285,-0.1857532709836959,-0.2642249464988708,0.4110302627086639
1630411929545,0.0992578789591789,-0.1636379063129425,-0.2861545383930206,0.4173240959644317
1630411929607,0.0792204812169075,-0.1258990466594696,-0.3014771938323974,0.4248949587345123
1630411929686,0.0529789663851261,-0.0818170681595802,-0.2945910394191742,0.4298498928546905
1630411929857,0.0331978015601635,-0.0443104617297649,-0.2633693218231201,0.4331310093402862
1630411929951,0.0238858014345169,-0.0205498952418565,-0.2232268154621124,0.4362550675868988
1630411930029,0.0236918609589338,-0.0104446988552808,-0.1900112777948379,0.4405727982521057
1630411930201,0.0273151919245719,-0.0123812900856137,-0.1678017675876617,0.4402513206005096
1630411930248,0.031272817403078,-0.0254448130726814,-0.1524155437946319,0.4294235408306122
1630411930324,0.0290717910975217,-0.0486954562366008,-0.1370117664337158,0.4053153395652771
1630411930466,0.0150843420997262,-0.076833501458168,-0.1201854050159454,0.3743925392627716
1630411930560,-0.0093608852475881,-0.0982280597090721,-0.1026330515742302,0.3464178740978241
1630411930716,-0.0350034944713115,-0.1017628088593483,-0.0859132036566734,0.3284098207950592
1630411930779,-0.053557876497507,-0.0889565423130989,-0.0687939673662185,0.3189425468444824
1630411930826,-0.0619989708065986,-0.0713827908039093,-0.0504627861082553,0.3119231462478637
1630411930935,-0.0579809546470642,-0.0605676397681236,-0.0331349223852157,0.3049268424510956
1630411931060,-0.0416695214807987,-0.0588661320507526,-0.0206227768212556,0.2954191267490387
1630411931169,-0.0199139099568128,-0.0607579685747623,-0.0161241926252841,0.2847984433174133
1630411931279,-0.0019081871723756,-0.0593590028584003,-0.0228111911565065,0.276511549949646
1630411931341,0.0062165148556232,-0.051404170691967,-0.0416003465652465,0.2736710906028747
1630411931423,0.0024476586841046,-0.0378324203193187,-0.0665822252631187,0.2734099924564361
1630411931611,-0.0056893867440521,-0.0221328623592853,-0.0878995135426521,0.2753929197788238
1630411931720,-0.0118727600201964,-0.0083561409264802,-0.1005953997373581,0.2836609184741974
1630411931829,-0.0132814804092049,-0.000981253106147,-0.1087599471211433,0.3003677427768707
1630411931861,-0.0094232447445392,-0.0025235470384359,-0.1184959262609481,0.3248187899589538
1630411931939,-4.162277400610037e-05,-0.0114924469962716,-0.1318244040012359,0.3489034473896026
1630411932095,0.015969481319189,-0.026229441165924,-0.150232508778572,0.3720093071460724
1630411932189,0.0377701446413993,-0.0456706807017326,-0.1739044487476349,0.4026037156581878
1630411932329,0.0728240683674812,-0.0624210387468338,-0.2025226801633834,0.4562369585037231
1630411932376,0.1215536966919899,-0.0658795312047004,-0.2342962026596069,0.5256224870681763
1630411932504,0.1681742817163467,-0.0530869252979755,-0.2677335441112518,0.5860859155654907
1630411932614,0.1961260885000229,-0.0392499640583992,-0.300626277923584,0.6194683313369751
1630411932645,0.2041151225566864,-0.0430949442088604,-0.3309206962585449,0.6275314092636108
1630411932770,0.2011637091636657,-0.071963220834732,-0.3535943627357483,0.6212442517280579
1630411932942,0.1993409693241119,-0.1180951818823814,-0.3576997518539428,0.6116177439689636
1630411932973,0.2043597847223281,-0.1668499410152435,-0.3367350399494171,0.6059221029281616
1630411933067,0.2115629315376281,-0.2062249034643173,-0.3027163445949554,0.6042233109474182
1630411933207,0.2158067524433136,-0.2274812757968902,-0.274476021528244,0.6037917733192444
1630411933301,0.2173380255699157,-0.2270108014345169,-0.2610921561717987,0.6019720435142517
1630411933363,0.2170797884464264,-0.2116894423961639,-0.2570059597492218,0.5946593284606934
1630411933523,0.217277780175209,-0.1944722682237625,-0.2455013990402221,0.5825291275978088
1630411933601,0.2138962894678115,-0.1833387315273285,-0.2157853990793228,0.564888596534729
1630411933694,0.2022497206926345,-0.180825874209404,-0.1759287416934967,0.5372199416160583
1630411933773,0.1721033751964569,-0.1887599676847458,-0.1395816057920456,0.4887407422065735
1630411933866,0.1234389021992683,-0.2100674659013748,-0.1134185492992401,0.418765515089035
1630411933991,0.0693347081542015,-0.2422185689210891,-0.091262973845005,0.3445731401443481
1630411934148,0.0425372943282127,-0.2730532884597778,-0.062067549675703,0.3106255531311035
1630411934179,0.0604055188596248,-0.2861710488796234,-0.0236203428357839,0.339445561170578
1630411934319,0.1046255826950073,-0.2780313789844513,0.012226884253323,0.4048182070255279
1630411934447,0.1458193212747573,-0.2631237506866455,0.0305728558450937,0.4679170846939087
1630411934509,0.1777309775352478,-0.2538111805915832,0.0252427756786346,0.5123599171638489
1630411934634,0.2103082537651062,-0.2478758841753006,0.0042924820445477,0.5390133261680603
1630411934743,0.2509435713291168,-0.2412339746952057,-0.018049381673336,0.5574361681938171
1630411934822,0.2900424003601074,-0.2345751821994781,-0.0319229029119014,0.5750508904457092
1630411934931,0.3138128817081451,-0.233803778886795,-0.04023327678442,0.5972825288772583
1630411935009,0.3211126923561096,-0.2420540601015091,-0.0540382079780101,0.62587970495224
1630411935118,0.3227337300777435,-0.2559951245784759,-0.0806011855602264,0.656098484992981
1630411935196,0.326531708240509,-0.2677657604217529,-0.1154046803712844,0.6792012453079224
1630411935353,0.3302235305309295,-0.2652110159397125,-0.1425293684005737,0.690696120262146
1630411935431,0.3302408456802368,-0.2397200465202331,-0.1471844464540481,0.6930679678916931
1630411935524,0.3318375945091247,-0.2010922133922577,-0.1358201801776886,0.695220947265625
1630411935634,0.3361090421676636,-0.1682602912187576,-0.1300468295812606,0.6971400380134583
1630411935712,0.3384277522563934,-0.1510591953992843,-0.1431050449609756,0.6921118497848511
1630411935821,0.3328940570354461,-0.1437138766050338,-0.1648731976747512,0.6749809384346008
1630411935915,0.3223308622837066,-0.1329227983951568,-0.173772931098938,0.6493422389030457
1630411936071,0.3110616207122803,-0.1128362417221069,-0.1637137085199356,0.6233317852020264
1630411936134,0.2960801422595978,-0.0869221165776252,-0.1485321223735809,0.6008694767951965
1630411936259,0.2697410881519317,-0.0618204399943351,-0.1381161510944366,0.5768016576766968
1630411936337,0.2356463819742202,-0.0407021977007389,-0.1266600787639618,0.5453976392745972
1630411936385,0.2097724676132202,-0.0213022269308567,-0.1051812693476677,0.5051959156990051
1630411936590,0.2016330510377884,-0.0013070076238363,-0.0776187926530838,0.4585016667842865
1630411936715,0.2013218849897384,0.0174866523593664,-0.0558384507894516,0.4121946096420288
1630411936761,0.1976657062768936,0.0297754239290952,-0.0467902719974517,0.3795839846134186
1630411936886,0.1932173371315002,0.0310435146093368,-0.0527368001639843,0.3694178462028503
1630411936933,0.1941143721342086,0.0187009908258914,-0.0730628073215484,0.3731201291084289
1630411937058,0.1996925175189972,-0.004895026795566,-0.1037580072879791,0.3698447346687317
1630411937199,0.2143628001213073,-0.0309489052742719,-0.1387238949537277,0.3548656404018402
1630411937261,0.2399147599935531,-0.049139954149723,-0.1713088303804397,0.3380730450153351
1630411937339,0.2718430459499359,-0.0559390373528003,-0.2005193680524826,0.3373746275901794
1630411937514,0.3045785427093506,-0.066658154129982,-0.2468067109584808,0.3835683465003967
1630411937514,0.2957791984081268,-0.0583295710384845,-0.2272563874721527,0.3562671542167663
1630411937717,0.3033642172813415,-0.0892348363995552,-0.2528279721736908,0.4067679643630981
1630411937779,0.3050559759140014,-0.1257754564285278,-0.2467945367097854,0.4243545532226562
1630411937920,0.3113738894462585,-0.1685727685689926,-0.239507108926773,0.4370310604572296
1630411937967,0.3185454905033111,-0.210027277469635,-0.2403879910707473,0.4463619589805603
1630411938092,0.3202054798603058,-0.2464424967765808,-0.2453740984201431,0.4533438086509704
1630411938170,0.3216366767883301,-0.2722657024860382,-0.243328258395195,0.4627191126346588
1630411938295,0.3285709321498871,-0.2785122692584991,-0.2283240854740142,0.4708468317985534
1630411938406,0.3414570093154907,-0.2676501274108886,-0.204023078083992,0.4714934527873993
1630411938500,0.3529979586601257,-0.2468408048152923,-0.1789724826812744,0.4622852802276611
1630411938562,0.361898809671402,-0.2143152207136154,-0.156012549996376,0.4522586464881897
1630411938703,0.3720151484012604,-0.1672658771276474,-0.1347522735595703,0.4559285640716553
1630411938797,0.3866648077964782,-0.11795474588871,-0.1161565780639648,0.4777249097824096
1630411938906,0.4012499749660492,-0.0851940363645553,-0.1032002866268158,0.5039505958557129
1630411939031,0.4129877686500549,-0.0763163268566131,-0.0985181480646133,0.5211147665977478
1630411939140,0.4228264689445495,-0.081488661468029,-0.1030579581856727,0.5263193249702454
1630411939173,0.4376402497291565,-0.0834115073084831,-0.1143901124596595,0.5281814336776733
1630411939257,0.4597769677639007,-0.0746781453490257,-0.1247360184788703,0.5316826105117798
1630411939428,0.4930219054222107,-0.0627437457442283,-0.1276812404394149,0.5382835268974304
1630411939522,0.5365687012672424,-0.055590596050024,-0.1241623386740684,0.5486486554145813
1630411939647,0.5860567688941956,-0.0555800646543502,-0.1225989833474159,0.5674858689308167
1630411939678,0.6274809241294861,-0.0608018934726715,-0.1292635798454284,0.590349018573761
1630411939819,0.6529486775398254,-0.0683567449450492,-0.1448503136634826,0.6108930706977844
1630411939897,0.6627708077430725,-0.0773175358772277,-0.167339950799942,0.6229422092437744
1630411939975,0.6643473505973816,-0.0896190553903579,-0.1906193792819976,0.6266993284225464
1630411940084,0.6629581451416016,-0.1126677170395851,-0.2063519060611724,0.622796356678009
1630411940241,0.658623993396759,-0.1526527255773544,-0.2094369083642959,0.6079940795898438
1630411940303,0.6490783095359802,-0.2053920030593872,-0.2057313323020935,0.5771320462226868
1630411940431,0.6359144449234009,-0.2533034384250641,-0.2045141905546188,0.5343664884567261
1630411940477,0.6234257817268372,-0.2810854017734527,-0.2102758139371872,0.4935088455677032
1630411940556,0.6139983534812927,-0.2864271104335785,-0.2183403223752975,0.4681393802165985
1630411940712,0.6050713658332825,-0.2850697040557861,-0.2231752574443817,0.4627608358860016
1630411940805,0.5919930934906006,-0.2891992330551147,-0.2280197590589523,0.4845095574855804
1630411940915,0.5705475211143494,-0.2965483367443084,-0.2381386756896972,0.5329495668411255
1630411941009,0.5355483293533325,-0.2918891608715057,-0.2526784539222717,0.5864853858947754
1630411941102,0.4829998910427093,-0.2626084387302398,-0.2617417275905609,0.6177251935005188
1630411941196,0.4227512776851654,-0.2126078903675079,-0.257107675075531,0.6195587515830994
1630411941305,0.3760166466236114,-0.1610110402107238,-0.243889182806015,0.6069273948669434
1630411941457,0.3586167991161346,-0.1231253072619438,-0.2335518300533294,0.6036168932914734
1630411941520,0.3654626607894897,-0.1049427464604377,-0.2345147281885147,0.6190068125724792
1630411941645,0.3742838203907013,-0.1022770479321479,-0.2528668344020843,0.6405413746833801
1630411941723,0.3661425113677978,-0.1072512790560722,-0.288526326417923,0.6562405228614807
1630411941832,0.3400484621524811,-0.1144649386405944,-0.3310129046440124,0.6664373278617859
1630411941908,0.3133676052093506,-0.1236908435821533,-0.3655577003955841,0.6744753122329712
1630411942017,0.2988110780715942,-0.1311617493629455,-0.3831169307231903,0.6780032515525818
1630411942128,0.2968701720237732,-0.1293721795082092,-0.3881746232509613,0.6754958629608154
1630411942250,0.2943178415298462,-0.1066061556339263,-0.3870346546173095,0.6645926237106323
1630411942326,0.2872312068939209,-0.0626279041171073,-0.3846806585788727,0.637796938419342
1630411942426,0.2790926396846771,-0.0128302918747067,-0.3879769742488861,0.5871385335922241
1630411942499,0.280653566122055,0.0230016428977251,-0.4032539129257202,0.5208337306976318
1630411942642,0.2929187715053558,0.0351730622351169,-0.4350298941135406,0.4625901579856872
1630411942752,0.3105633556842804,0.0252299346029758,-0.4822207987308502,0.4386745691299438
1630411942835,0.3239589929580688,0.002673088107258,-0.5277355313301086,0.4424831867218017
1630411942921,0.3330910503864288,-0.0214139614254236,-0.5431056022644043,0.4464475810527801
1630411943001,0.338653028011322,-0.0378675088286399,-0.5186481475830078,0.4346376955509186
1630411943125,0.3439109325408935,-0.0433367006480693,-0.4755200445652008,0.4210139513015747
1630411943250,0.3494461178779602,-0.0407571345567703,-0.4406055510044098,0.4194153249263763
1630411943343,0.3558249771595001,-0.0340326949954032,-0.4226420819759369,0.4307272434234619
1630411943485,0.364489734172821,-0.0229904390871524,-0.4128938615322113,0.4531599283218384
1630411943548,0.3768243193626404,-0.0098779872059822,-0.4005141854286194,0.4890927076339721
1630411943642,0.3866076171398163,-0.004914294462651,-0.3805161118507385,0.535507082939148
1630411943705,0.3883254528045654,-0.021801933646202,-0.3568491637706756,0.5840780138969421
1630411943889,0.3805745840072632,-0.0664469227194786,-0.3366498947143554,0.6270516514778137
1630411943921,0.3644441962242126,-0.1282614171504974,-0.3239290714263916,0.6615141034126282
1630411944059,0.342641532421112,-0.181221604347229,-0.3126828968524933,0.6834980845451355
1630411944152,0.3229764699935913,-0.2055509388446808,-0.2907537221908569,0.6935762763023376
1630411944262,0.306814432144165,-0.2110529243946075,-0.2550005316734314,0.6904819011688232
1630411944339,0.2880969643592834,-0.216529905796051,-0.2204580605030059,0.6782934665679932
1630411944473,0.2579697370529175,-0.224087581038475,-0.2056470811367035,0.6687346696853638
1630411944583,0.2201347798109054,-0.2264366745948791,-0.2142609655857086,0.6758822202682495
1630411944645,0.1822181642055511,-0.2242202460765838,-0.2313195914030075,0.6939101815223694
1630411944726,0.1550363153219223,-0.2269892543554306,-0.2333482056856155,0.7104160785675049
1630411944889,0.1452862024307251,-0.2376691699028015,-0.2135636955499649,0.7199338674545288
1630411944967,0.1624676138162613,-0.2546057105064392,-0.1862296164035797,0.7282868027687073
1630411945061,0.215873047709465,-0.272616297006607,-0.1684634983539581,0.7436749339103699
1630411945175,0.2873757779598236,-0.2883689999580383,-0.1660616993904113,0.7612099647521973
1630411945305,0.3508389294147491,-0.292319118976593,-0.1751285195350647,0.7696493864059448
1630411945399,0.3893754184246063,-0.2771579325199127,-0.188168928027153,0.7621910572052002
1630411945496,0.4057861268520355,-0.2473866194486618,-0.1999343931674957,0.742892324924469
1630411945589,0.4102119505405426,-0.2178005874156952,-0.2110444158315658,0.7221410870552063
1630411945667,0.4091367125511169,-0.1926370859146118,-0.2266770899295807,0.7049296498298645
1630411945839,0.4073018133640289,-0.1677422672510147,-0.2490803897380828,0.6918444037437439
1630411945901,0.4092206358909607,-0.1399195194244384,-0.2690156996250152,0.6819806694984436
1630411945980,0.4150777161121368,-0.1141908466815948,-0.2705189287662506,0.6698746085166931
1630411946042,0.4197085499763489,-0.09786406904459,-0.2522564828395843,0.646260678768158
1630411946201,0.4240241348743438,-0.0938501134514808,-0.2320450991392135,0.6123576760292053
1630411946309,0.4294140934944153,-0.098438486456871,-0.2290325164794922,0.5762178301811218
1630411946406,0.4338365495204925,-0.1080661863088607,-0.2471430301666259,0.5446004867553711
1630411946531,0.4314417243003845,-0.1189980953931808,-0.2749119997024536,0.5138775110244751
1630411946609,0.4265052676200866,-0.1265193074941635,-0.2906627357006073,0.4857751429080963
1630411946703,0.4421637654304504,-0.1237718164920806,-0.2828447818756103,0.4871518313884735
1630411946781,0.4890608489513397,-0.1111484840512275,-0.2613313496112823,0.5440783500671387
1630411946890,0.550844132900238,-0.0990243032574653,-0.2428160160779953,0.6332644820213318
1630411947015,0.5997365117073059,-0.1011619865894317,-0.2333934903144836,0.7095400094985962
1630411947125,0.6264169216156006,-0.1244120672345161,-0.2292278409004211,0.7543805837631226
1630411947234,0.6363654732704163,-0.1681093722581863,-0.226699486374855,0.773324191570282
1630411947312,0.6387197375297546,-0.2231106609106063,-0.2259789258241653,0.7786132097244263
1630411947390,0.6417726874351501,-0.2791913449764251,-0.2306628078222274,0.7804203629493713
1630411947515,0.647677481174469,-0.3280189037322998,-0.2453826516866684,0.7831313014030457
1630411947643,0.6553871631622314,-0.3599927723407745,-0.2703640758991241,0.7891496419906616
1630411947690,0.6601970195770264,-0.3624900579452514,-0.299247145652771,0.7990631461143494
1630411947799,0.6596745252609253,-0.3391967713832855,-0.3198717534542084,0.8125859498977661
1630411947909,0.6535528898239136,-0.3080209791660309,-0.3245495557785034,0.8260414600372314
1630411948034,0.6391180753707886,-0.2838344275951385,-0.3184306621551513,0.8339077234268188
1630411948128,0.6076829433441162,-0.2700447738170624,-0.3165722489356994,0.8280344605445862
1630411948190,0.5478287935256958,-0.2644698321819305,-0.3295026123523712,0.8003936409950256
1630411948365,0.4564253687858581,-0.265322744846344,-0.3519091606140136,0.7444546222686768
1630411948427,0.3510896563529968,-0.2692073583602905,-0.3608332276344299,0.6639283299446106
1630411948505,0.2565749883651733,-0.2669838666915893,-0.3348732590675354,0.583257257938385
1630411948599,0.1916429698467254,-0.2500431537628174,-0.2784523367881775,0.5455182790756226
1630411948739,0.1655023843050003,-0.222356840968132,-0.216646060347557,0.5316654443740845
1630411948849,0.163646250963211,-0.1944876909255981,-0.1693620234727859,0.5452240705490112
