timestamp,TP9,AF7,AF8,TP10
1630411793195,0.0827349051833152,0.3958545923233032,0.1830419152975082,0.7064228653907776
1630411793364,0.0978800728917121,0.4172177314758301,0.1870198398828506,0.699040949344635
1630411793444,0.0939172580838203,0.4456237554550171,0.1841444224119186,0.6746635437011719
1630411793528,0.0587137714028358,0.4724573194980621,0.1776356548070907,0.6362866163253784
1630411793628,-0.0114795574918389,0.4791298508644104,0.1499619930982589,0.5964789986610413
1630411793704,-0.0114795574918389,0.4579984545707702,0.1303092688322067,0.5964789986610413
1630411793824,-0.0114795574918389,0.4202236533164978,0.1155251786112785,0.5964789986610413
1630411793958,-0.0114795574918389,0.3852038979530334,0.0992652773857116,0.5964789986610413
1630411794052,-0.0114795574918389,0.364689826965332,0.0782526135444641,0.5964789986610413
1630411794156,-0.0114795574918389,0.3585439622402191,0.0583738163113594,0.5964789986610413
1630411794277,-0.0114795574918389,0.3659178614616394,0.0553938709199428,0.5964789986610413
1630411794353,-0.0114795574918389,0.3896835446357727,0.0762673616409301,0.5964789986610413
1630411794476,-0.0114795574918389,0.4031500220298767,0.1077651157975196,0.5964789986610413
1630411794579,-0.0114795574918389,0.4191488623619079,0.1303173005580902,0.5964789986610413
1630411794673,-0.0114795574918389,0.4325795173645019,0.1520080268383026,0.5964789986610413
1630411794773,-0.0114795574918389,0.4325795173645019,0.159363567829132,0.5964789986610413
1630411794846,-0.0114795574918389,0.4325795173645019,0.1602800339460373,0.5964789986610413
1630411794991,-0.0114795574918389,0.4240973591804504,0.1602201014757156,0.5964789986610413
1630411795027,-0.0114795574918389,0.4155057370662689,0.1595605164766311,0.5964789986610413
1630411795193,-0.0114795574918389,0.4096660017967224,0.1705255955457687,0.5964789986610413
1630411795280,-0.0114795574918389,0.4133192002773285,0.1757581830024719,0.5964789986610413
1630411795392,-0.0114795574918389,0.4214571714401245,0.1785179525613784,0.5964789986610413
1630411795496,-0.0114795574918389,0.4286794066429138,0.1825168281793594,0.5964789986610413
1630411795602,-0.0114795574918389,0.4329208135604858,0.1892682462930679,0.5964789986610413
1630411795678,-0.0114795574918389,0.4342183470726013,0.1962979435920715,0.5964789986610413
1630411795803,-0.0114795574918389,0.4314516484737396,0.1973267495632171,0.5964789986610413
1630411795870,-0.0114795574918389,0.4233352541923523,0.1861431896686554,0.7955588698387146
1630411795969,-0.0114795574918389,0.4120325148105621,0.1626511663198471,0.7844327688217163
1630411796078,-0.0114795574918389,0.4038682579994201,0.1351656764745712,0.7850845456123352
1630411796219,-0.0114795574918389,0.4046793282032013,0.1156825721263885,0.7850845456123352
1630411796278,-0.0114795574918389,0.4222442507743835,0.1079292818903923,0.7850845456123352
1630411796376,-0.0114795574918389,0.4342191517353058,0.1072903722524643,0.7850845456123352
1630411796494,-0.0114795574918389,0.4443426728248596,0.1096421033143997,0.7850845456123352
1630411796583,-0.0114795574918389,0.4511743783950805,0.1160599067807197,0.7850845456123352
1630411796723,-0.0114795574918389,0.4569579064846039,0.1280561536550521,0.7850845456123352
1630411796771,-0.0114795574918389,0.45889613032341,0.1450926214456558,0.7850845456123352
1630411796855,-0.0114795574918389,0.459034651517868,0.1646900624036789,0.7850845456123352
1630411797022,-0.0114795574918389,0.4597557783126831,0.1833711266517639,0.7850845456123352
1630411797132,-0.0114795574918389,0.4628408253192901,0.1979017555713653,0.7781421542167664
1630411797199,-0.0114795574918389,0.4696150422096252,0.2072787880897522,0.7667015790939331
1630411797281,-0.0114795574918389,0.48194620013237,0.2149540036916732,0.7667015790939331
1630411797423,-0.0114795574918389,0.5002995729446411,0.2255794256925583,0.7667015790939331
1630411797525,-0.0114795574918389,0.5204449892044067,0.2427956908941269,0.7667015790939331
1630411797614,-0.0114795574918389,0.5323419570922852,0.2680538296699524,0.7667015790939331
1630411797693,-0.0114795574918389,0.5298908948898315,0.2987643778324127,0.7667015790939331
1630411797839,-0.0114795574918389,0.5145511627197266,0.3282209932804107,0.7667015790939331
1630411797877,-0.0114795574918389,0.5115107297897339,0.3498355448246002,0.7667015790939331
1630411797962,-0.0114795574918389,0.5377920866012573,0.3617380261421203,0.7667015790939331
1630411798058,-0.0114795574918389,0.5827964544296265,0.36759814620018,0.7667015790939331
1630411798215,-0.0114795574918389,0.601974606513977,0.3715187013149261,0.7667015790939331
1630411798305,-0.0114795574918389,0.601974606513977,0.3746726214885711,0.7667015790939331
1630411798436,-0.0114795574918389,0.6182345747947693,0.3775543570518493,0.7667015790939331
1630411798502,-0.0114795574918389,0.6282514333724976,0.3823517858982086,0.7667015790939331
1630411798624,-0.0114795574918389,0.6316632628440857,0.3912732899188995,0.7667015790939331
1630411798692,-0.0114795574918389,0.629148006439209,0.4044947922229767,0.7667015790939331
1630411798852,-0.0114795574918389,0.6232792139053345,0.4191099405288696,0.7667015790939331
1630411798917,-0.0114795574918389,0.6167038083076477,0.4306415021419525,0.7667015790939331
1630411799004,-0.0114795574918389,0.60906583070755,0.4332563877105713,0.7667015790939331
1630411799116,-0.0114795574918389,0.60906583070755,0.4215707182884216,0.7667015790939331
1630411799227,-0.0114795574918389,0.614086925983429,0.3959291279315948,0.7667015790939331
1630411799370,-0.0114795574918389,0.6206980347633362,0.3657121956348419,0.7667015790939331
1630411799433,-0.0114795574918389,0.6262463331222534,0.3451416790485382,0.7667015790939331
1630411799541,-0.0114795574918389,0.62824547290802,0.3423701226711273,0.7667015790939331
1630411799636,-0.0114795574918389,0.6247122287750244,0.3536074757575989,0.7667015790939331
1630411799714,-0.0114795574918389,0.615053117275238,0.3693212866783142,0.7667015790939331
1630411799839,-0.0114795574918389,0.615053117275238,0.3822418749332428,0.7667015790939331
1630411799913,-0.0114795574918389,0.5981183648109436,0.3890381753444671,0.7667015790939331
1630411800067,-0.0114795574918389,0.5764887928962708,0.3887926638126373,0.7667015790939331
1630411800150,-0.0114795574918389,0.5534632802009583,0.3820944130420685,0.7667015790939331
1630411800229,-0.0114795574918389,0.5534632802009583,0.3691689074039459,0.7667015790939331
1630411800315,-0.0114795574918389,0.5534632802009583,0.3499797284603119,0.7667015790939331
1630411800456,-0.0114795574918389,0.5534632802009583,0.328775942325592,0.7667015790939331
1630411800556,-0.0114795574918389,0.5534632802009583,0.3150862455368042,0.7667015790939331
1630411800670,-0.0114795574918389,0.5534632802009583,0.3164489865303039,0.7667015790939331
1630411800750,-0.0114795574918389,0.5534632802009583,0.3308239877223968,0.7667015790939331
1630411800848,-0.0114795574918389,0.5534632802009583,0.3504197895526886,0.7667015790939331
1630411800945,-0.0114795574918389,0.5534632802009583,0.3677727878093719,0.7667015790939331
1630411801025,-0.0114795574918389,0.5534632802009583,0.3761767148971557,0.7667015790939331
1630411801161,-0.0114795574918389,0.2922159135341644,0.3696756064891815,0.7667015790939331
1630411801262,-0.0114795574918389,0.3205966055393219,0.3471452295780182,0.7667015790939331
1630411801354,-0.0114795574918389,0.3457774519920349,0.3157624006271362,0.7667015790939331
1630411801422,-0.0114795574918389,0.3694608807563782,0.2867299318313598,0.7667015790939331
1630411801534,-0.0114795574918389,0.3872154653072357,0.2671076953411102,0.7667015790939331
1630411801622,0.0449238121509552,0.3959273993968963,0.2566647529602051,0.6745774149894714
1630411801775,0.0449238121509552,0.3959265351295471,0.2528999149799347,0.6770023107528687
1630411801853,0.0449238121509552,0.3902627229690552,0.2547419369220733,0.6881853342056274
1630411801985,0.0449238121509552,0.3836538195610046,0.2584760189056396,0.7136227488517761
1630411802113,0.0449238121509552,0.3803780972957611,0.2583547532558441,0.7428171038627625
1630411802212,0.0449238121509552,0.3799180090427398,0.250763475894928,0.7428171038627625
1630411802283,0.0449238121509552,0.3799180090427398,0.2358984649181366,0.7428171038627625
1630411820028,-0.1971742361783981,0.4695609509944916,0.167119488120079,0.6452735662460327
1630411821347,0.167699784040451,0.3222487568855285,0.2554337978363037,0.7841092348098755
1630411824440,-0.0507261417806148,0.5153141617774963,0.1371909379959106,0.5700472593307495
1630411824550,-0.0431388057768344,0.5028684139251709,0.1413667649030685,0.567680835723877
1630411824628,-0.0334531366825103,0.4876843392848968,0.1529649645090103,0.566687285900116
1630411824706,-0.0295303091406822,0.47132009267807,0.1655702888965606,0.5702621340751648
1630411824800,-0.0297678019851446,0.4523224830627441,0.172124445438385,0.5825708508491516
1630411824925,-0.0317368879914283,0.4320320188999176,0.1717938631772995,0.5981029272079468
1630411825065,-0.0291219651699066,0.4153636991977691,0.169964000582695,0.6152547597885132
1630411825128,-0.0205447394400835,0.4068848490715027,0.1739241927862167,0.6275084018707275
1630411825274,-0.0085372989997267,0.4034629464149475,0.1862041056156158,0.6339184045791626
1630411825290,0.009454658254981,0.3970230221748352,0.2038131058216095,0.6365025639533997
1630411825401,0.0241032224148511,0.3824796974658966,0.2212493568658828,0.6332340836524963
1630411825537,0.035648550838232,0.3605817854404449,0.2329708933830261,0.6274670958518982
1630411825646,0.044143259525299,0.3372711539268493,0.2354315519332885,0.6227455139160156
1630411825724,0.0521611683070659,0.3210433721542358,0.2280548959970474,0.6224934458732605
1630411825834,0.0644577220082283,0.3176605701446533,0.2142185419797897,0.6267012357711792
1630411825943,0.0778286755084991,0.3264402449131012,0.1982022225856781,0.6365087628364563
1630411826021,0.0876847133040428,0.3430788815021515,0.1834481060504913,0.6474614143371582
1630411826115,0.0889003127813339,0.3614420592784881,0.1716073900461197,0.6575117707252502
1630411826287,0.0816235467791557,0.377025693655014,0.1661192178726196,0.6625341176986694
1630411826380,0.0671988129615783,0.386722058057785,0.1692744642496109,0.6601431965827942
1630411826478,0.053695548325777,0.3865510523319244,0.1784050166606903,0.653838038444519
1630411826587,0.047409851104021,0.3749339878559112,0.1882269531488418,0.6478909850120544
1630411826660,0.0496964231133461,0.3550015687942505,0.1958280950784683,0.6438361406326294
1630411826739,0.0570121482014656,0.3330549299716949,0.2014762908220291,0.6428231000900269
1630411826886,0.057491049170494,0.3162456452846527,0.2055945992469787,0.6451801657676697
1630411826995,0.0601404644548893,0.3079164326190948,0.2079906016588211,0.6501561403274536
1630411827058,0.063429482281208,0.3142598569393158,0.212382361292839,0.6533942818641663
1630411827136,0.067404992878437,0.3210452795028686,0.2255062907934188,0.65506911277771
1630411827245,0.0703155919909477,0.3193850219249725,0.2508201897144317,0.6553069949150085
1630411827339,0.0627978816628456,0.3045862019062042,0.284266859292984,0.6551255583763123
1630411827466,0.0467689298093318,0.2802137434482574,0.3213021457195282,0.6520342826843262
1630411827607,0.0296152979135513,0.2537207901477813,0.3616296648979187,0.647796630859375
1630411827716,0.0242716837674379,0.2319750487804412,0.4038110971450805,0.6443670392036438
1630411827779,0.045550562441349,0.2168998569250106,0.4390585124492645,0.6404533982276917
1630411827841,0.0860334783792495,0.2074722647666931,0.4583707749843597,0.6308208703994751
1630411827935,0.1262527704238891,0.2041312605142593,0.4604134857654571,0.6137608289718628
1630411828138,0.1262527704238891,0.2044630050659179,0.4529337882995605,0.6137608289718628
1630411828185,0.1262527704238891,0.2044630050659179,0.4458242356777191,0.6137608289718628
1630411828266,0.1262527704238891,0.2044630050659179,0.4434628486633301,0.6137608289718628
1630411828391,0.1262527704238891,0.2044630050659179,0.4443324208259582,0.6137608289718628
1630411828469,0.1262527704238891,0.2044630050659179,0.4526337087154388,0.6137608289718628
1630411828547,0.1262527704238891,0.2044630050659179,0.4620282351970672,0.6137608289718628
1630411828703,0.1262527704238891,0.2044630050659179,0.4702937602996826,0.6137608289718628
1630411828797,0.1262527704238891,0.2044630050659179,0.4541317522525787,0.6137608289718628
1630411828859,0.1262527704238891,0.2044630050659179,0.4361778795719147,0.6137608289718628
1630411828984,0.1262527704238891,0.2044630050659179,0.4154783189296722,0.6137608289718628
1630411829078,0.1262527704238891,0.2044630050659179,0.3850214183330536,0.6137608289718628
1630411829125,0.1262527704238891,0.2044630050659179,0.338590919971466,0.6137608289718628
1630411829315,0.1262527704238891,0.2044630050659179,0.2838756740093231,0.6137608289718628
1630411829424,0.1262527704238891,0.2044630050659179,0.2324346154928207,0.6137608289718628
1630411829486,0.1262527704238891,0.2044630050659179,0.2101783603429794,0.6137608289718628
1630411829580,0.1262527704238891,0.2044630050659179,0.2199587672948837,0.6137608289718628
1630411829658,0.1262527704238891,0.2044630050659179,0.2368354797363281,0.6137608289718628
1630411829814,0.1262527704238891,0.2044630050659179,0.2379212528467178,0.6137608289718628
1630411829939,0.1262527704238891,0.2044630050659179,0.2178908586502075,0.6137608289718628
1630411830002,0.1262527704238891,0.2044630050659179,0.2178908586502075,0.6137608289718628
1630411830111,0.1262527704238891,0.2044630050659179,0.2178908586502075,0.6137608289718628
1630411830189,0.1262527704238891,0.2044630050659179,0.2178908586502075,0.6137608289718628
1630411830302,0.1262527704238891,0.2044630050659179,0.2407761663198471,0.6137608289718628
1630411830380,0.1262527704238891,0.2044630050659179,0.2407761663198471,0.6137608289718628
1630411830520,0.1262527704238891,0.2044630050659179,0.2407761663198471,0.6137608289718628
1630411830630,0.1262527704238891,0.2044630050659179,0.2407761663198471,0.6137608289718628
1630411830692,0.1262527704238891,0.2044630050659179,0.2407761663198471,0.6137608289718628
1630411830801,0.1262527704238891,0.2044630050659179,0.2407761663198471,0.6137608289718628
1630411830879,0.1262527704238891,0.2044630050659179,0.5007733702659607,0.6137608289718628
1630411831020,0.1262527704238891,0.2044630050659179,0.4691126048564911,0.6137608289718628
1630411831129,0.1262527704238891,0.2044630050659179,0.4691126048564911,0.6137608289718628
1630411831239,0.1262527704238891,0.2044630050659179,0.4691126048564911,0.6137608289718628
1630411831320,0.1262527704238891,0.2044630050659179,0.4691126048564911,0.6137608289718628
1630411831429,0.1262527704238891,0.2044630050659179,0.4561537504196167,0.6137608289718628
1630411831492,0.1262527704238891,0.2044630050659179,0.4561537504196167,0.6137608289718628
1630411831617,0.1262527704238891,0.2044630050659179,0.4561537504196167,0.6137608289718628
1630411831757,0.1262527704238891,0.2044630050659179,0.4561537504196167,0.6137608289718628
1630411831835,0.1262527704238891,0.2044630050659179,0.4561537504196167,0.6137608289718628
1630411831913,0.1262527704238891,0.2044630050659179,0.4561537504196167,0.6137608289718628
1630411832038,0.1262527704238891,0.2044630050659179,0.428469568490982,0.6137608289718628
1630411832132,0.1262527704238891,0.2044630050659179,0.3807739913463592,0.6137608289718628
1630411832195,0.1262527704238891,0.2044630050659179,0.3151615858078003,0.6137608289718628
1630411832400,0.1262527704238891,0.2044630050659179,0.2412759959697723,0.6137608289718628
1630411832447,0.1262527704238891,0.2044630050659179,0.1746437549591064,0.6137608289718628
1630411832509,0.1262527704238891,0.2044630050659179,0.126223549246788,0.6137608289718628
1630411832666,0.1262527704238891,0.2044630050659179,0.1216692849993705,0.6137608289718628
1630411832744,0.1262527704238891,0.2044630050659179,0.1332924962043762,0.6137608289718628
1630411832822,0.1262527704238891,0.2044630050659179,0.1505649834871292,0.6137608289718628
1630411832931,0.1262527704238891,0.3065637946128845,0.1309972554445266,0.6137608289718628
1630411833072,0.1262527704238891,0.3315660953521728,0.1332123875617981,0.6137608289718628
1630411833166,0.1262527704238891,0.3605851531028747,0.1258541345596313,0.6137608289718628
1630411833259,0.1262527704238891,0.3834710717201233,0.1191926151514053,0.6137608289718628
1630411833357,0.1262527704238891,0.3926247954368591,0.1202587634325027,0.6137608289718628
1630411833435,0.1262527704238891,0.3883039355278015,0.1276838928461074,0.6137608289718628
1630411833592,0.1262527704238891,0.3768706917762756,0.1313491463661193,0.6137608289718628
1630411833670,0.1262527704238891,0.3658906519412994,0.142029732465744,0.6137608289718628
1630411833764,0.1262527704238891,0.3603637516498565,0.1569116115570068,0.6137608289718628
1630411833842,0.1262527704238891,0.3609291911125183,0.1774244755506515,0.6137608289718628
1630411833951,0.1262527704238891,0.3671104609966278,0.2035478204488754,0.6137608289718628
1630411834045,0.1262527704238891,0.3785683512687683,0.2304166555404663,0.6137608289718628
1630411834201,0.1262527704238891,0.4018872380256653,0.250755101442337,0.6137608289718628
1630411834298,0.1262527704238891,0.4294779896736145,0.2596839666366577,0.6137608289718628
1630411834360,0.1262527704238891,0.456303983926773,0.2580577433109283,0.6137608289718628
1630411834469,0.1262527704238891,0.4627529382705688,0.2530348896980285,0.6137608289718628
1630411834563,0.1262527704238891,0.465924322605133,0.2552188038825989,0.6137608289718628
1630411834641,0.1262527704238891,0.4645397961139679,0.2727578580379486,0.6137608289718628
1630411834797,0.1262527704238891,0.4611601829528808,0.2858383953571319,0.6137608289718628
1630411834860,0.1262527704238891,0.4620843827724457,0.2955909073352813,0.6137608289718628
1630411835016,0.1262527704238891,0.4727485477924347,0.333012193441391,0.6137608289718628
1630411835063,0.1262527704238891,0.4934525191783905,0.3586672842502594,0.6137608289718628
1630411835157,0.1262527704238891,0.5202422738075256,0.3736251294612884,0.6137608289718628
1630411835271,0.1262527704238891,0.5486419796943665,0.37946617603302,0.6137608289718628
1630411835380,0.1262527704238891,0.5706260800361633,0.3763552904129028,0.6137608289718628
1630411835489,0.1262527704238891,0.5899021625518799,0.3652069866657257,0.6137608289718628
1630411835599,0.1262527704238891,0.5981284976005554,0.3492864668369293,0.6137608289718628
1630411835708,0.1262527704238891,0.5909007787704468,0.3357856869697571,0.6137608289718628
1630411835786,0.1262527704238891,0.5687387585639954,0.333605021238327,0.6137608289718628
1630411835849,0.1262527704238891,0.5396115779876709,0.3464262783527374,0.6137608289718628
1630411835989,0.1262527704238891,0.5360323786735535,0.366449624300003,0.6137608289718628
1630411836114,0.1262527704238891,0.5352504253387451,0.3789586126804352,0.6137608289718628
1630411836224,0.1262527704238891,0.5335695743560791,0.3723532557487488,0.6137608289718628
1630411836289,0.1262527704238891,0.5284940004348755,0.3563769459724426,0.6137608289718628
1630411836383,0.1262527704238891,0.5218861103057861,0.3405083119869232,0.6137608289718628
1630411836508,0.1262527704238891,0.5172763466835022,0.3034407496452331,0.6137608289718628
1630411836649,0.1262527704238891,0.5147421360015869,0.2744724154472351,0.6137608289718628
1630411836727,0.616701066493988,0.51169753074646,0.2548631429672241,0.6137608289718628
1630411836805,0.6052743792533875,0.5063187479972839,0.2414628863334655,0.6137608289718628
1630411836914,0.5802614688873291,0.4951095879077911,0.2334162145853042,0.6137608289718628
1630411836992,0.5544346570968628,0.4757788777351379,0.2316354662179947,0.7272356152534485
1630411837086,0.5544346570968628,0.4522047042846679,0.2348410934209823,0.7272356152534485
1630411837242,0.5544346570968628,0.4451853930950165,0.2364500761032104,0.7272356152534485
1630411837314,0.5544346570968628,0.4396542012691498,0.2294764369726181,0.7272356152534485
1630411837423,0.5544346570968628,0.4342667162418365,0.2130738943815231,0.7272356152534485
1630411837501,0.5544346570968628,0.4262458682060241,0.1953963935375213,0.7272356152534485
1630411837626,0.5544346570968628,0.41439950466156,0.1883899569511413,0.7272356152534485
1630411837704,0.5544346570968628,0.400926262140274,0.1968065947294235,0.7272356152534485
1630411837829,0.5544346570968628,0.389958381652832,0.2147534340620041,0.7272356152534485
1630411837923,0.5628986358642578,0.38072669506073,0.231340005993843,0.7272356152534485
1630411838079,0.5489750504493713,0.3653504252433777,0.2400800287723541,0.7272356152534485
1630411838126,0.5104190707206726,0.325688898563385,0.2421149909496307,0.7272356152534485
1630411838236,0.5104190707206726,0.2836413979530334,0.244323194026947,0.7272356152534485
1630411838316,0.5104190707206726,0.2539632320404053,0.2532906830310821,0.7272356152534485
1630411838441,0.5104190707206726,0.2566678822040558,0.2695837616920471,0.7272356152534485
1630411838519,0.5104190707206726,0.3049224019050598,0.2881236374378204,0.7272356152534485
1630411838628,0.5104190707206726,0.3882587850093841,0.3062775433063507,0.5887082815170288
1630411838753,0.5104190707206726,0.4393468499183655,0.3253083825111389,0.5717877149581909
1630411838800,0.5104190707206726,0.4760053157806396,0.3459577560424804,0.5573628544807434
1630411838894,0.1469287723302841,0.4962631165981293,0.3640137612819671,0.5507594347000122
1630411839100,0.1136870458722114,0.5069283843040466,0.3732087314128876,0.5434064865112305
1630411839184,0.0842357575893402,0.5145373940467834,0.3703562617301941,0.5425295829772949
1630411839273,0.0526587553322315,0.5194809436798096,0.3578044772148132,0.5438613295555115
1630411839367,0.0267463829368352,0.5184589624404907,0.3415082395076751,0.5431118011474609
1630411839413,0.0135297020897269,0.5105112195014954,0.327485978603363,0.5421391129493713
1630411839528,0.0088743204250931,0.4987072348594665,0.3186200559139251,0.5384725332260132
1630411839672,0.0123218921944499,0.4986178278923034,0.3136053085327148,0.5305155515670776
1630411839735,0.0153438746929168,0.4995593726634979,0.3076265156269073,0.5256569385528564
1630411839829,0.0128319831565022,0.499025821685791,0.2953709065914154,0.5133888125419617
1630411839985,0.0089443540200591,0.4930087924003601,0.2747648358345032,0.5039020776748657
1630411840016,0.0079441489651799,0.4779756367206573,0.2479596138000488,0.5015206336975098
1630411840141,-0.0108523713424801,0.4528474807739258,0.2172562479972839,0.4992789626121521
1630411840250,-0.0187638625502586,0.4203386604785919,0.1844994872808456,0.5052147507667542
1630411840391,-0.0204301849007606,0.3865129649639129,0.1523225307464599,0.5162700414657593
1630411840485,-0.0236950572580099,0.3569113314151764,0.1260889172554016,0.5295844674110413
1630411840532,-0.0153754567727446,0.3315549790859222,0.1119515150785446,0.5448481440544128
1630411840641,-0.0012804856523871,0.308571457862854,0.111996442079544,0.5560252070426941
1630411840782,0.0191440731287002,0.2899978756904602,0.1241193488240242,0.5606601238250732
1630411840891,0.040703997015953,0.2804703116416931,0.1455327421426773,0.5593826770782471
1630411840985,0.052187442779541,0.2799333930015564,0.1732523739337921,0.5537204742431641
1630411841110,0.0537131838500499,0.2794195413589477,0.2018027007579803,0.5459047555923462
1630411841156,0.0458657518029212,0.2809173464775085,0.2244883328676223,0.5408214330673218
1630411841235,0.040881585329771,0.2814364433288574,0.238357737660408,0.5346394181251526
1630411841328,0.0519947111606597,0.2895885407924652,0.2444763630628585,0.5315932631492615
1630411841500,0.0812207460403442,0.2962567508220672,0.2454561740159988,0.5320389270782471
1630411841578,0.1190789937973022,0.3040461540222168,0.2435391396284103,0.5351921319961548
1630411841656,0.1494792997837066,0.3223496377468109,0.2404082715511322,0.5431162714958191
1630411841781,0.1662060767412185,0.3585605323314667,0.2369461506605148,0.5502188801765442
1630411841859,0.1690902411937713,0.4051899909973144,0.2323061525821685,0.5549554824829102
1630411841937,0.168837770819664,0.4450098872184753,0.2254458665847778,0.5547708868980408
1630411842094,0.1687652617692947,0.4657582342624664,0.2169136106967926,0.5477112531661987
1630411842234,0.1698377281427383,0.4677679240703583,0.2092571854591369,0.5369468331336975
1630411842299,0.1684289425611496,0.4619832634925842,0.2035172134637832,0.5271562933921814
1630411842377,0.1640255898237228,0.4600437879562378,0.1965857595205307,0.5277592539787292
1630411842502,0.1614121496677398,0.4648333787918091,0.1836070567369461,0.5377553701400757
1630411842613,0.1632446050643921,0.4620028436183929,0.1635539829730987,0.5553299188613892
1630411842725,0.1732476353645324,0.454281210899353,0.1435201615095138,0.577964723110199
1630411842805,0.182555004954338,0.4440302848815918,0.1363378465175628,0.5967798829078674
1630411842881,0.1799965798854828,0.4402105808258056,0.1493941843509674,0.6075392365455627
1630411842994,0.1597348302602768,0.440739244222641,0.1769837141036987,0.6108012199401855
1630411843069,0.1190481260418891,0.4422433972358703,0.2065118849277496,0.608823835849762
1630411843180,0.074737437069416,0.4361125230789184,0.228307843208313,0.6047049164772034
1630411843351,0.039152804762125,0.4153145253658294,0.2390434294939041,0.6021826267242432
1630411843416,0.0186174213886261,0.3822446465492248,0.2407671064138412,0.5999724268913269
1630411843509,0.0088103571906685,0.3511310517787933,0.2390552461147308,0.5964447855949402
1630411843601,-0.0069283721968531,0.3368307948112488,0.2403274923563003,0.5939290523529053
1630411843696,-0.0257607847452163,0.3381287157535553,0.2494282275438308,0.5916972160339355
1630411843757,-0.0424939692020416,0.339411050081253,0.2658274471759796,0.5892928838729858
1630411843916,-0.0498698428273201,0.3303385972976684,0.2835586071014404,0.5841360092163086
1630411844039,-0.0442880801856517,0.3162360191345215,0.2959106564521789,0.5771411061286926
1630411844108,-0.0324308536946773,0.30865678191185,0.3000860214233398,0.5687845945358276
1630411844212,-0.021929332986474,0.3134424984455108,0.2976902425289154,0.5586984157562256
1630411844335,-0.0136808613315224,0.326071172952652,0.2909217476844787,0.5514797568321228
1630411844437,-0.0089308666065335,0.3365896344184875,0.2813508212566376,0.549767017364502
1630411844528,-0.0075492849573493,0.3399783968925476,0.2732231616973877,0.5480228662490845
1630411844668,-0.003903757315129,0.3375269174575805,0.2744916081428528,0.5443258285522461
1630411844728,0.00218809209764,0.3348125219345093,0.2896762192249298,0.5361223220825195
1630411844854,0.0116466181352734,0.3364864885807037,0.3132742643356323,0.5224950909614563
1630411844915,0.0204850509762763,0.3409490287303924,0.3339115679264068,0.5085843205451965
1630411845040,0.0269210189580917,0.3414127230644226,0.3431101441383362,0.5016812086105347
1630411845147,0.0361527204513549,0.3352523744106293,0.3389938175678253,0.5077879428863525
1630411845257,0.0426903180778026,0.3299320936203003,0.3228370249271393,0.5252434015274048
1630411845318,0.0488201715052127,0.3375994861125946,0.2967253923416137,0.5505586266517639
1630411845446,0.0459960512816906,0.3600500524044037,0.2646504342556,0.5756298899650574
1630411845521,0.0418467596173286,0.3859615623950958,0.2342457324266433,0.5822733640670776
1630411845629,0.0311918687075376,0.4056339561939239,0.2136387676000595,0.5876462459564209
1630411845757,0.011154156178236,0.4179740846157074,0.2047985792160034,0.5904355049133301
1630411845818,-0.0148689774796366,0.4264573752880096,0.2032999545335769,0.5923210978507996
1630411845929,-0.0353347621858119,0.4263632297515869,0.2026055306196212,0.5943309664726257
1630411846040,-0.0442478135228157,0.4310775697231293,0.1956115365028381,0.6014029383659363
1630411846134,-0.0392362289130687,0.4429424107074737,0.1751882433891296,0.6149852275848389
1630411846246,-0.0325581282377243,0.4590562880039215,0.1372201442718505,0.6352741718292236
1630411846399,-0.0312313642352819,0.4733517169952392,0.0850812718272209,0.661404013633728
1630411846447,-0.0303988549858331,0.4840069711208343,0.0329963974654674,0.6914781332015991
1630411846540,-0.0331209860742092,0.5071825981140137,0.0036662118509411,0.7218228578567505
1630411846633,-0.0331209860742092,0.5262373685836792,0.0130353104323148,0.7218228578567505
1630411846728,-0.0331209860742092,0.5498763918876648,0.0540196225047111,0.7218228578567505
1630411846808,-0.0331209860742092,0.5679503083229065,0.1026651784777641,0.7218228578567505
1630411846963,-0.0331209860742092,0.5732541680335999,0.1404574960470199,0.7218228578567505
1630411847089,-0.0331209860742092,0.5687498450279236,0.1630214750766754,0.7218228578567505
1630411847165,-0.0331209860742092,0.564979612827301,0.1768440306186676,0.6476737856864929
1630411847273,-0.0331209860742092,0.5670895576477051,0.1908485889434814,0.6332432627677917
1630411847348,0.1057442277669906,0.5655160546302795,0.2078395038843155,0.6110224723815918
1630411847412,0.101207248866558,0.5507029294967651,0.2281660288572311,0.5935972332954407
1630411847541,0.0905466005206108,0.5340788960456848,0.2507236003875732,0.5781914591789246
1630411847680,0.0800838246941566,0.5217280387878418,0.2738111019134521,0.5667572617530823
1630411847775,0.0621706545352935,0.5141115784645081,0.295904129743576,0.5630291104316711
1630411847852,0.0481604002416133,0.5078791975975037,0.315849095582962,0.5704859495162964
1630411847978,0.0462867729365825,0.5018282532691956,0.332746297121048,0.5904407501220703
1630411848040,0.0552790388464927,0.4888663589954376,0.345152348279953,0.6150612235069275
1630411848198,0.0705430433154106,0.4919156432151794,0.3497837483882904,0.6347979307174683
1630411848326,0.0826154649257659,0.5001693964004517,0.3442245125770569,0.6455401182174683
1630411848389,0.0852221697568893,0.5120236873626709,0.3311497271060943,0.6487354040145874
1630411848467,0.0802902951836586,0.5271362066268921,0.3174746632575989,0.645087480545044
1630411848594,0.0716308504343032,0.5439125299453735,0.3087746500968933,0.6408076286315918
1630411848653,0.0623006671667099,0.5569102168083191,0.303994357585907,0.6346842646598816
1630411848777,0.0543902963399887,0.5626306533813477,0.2970995306968689,0.6292764544487
1630411848879,0.0477251783013343,0.5600230693817139,0.2843226492404938,0.6322591304779053
1630411849007,0.0436630696058273,0.5530964136123657,0.2637825012207031,0.6411724090576172
1630411849067,0.0505864843726158,0.5451321601867676,0.2372507452964782,0.6556565165519714
1630411849171,0.0659848228096962,0.5362797975540161,0.2100699692964553,0.6710041761398315
1630411849265,0.0854813829064369,0.5264139175415039,0.1879305243492126,0.6826969385147095
1630411849414,0.0974248424172401,0.5164995789527893,0.1726415157318115,0.6875984072685242
1630411849506,0.0953034833073616,0.5075184106826782,0.1600064188241958,0.6845722198486328
1630411849588,0.0838275998830795,0.4989575147628784,0.1434312462806701,0.676532506942749
1630411849694,0.066726453602314,0.490069031715393,0.1207713037729263,0.666926383972168
1630411849806,0.0515517853200435,0.4805483520030975,0.0971876084804534,0.6589023470878601
1630411849885,0.0487074702978134,0.4678768217563629,0.0810612514615058,0.6561180353164673
1630411849996,0.0549711398780345,0.4470416903495788,0.0774261727929115,0.663691520690918
1630411850106,0.0676317512989044,0.4150862097740173,0.0825449600815773,0.6796144843101501
1630411850248,0.0841538310050964,0.3797030448913574,0.0891548469662666,0.7007075548171997
1630411850310,0.101359911262989,0.3557125627994537,0.0971641242504119,0.7183133959770203
1630411850401,0.1205293387174606,0.3523263335227966,0.1116400808095932,0.7274695634841919
1630411850497,0.1335421502590179,0.3633289039134979,0.1354736387729644,0.7267335057258606
1630411850624,0.1355368196964264,0.376082569360733,0.1636448800563812,0.7182364463806152
1630411850717,0.1265941858291626,0.3854717314243316,0.1868003606796264,0.7075645327568054
1630411850810,0.1132987812161445,0.3953571021556854,0.1989397555589676,0.69821697473526
1630411850887,0.1076285988092422,0.4131985902786255,0.2008740454912185,0.6894855499267578
1630411851027,0.1144189611077308,0.4384366869926452,0.1986696720123291,0.6819552183151245
1630411851123,0.1243188828229904,0.4627282321453094,0.1997022628784179,0.6754003167152405
1630411851245,0.150155484676361,0.4775640964508056,0.2092315405607223,0.6714740991592407
1630411851321,0.1793367564678192,0.4800946414470672,0.2258382886648178,0.6708647608757019
1630411851414,0.1861369162797927,0.4730291068553924,0.2430418878793716,0.6659802794456482
1630411851603,0.1927029490470886,0.4608866274356842,0.2544301748275757,0.6524046063423157
1630411851666,0.1962164789438247,0.4488283991813659,0.2583740353584289,0.6332699656486511
1630411851732,0.1949122250080108,0.4366065561771393,0.257489264011383,0.6119571924209595
1630411851840,0.1912847310304641,0.4240022003650665,0.2529605031013489,0.5977360606193542
1630411851917,0.1807286590337753,0.4110698699951172,0.2423610538244247,0.5914197564125061
1630411852064,0.1749773919582367,0.3999656438827514,0.224604383111,0.5921010375022888
1630411852152,0.1777238845825195,0.3945470750331878,0.2041248828172683,0.5983204245567322
1630411852232,0.1940563321113586,0.394652783870697,0.1889475435018539,0.6040204763412476
1630411852360,0.2308661043643951,0.3946923613548279,0.1826544404029846,0.6075165271759033
1630411852453,0.2177660167217254,0.3862504363059997,0.1817774921655655,0.6069018840789795
1630411852580,0.1949784606695175,0.3666423261165619,0.1810347139835357,0.5997923016548157
1630411852640,0.1707250028848648,0.3425908982753753,0.1780829727649688,0.5883162021636963
1630411852718,0.1141087114810943,0.3257830142974853,0.1713950634002685,0.5744973421096802
1630411852845,0.0349249765276908,0.3239399790763855,0.1601463407278061,0.5619136095046997
1630411852922,0.0414285026490688,0.3373379707336426,0.1456864923238754,0.5539885759353638
1630411853127,0.0352279692888259,0.3659624755382538,0.1336965560913086,0.5520344376564026
1630411853182,0.0280704796314239,0.4105906784534454,0.1302464008331298,0.553164541721344
1630411853296,0.0135852303355932,0.4650019407272339,0.1367437094449997,0.5540856122970581
1630411853344,0.0135852303355932,0.5147787928581238,0.147733062505722,0.5499717593193054
1630411853421,0.0135852303355932,0.5488457679748535,0.1578402370214462,0.543167769908905
1630411853530,0.0135852303355932,0.5664311051368713,0.1634512692689895,0.5352573394775391
1630411853654,0.0135852303355932,0.5758355855941772,0.1613905131816864,0.5245038270950317
1630411853748,0.0135852303355932,0.5868495106697083,0.1486002653837204,0.5129364728927612
1630411853890,0.0135852303355932,0.6018821001052856,0.1270373910665512,0.4995213747024536
1630411853936,0.0215687770396471,0.6179341077804565,0.1062833666801452,0.4919331967830658
1630411854014,0.0278957113623619,0.63205486536026,0.0971366912126541,0.4927270412445068
1630411854140,0.0227839779108762,0.6427224278450012,0.0998881086707115,0.4980483055114746
1630411854285,0.0141215864568948,0.6483328938484192,0.1063395291566848,0.5079160928726196
1630411854377,-0.0146542089059948,0.6469713449478149,0.1110118627548217,0.5168994069099426
1630411854533,-0.0146542089059948,0.6382745504379272,0.1154578626155853,0.5168994069099426
1630411854583,-0.0146542089059948,0.6229788064956665,0.1197757795453071,0.5168994069099426
1630411854720,-0.0146542089059948,0.6008999347686768,0.119166649878025,0.5168994069099426
1630411854766,-0.0146542089059948,0.5729153752326965,0.1069788783788681,0.5168994069099426
1630411854884,-0.0146542089059948,0.5455527901649475,0.0833402052521705,0.5168994069099426
1630411854987,-0.0146542089059948,0.5276216268539429,0.0538311637938022,0.5168994069099426
1630411855105,-0.0146542089059948,0.5204517245292664,0.0253861621022224,0.5168994069099426
1630411855199,-0.0146542089059948,0.5145109295845032,0.0038367898669093,0.5168994069099426
1630411855246,-0.0146542089059948,0.4997518956661224,-0.0068672057241201,0.5168994069099426
1630411855386,-0.0146542089059948,0.476251482963562,-0.0053772879764437,0.5168994069099426
1630411855514,-0.0146542089059948,0.4530479907989502,0.0046304212883114,0.5168994069099426
1630411855619,-0.0146542089059948,0.43861785531044,0.0097219999879598,0.5168994069099426
1630411855699,-0.0146542089059948,0.425463318824768,0.0053463256917893,0.5168994069099426
1630411855782,-0.0146542089059948,0.4164098799228668,0.0189992412924766,0.5168994069099426
1630411855911,-0.0146542089059948,0.4149231612682342,0.0261635817587375,0.5168994069099426
1630411855979,-0.0146542089059948,0.4266146123409271,0.0195689890533685,0.5168994069099426
1630411856107,-0.0146542089059948,0.439050555229187,-0.0016774231335148,0.5168994069099426
1630411856201,-0.0146542089059948,0.4465024173259735,-0.0250376872718334,0.5168994069099426
1630411856293,-0.0146542089059948,0.4485917389392853,-0.0305863562971353,0.5168994069099426
1630411856387,-0.0146542089059948,0.4483611285686493,-0.010851465165615,0.5168994069099426
1630411856498,-0.0146542089059948,0.4496805369853973,0.023778211325407,0.5168994069099426
1630411856594,-0.0146542089059948,0.4531458020210266,0.0616394504904747,0.5168994069099426
1630411856766,-0.0146542089059948,0.4565816223621368,0.0968078002333641,0.5168994069099426
1630411856845,-0.0146542089059948,0.4569426774978637,0.1270178705453872,0.5168994069099426
1630411856909,-0.0146542089059948,0.4530901610851288,0.1493323743343353,0.5168994069099426
1630411857002,-0.0146542089059948,0.4460544884204864,0.1502411961555481,0.5168994069099426
1630411857172,-0.0146542089059948,0.4378071427345276,0.1482416987419128,0.5168994069099426
1630411857250,-0.0146542089059948,0.4378071427345276,0.147086352109909,0.5168994069099426
1630411857360,-0.0146542089059948,0.4415707290172577,0.1421369165182113,0.5168994069099426
1630411857409,-0.0146542089059948,0.4428471028804779,0.1420072317123413,0.5168994069099426
1630411857533,-0.0146542089059948,0.4399541020393371,0.1493014544248581,0.5168994069099426
1630411857629,-0.0146542089059948,0.4380304515361786,0.162652850151062,0.5168994069099426
1630411857800,-0.0146542089059948,0.4392399191856384,0.1779213994741439,0.5168994069099426
1630411857817,-0.0146542089059948,0.4436467289924621,0.1902117580175399,0.5168994069099426
1630411857976,-0.0146542089059948,0.4467805325984955,0.195454329252243,0.5168994069099426
1630411858024,-0.0146542089059948,0.4426758885383606,0.1935964524745941,0.5168994069099426
1630411858102,-0.0146542089059948,0.4303288459777832,0.1869274526834488,0.5168994069099426
1630411858214,-0.0146542089059948,0.4141169190406799,0.1784333288669586,0.7418635487556458
1630411858339,-0.0259241387248039,0.4006663262844085,0.169381707906723,0.7201387882232666
1630411858387,-0.0582875609397888,0.3924850225448608,0.162034198641777,0.7009791135787964
1630411858546,-0.0816031321883201,0.3850995004177093,0.1602698266506195,0.6840273141860962
1630411858684,-0.0971589684486389,0.3727459907531738,0.1653011739253997,0.669140636920929
1630411858731,-0.1113892719149589,0.360818475484848,0.1741795241832733,0.6513857841491699
1630411858842,-0.1180162131786346,0.3376699984073639,0.1835498362779617,0.6350963115692139
1630411858889,-0.1123564839363098,0.3140225708484649,0.1933085769414901,0.6190516948699951
1630411859000,-0.0966327935457229,0.2942348420619964,0.2061965614557266,0.6048914790153503
1630411859208,-0.0700077563524246,0.2802269160747528,0.2218340635299682,0.5962623357772827
1630411859253,-0.0384781174361705,0.2711485922336578,0.234361469745636,0.5961350798606873
1630411859368,-0.0104487538337707,0.2654318511486053,0.2381893098354339,0.6028081178665161
1630411859458,0.0094305351376533,0.2633693218231201,0.233849823474884,0.5898961424827576
1630411859553,0.0125840697437524,0.2671487629413605,0.2274730056524276,0.5794661641120911
1630411859647,0.0117985205724835,0.2782483696937561,0.2259784191846847,0.5690805912017822
1630411859755,0.0192552842199802,0.2951009273529053,0.2315847426652908,0.5639681816101074
1630411859881,0.0323937647044658,0.3133987784385681,0.241597443819046,0.5589163899421692
1630411859963,0.0494116321206092,0.3299877643585205,0.2506409585475921,0.5559782981872559
1630411860037,0.0691247731447219,0.345461905002594,0.2535699009895324,0.5550135374069214
1630411860131,0.0911088660359382,0.3566535711288452,0.2481509000062942,0.5558292269706726
1630411860242,0.1184041649103164,0.3692944347858429,0.2363517582416534,0.5649551749229431
1630411860389,0.1478556394577026,0.3856373131275177,0.2214496582746505,0.5789350271224976
1630411860485,0.174982413649559,0.4059785902500152,0.2053896784782409,0.601225733757019
1630411860572,0.1982114315032959,0.4283048808574676,0.1885759532451629,0.6313542127609253
1630411860649,0.2097858637571334,0.4485244452953338,0.1726865023374557,0.6627370715141296
1630411860745,0.2097858637571334,0.4615719318389892,0.1621980816125869,0.6627370715141296
1630411860868,0.2097858637571334,0.4619344472885132,0.1626614183187484,0.6627370715141296
1630411861027,0.2097858637571334,0.4399094879627228,0.1755419969558715,0.6627370715141296
1630411861122,0.2097858637571334,0.4092909693717956,0.1961504966020584,0.6627370715141296
1630411861164,0.2097858637571334,0.3757450580596924,0.2146603763103485,0.6627370715141296
1630411861295,-0.2377821654081344,0.3437263071537018,0.2234276384115219,0.6627370715141296
1630411861390,-0.2517884373664856,0.3139199018478393,0.2217649519443512,0.3859443962574005
1630411861438,-0.2673825919628143,0.2827909588813782,0.2150671780109405,0.3904769122600555
1630411861611,-0.2656705975532532,0.2459291815757751,0.2105392515659332,0.4159528315067291
1630411861687,-0.2356250584125518,0.2386426478624344,0.2112637311220169,0.4659917950630188
1630411861813,-0.1823259890079498,0.2438895106315612,0.2138302624225616,0.5192636251449585
1630411861946,-0.1274135261774063,0.2602773308753967,0.2133742868900299,0.5652098059654236
1630411861989,-0.0801848024129867,0.2843067646026611,0.2074222713708877,0.5937190055847168
1630411862129,-0.0500836595892906,0.31081423163414,0.1961181461811065,0.6049019694328308
1630411862177,-0.0318235419690609,0.3362622261047363,0.1819687038660049,0.6050421595573425
1630411862270,-0.0199016481637954,0.3585601150989532,0.1681117415428161,0.5995182394981384
1630411862364,-0.0143431797623634,0.3751869797706604,0.1548374891281128,0.5906665325164795
1630411862506,-0.0044865482486784,0.3843041062355041,0.1393434405326843,0.5821242332458496
1630411862614,0.0003812183567788,0.3899105191230774,0.1172775626182556,0.5846929550170898
1630411862709,0.005551194306463,0.3969354927539825,0.0890052914619445,0.5950309634208679
1630411862787,0.0106054143980145,0.4099467098712921,0.060951966792345,0.6135621666908264
1630411862900,0.0210174452513456,0.4286631345748901,0.0417342372238636,0.6324228644371033
1630411862961,0.0374626591801643,0.4488306641578674,0.0363883972167968,0.647927463054657
1630411863072,0.0498893149197101,0.4653393924236297,0.0442387945950031,0.6534499526023865
1630411863198,0.0572515167295932,0.4755253791809082,0.0606372766196727,0.6407063007354736
1630411863309,0.0536218956112861,0.4791448414325714,0.0810440778732299,0.6189180612564087
1630411863445,0.0402557663619518,0.4778347909450531,0.1039569303393364,0.5907160639762878
1630411863528,0.0184494704008102,0.4734352529048919,0.1309346705675125,0.5666998028755188
1630411863609,-0.0150423133745789,0.4668328464031219,0.1631131917238235,0.5545899271965027
1630411863717,-0.0476095825433731,0.4575711786746979,0.1967634856700897,0.5508719086647034
1630411863780,-0.0672007948160171,0.445495992898941,0.2250832617282867,0.5561268925666809
1630411863874,-0.0834497958421707,0.4325465261936188,0.2437350451946258,0.5704262852668762
1630411864032,-0.0994537845253944,0.421579509973526,0.2532062530517578,0.5865970849990845
1630411864110,-0.0882708057761192,0.4141104817390442,0.2575549185276031,0.5964773297309875
1630411864190,-0.0569510273635387,0.4088010191917419,0.2611427009105682,0.5964727997779846
1630411864334,-0.0469793789088726,0.4026653468608856,0.2655246555805206,0.5896704196929932
1630411864424,-0.0443670712411403,0.3945971727371216,0.2686827480792999,0.578308641910553
1630411864487,-0.0562506206333637,0.3861550092697143,0.2659302949905395,0.5675595998764038
1630411864673,-0.0714761614799499,0.3809605240821838,0.2534526586532593,0.5621073246002197
1630411864751,-0.0714761614799499,0.3814245462417602,0.2321888506412506,0.5711538195610046
1630411864814,-0.0714761614799499,0.3861333429813385,0.2097230404615402,0.5833820700645447
1630411864923,-0.0714761614799499,0.3901373744010925,0.1944033056497573,0.5990712642669678
1630411865033,-0.0714761614799499,0.3906368315219879,0.1871015727519989,0.6136530041694641
1630411865111,-0.0523644797503948,0.391177237033844,0.1817198693752288,0.6237424612045288
1630411865267,-0.0523644797503948,0.3984574973583221,0.1735220104455948,0.6363933682441711
1630411865331,-0.0523644797503948,0.4147116839885711,0.1645994931459427,0.6441987752914429
1630411865439,-0.0523644797503948,0.4355471730232239,0.1594131737947464,0.6441987752914429
1630411865533,-0.0523644797503948,0.4540339708328247,0.1581574231386184,0.6441987752914429
1630411865682,-0.0523644797503948,0.4655527472496032,0.1574407815933227,0.6441987752914429
1630411865721,-0.0523644797503948,0.4688893258571625,0.1566831469535827,0.6441987752914429
1630411865877,-0.0523644797503948,0.465273380279541,0.1586157828569412,0.6441987752914429
1630411865970,0.0551634617149829,0.4578899145126343,0.1654829531908035,0.5473842024803162
1630411866031,0.0474987961351871,0.4508368968963623,0.1770129352807998,0.5809102654457092
1630411866159,0.0394721589982509,0.4457942843437195,0.190606951713562,0.6063300371170044
1630411866254,0.028106989338994,0.4411967694759369,0.2029499113559723,0.6186282634735107
1630411866332,0.0077189812436699,0.4346753060817718,0.2102269232273101,0.614680826663971
1630411866456,-0.0108712604269385,0.4262318015098572,0.208728551864624,0.6040109395980835
1630411866583,-0.0235839933156967,0.4173125028610229,0.1969103664159774,0.5905112624168396
1630411866771,-0.0271546766161918,0.4087466895580292,0.1767360717058181,0.5772773623466492
1630411866818,-0.0178391821682453,0.398878276348114,0.1529425829648971,0.5660358667373657
1630411866897,-0.0045808451250195,0.3852722942829132,0.1310393512248993,0.5575836300849915
1630411866964,0.0081290630623698,0.3673606216907501,0.1156056299805641,0.5509072542190552
1630411867072,0.0195508487522602,0.3474412858486175,0.1081322133541107,0.546513020992279
1630411867165,0.0294304713606834,0.3295528590679168,0.1059026569128036,0.5479223132133484
1630411867294,0.0423367768526077,0.3171150684356689,0.1028198450803756,0.5469167232513428
1630411867355,0.0600354932248592,0.3094964623451233,0.0949802324175834,0.5431650876998901
1630411867449,0.071969524025917,0.301946073770523,0.0845148339867591,0.5328546762466431
1630411867540,0.0770051181316375,0.2890077233314514,0.0772452130913734,0.5152614712715149
1630411867738,0.0780457407236099,0.2690200507640838,0.0763996168971061,0.4952890574932098
1630411867777,0.0827179849147796,0.2460472285747528,0.0806774869561195,0.4828627705574035
1630411867887,0.095912255346775,0.2261012941598892,0.0852396935224533,0.4882968962192535
1630411867962,0.1100212484598159,0.2113717943429947,0.0861655473709106,0.5028077960014343
1630411868072,0.1225500330328941,0.1980214715003967,0.0838354229927063,0.518012285232544
1630411868198,0.1253453493118286,0.1784005761146545,0.0809122249484062,0.5282628536224365
1630411868259,0.1234574764966964,0.1476851403713226,0.0801273360848426,0.5383672714233398
1630411868354,0.1250071972608566,0.1079256981611251,0.0814451947808265,0.552531361579895
1630411868498,0.1292089968919754,0.0679714903235435,0.0818298310041427,0.5673820972442627
1630411868562,0.13653364777565,0.0383541360497474,0.079916313290596,0.579623281955719
1630411868671,0.1396494060754776,0.0216057654470205,0.076570838689804,0.5877395272254944
1630411868763,0.1308105140924453,0.0105192838236689,0.0717634037137031,0.5913261771202087
1630411868888,0.1097185760736465,-8.306965173687786e-05,0.0639431178569793,0.5891082286834717
1630411868980,0.0848416239023208,-0.0059728762134909,0.0510331355035305,0.5832007527351379
1630411869090,0.0669992566108703,-9.209584095515312e-05,0.0323920138180255,0.5804097056388855
1630411869213,0.0629643499851226,0.0204288586974143,0.0106654968112707,0.5867947340011597
1630411869275,0.0637661144137382,0.0505060032010078,-0.0112524786964058,0.5937533974647522
1630411869374,0.0657196417450904,0.083267793059349,-0.0305064618587493,0.5956076383590698
1630411869483,0.0651462897658348,0.1143952161073684,-0.0441989935934543,0.5925429463386536
1630411869577,0.062664121389389,0.1409467756748199,-0.0522964820265769,0.591789960861206
1630411869687,0.0662336871027946,0.1613790392875671,-0.0580113269388675,0.5983523726463318
1630411869796,0.0643916130065918,0.1760333627462387,-0.0652444511651992,0.6053440570831299
1630411869874,0.05263152718544,0.1875914633274078,-0.0762783512473106,0.6050645709037781
1630411870015,0.0340773686766624,0.1987369507551193,-0.0896629393100738,0.600725531578064
1630411870108,0.0083011258393526,0.2108211666345596,-0.1017784476280212,0.5951682329177856
1630411870202,-0.010640462860465,0.2252522259950637,-0.1077690944075584,0.591573178768158
1630411870314,-0.0061016082763671,0.2435556352138519,-0.1035146266222,0.592667818069458
1630411870439,0.0215143673121929,0.2654137015342712,-0.0904729664325714,0.5974512696266174
1630411870532,0.0605430118739604,0.286474198102951,-0.0757270529866218,0.6034600734710693
1630411870626,0.0963556915521621,0.3022985160350799,-0.0657252743840217,0.6061261296272278
1630411870720,0.1189898550510406,0.3104230165481567,-0.0611277408897876,0.6022258400917053
1630411870876,0.1324244737625122,0.3103241920471191,-0.0572403967380523,0.5987637639045715
1630411870923,0.1400456428527832,0.3022264838218689,-0.0507658943533897,0.5995164513587952
1630411871017,0.1446375250816345,0.2871373295783996,-0.0438791662454605,0.6048752665519714
1630411871110,0.1439695358276367,0.268230140209198,-0.0394457541406154,0.6060364246368408
1630411871189,0.1389986127614975,0.2495700567960739,-0.0376381501555442,0.5996348261833191
1630411871332,0.1315165013074875,0.2330541461706161,-0.0369249023497104,0.5867027044296265
1630411871457,0.1223368644714355,0.2169396728277206,-0.0358734726905822,0.570639967918396
1630411871550,0.1158708333969116,0.1986799538135528,-0.0342111811041832,0.5565037727355957
1630411871613,0.1143572926521301,0.17758409678936,-0.0337403677403926,0.5466883182525635
1630411871707,0.1106834113597869,0.1549796909093856,-0.0383339524269104,0.5404328107833862
1630411871832,0.0991070866584777,0.1326772421598434,-0.0517035014927387,0.5378808975219727
1630411871941,0.0760495662689209,0.1113497987389564,-0.0739363804459571,0.536647617816925
1630411872066,0.0460304915904998,0.091262936592102,-0.0995051935315132,0.5388598442077637
1630411872144,0.0163588430732488,0.0722190365195274,-0.1215675175189971,0.5459813475608826
1630411872285,-0.0056741987355053,0.0528248324990272,-0.1378715634346008,0.5552797317504883
1630411872366,-0.0188215170055627,0.0319142639636993,-0.152671068906784,0.5648345351219177
1630411872397,-0.0310517121106386,0.0114155551418662,-0.1716054379940033,0.5685190558433533
1630411872584,-0.0414947047829628,-0.0019991633016616,-0.1950484812259674,0.5671654939651489
1630411872678,-0.0505901388823986,-9.728012082632632e-05,-0.2186515778303146,0.5636635422706604
1630411872819,-0.0567126460373401,0.0184496846050024,-0.2374967038631439,0.5604345798492432
1630411872850,-0.0514034703373909,0.0458376966416835,-0.2519218325614929,0.5620126724243164
1630411872928,-0.0371928177773952,0.0713110119104385,-0.2672359645366668,0.5667927265167236
1630411873069,-0.0199676994234323,0.0871611386537551,-0.2844247817993164,0.5733853578567505
1630411873209,-0.0079884007573127,0.0914013311266899,-0.2959163188934326,0.5801159143447876
1630411873256,-0.0068205697461962,0.0863643288612365,-0.2907038629055023,0.5851259827613831
1630411873381,-0.0100074484944343,0.0751776918768882,-0.2654280066490173,0.5898258686065674
1630411873475,-0.0156742967665195,0.0607017911970615,-0.2244544923305511,0.5925907492637634
1630411873553,-0.0213620588183403,0.0450375899672508,-0.1746498346328735,0.5932881236076355
1630411873662,-0.0242619067430496,0.0294987466186285,-0.1243918314576149,0.5893294215202332
1630411873787,-0.0354741923511028,0.0158902741968631,-0.0837705060839653,0.5759655237197876
1630411873912,-0.0509174689650535,0.0074557960033416,-0.0563682354986667,0.5585250854492188
1630411874006,-0.0655146688222885,0.0070052030496299,-0.0377144627273082,0.542340099811554
1630411874115,-0.0783952176570892,0.0118691641837358,-0.0215834975242614,0.5304696559906006
1630411874209,-0.0827481895685195,0.0123789459466934,-0.0062230695039033,0.5264416933059692
1630411874240,-0.0877916067838668,0.0005506751476787,0.0065595656633377,0.5237300395965576
1630411874415,-0.0919119268655777,-0.0209435503929853,0.0163227096199989,0.5229514241218567
1630411874493,-0.0940030515193939,-0.0395344458520412,0.024338599294424,0.5281326174736023
1630411874587,-0.0951194167137146,-0.042704489082098,0.0298657584935426,0.5359212160110474
1630411874681,-0.0924678668379783,-0.0292783211916685,0.0307169593870639,0.5463074445724487
1630411874774,-0.0864674896001815,-0.0087369875982403,0.0250629931688308,0.5534589886665344
1630411874899,-0.0804287269711494,0.0102687254548072,0.0130127342417836,0.5532134771347046
1630411875024,-0.0727852582931518,0.0246338490396738,-0.0045079160481691,0.5477827787399292
1630411875087,-0.0658222138881683,0.0365197658538818,-0.0260594319552183,0.5369664430618286
1630411875196,-0.0597694814205169,0.0488765388727188,-0.048732940107584,0.5299875140190125
1630411875306,-0.0491145104169845,0.0604865439236164,-0.0667954534292221,0.5312240123748779
1630411875386,-0.0350761786103248,0.0668403133749961,-0.0779287368059158,0.5360814332962036
1630411875465,-0.017837319523096,0.0648819953203201,-0.0860931649804115,0.5433302521705627
1630411875637,0.000250802579103,0.0572475790977478,-0.0965932235121727,0.5486341714859009
1630411875699,0.0145587604492902,0.050157643854618,-0.1103023663163185,0.553203284740448
1630411875855,0.02440513856709,0.0471656434237957,-0.1254671514034271,0.5598698854446411
1630411875887,0.0237454492598772,0.0465422943234443,-0.142313614487648,0.5623639822006226
1630411875980,0.0172156505286693,0.0438802279531955,-0.1615534871816635,0.5573391318321228
1630411876121,0.0042899823747575,0.0367084108293056,-0.1793534904718399,0.5429866909980774
1630411876261,-0.0092537077143788,0.0263416543602943,-0.1883244216442108,0.5191619396209717
1630411876308,-0.0156462620943784,0.0166954658925533,-0.1850811541080474,0.4992793798446655
1630411876452,-0.0160894617438316,0.0139383003115654,-0.1744007170200348,0.4906493723392486
1630411876499,-0.0107624633237719,0.0232908744364976,-0.1645372807979583,0.4962681233882904
1630411876577,-0.0019941760692745,0.0429399162530899,-0.1622012704610824,0.5157660245895386
1630411876702,0.0041057555936276,0.0642683506011962,-0.1685894280672073,0.5370792150497437
1630411876812,0.0072742109186947,0.0812835544347763,-0.1779200732707977,0.5550224781036377
1630411876937,0.0096488511189818,0.0959467738866806,-0.1811023503541946,0.5649228096008301
1630411877015,0.0144871529191732,0.1134468466043472,-0.1741021573543548,0.5654703974723816
1630411877108,0.0252160057425498,0.1334858834743499,-0.1612249612808227,0.5612732172012329
1630411877233,0.0368423834443092,0.1512202769517898,-0.1491929590702057,0.5526868104934692
1630411877311,0.047287218272686,0.1635944247245788,-0.1395669877529144,0.5419031977653503
1630411877424,0.0537104122340679,0.1708073765039444,-0.1300488263368606,0.5313678979873657
1630411877502,0.0554301068186759,0.175038605928421,-0.1202178969979286,0.52672278881073
1630411877627,0.0559593923389911,0.1788958460092544,-0.1142077594995498,0.5305795073509216
1630411877721,0.0565143823623657,0.1855704933404922,-0.1169569119811058,0.5400633811950684
1630411877799,0.0588310435414314,0.1965290606021881,-0.1291306912899017,0.5467886924743652
1630411877908,0.0640379041433334,0.2073283493518829,-0.1455315500497818,0.5467342734336853
1630411878065,0.0685756057500839,0.2107621878385543,-0.1587274223566055,0.540185809135437
1630411878127,0.0686125010251998,0.2036056965589523,-0.1647726744413375,0.5270740985870361
1630411878236,0.06477090716362,0.1900476366281509,-0.1656026840209961,0.5105994939804077
1630411878346,0.05976078286767,0.1773801743984222,-0.1683787107467651,0.4920192360877991
1630411878458,0.0533834435045719,0.168480783700943,-0.1779116839170456,0.4750702977180481
1630411878536,0.0454391874372959,0.160775825381279,-0.1917705088853836,0.4636439681053161
1630411878661,0.0386682339012622,0.1528930813074112,-0.2028188705444336,0.462347000837326
1630411878802,0.0391829945147037,0.148154005408287,-0.206800490617752,0.4738926589488983
1630411878833,0.0508363544940948,0.1524278968572616,-0.205548956990242,0.4939780831336975
1630411878943,0.0729440599679946,0.1675695776939392,-0.2006677687168121,0.517317533493042
1630411879052,0.0985920950770378,0.1887914091348648,-0.1888854354619979,0.5352916121482849
1630411879159,0.120791420340538,0.207394540309906,-0.1671485602855682,0.5426463484764099
1630411879268,0.1355863362550735,0.2155082374811172,-0.1392221450805664,0.5412023067474365
1630411879378,0.1402568072080612,0.2100336998701095,-0.1134370639920234,0.5337883830070496
1630411879503,0.136305496096611,0.1953152865171432,-0.0960969403386116,0.5250893831253052
1630411879534,0.1313503533601761,0.1804623752832412,-0.0886966213583946,0.521783173084259
1630411879659,0.1275444030761718,0.172799602150917,-0.0887910276651382,0.5198611617088318
1630411879737,0.1276527792215347,0.1725305020809173,-0.0923516154289245,0.5167166590690613
1630411879878,0.1270756721496582,0.1744222491979599,-0.0957530811429023,0.5147412419319153
1630411879987,0.1194639354944229,0.1738267093896865,-0.0981844738125801,0.5151587128639221
1630411880049,0.1056463494896888,0.1701957285404205,-0.1007932871580123,0.5220145583152771
1630411880143,0.0846290215849876,0.1646756678819656,-0.1040855124592781,0.5279058814048767
1630411880253,0.0594617910683155,0.1577697694301605,-0.1085185334086418,0.5267351865768433
1630411880346,0.0350909121334552,0.1473432928323745,-0.1157228127121925,0.5192580819129944
1630411880523,0.0084556322544813,0.1302410066127777,-0.1298401355743408,0.5055217742919922
1630411880554,-0.0185601953417062,0.1057372465729713,-0.1559030413627624,0.491343230009079
1630411880664,-0.0441506803035736,0.0794359371066093,-0.1950507909059524,0.4796749353408813
1630411880757,-0.0609008371829986,0.0629755854606628,-0.2409346401691436,0.4763529002666473
1630411880898,-0.0586360581219196,0.0648051723837852,-0.2799097001552582,0.4831821322441101
1630411880945,-0.0442649498581886,0.079837717115879,-0.3004928529262543,0.4957295656204223
1630411881086,-0.0273970905691385,0.094426617026329,-0.3051294386386871,0.5060619115829468
1630411881195,-0.0134188337251544,0.0998403802514076,-0.3056986033916473,0.5118950605392456
1630411881257,-0.0078096673823893,0.097567617893219,-0.3090202808380127,0.5138109922409058
1630411881414,-0.001974127953872,0.0953209549188613,-0.3131864964962005,0.5112994909286499
1630411881463,0.0089463731274008,0.0983163118362426,-0.3134655356407165,0.5066354870796204
1630411881573,0.0200117547065019,0.1041610166430473,-0.3096708953380584,0.4972725510597229
1630411881729,0.0315550416707992,0.1072383224964141,-0.3055269420146942,0.4857688248157501
1630411881776,0.0370848290622234,0.103167213499546,-0.3009519875049591,0.4745470881462097
1630411881885,0.0360896848142147,0.0918228030204773,-0.2919874191284179,0.4658664464950561
1630411881994,0.0389009043574333,0.0778681114315986,-0.276783674955368,0.4670696556568146
1630411882073,0.042057629674673,0.0676603764295578,-0.2584434151649475,0.4724465012550354
1630411882198,0.049050822854042,0.0648699030280113,-0.2421269863843917,0.4810421764850616
1630411882338,0.0531316623091697,0.0662100091576576,-0.2293031960725784,0.4804924726486206
1630411882432,0.0502800233662128,0.0641974285244941,-0.2173518240451812,0.4813162684440613
1630411882494,0.0416810140013694,0.0550957284867763,-0.2043990939855575,0.4780051112174988
1630411882651,0.0266800206154584,0.0413746088743209,-0.1917986422777176,0.4703674018383026
1630411882697,-0.0028888012748211,0.0272450912743806,-0.1816401034593582,0.4536836445331573
1630411882776,-0.0222773868590593,0.014647482894361,-0.1746181696653366,0.447692722082138
1630411882916,-0.0347373560070991,0.003094247309491,-0.1699423193931579,0.4526292681694031
1630411883010,-0.0399635210633277,-0.0067823831923305,-0.1678602844476699,0.4624468684196472
1630411883104,-0.0399504005908966,-0.0127722350880503,-0.1683186590671539,0.471402496099472
1630411883197,-0.0377859845757484,-0.0137969758361577,-0.1690004169940948,0.4763977229595184
1630411883307,-0.0270615201443433,-0.0094692884013056,-0.1663936525583267,0.477275937795639
1630411883385,-0.0158444624394178,-0.0006676909979432,-0.1600930094718933,0.4728570580482483
1630411883559,-0.0158456470817327,0.0104148350656032,-0.1536048650741577,0.4596596956253052
1630411883653,-0.0236812643706798,0.0217052102088928,-0.1510280966758728,0.4420663714408874
1630411883746,-0.0390511639416217,0.0311387665569782,-0.1532274633646011,0.4251392483711242
1630411883825,-0.0427966155111789,0.0362851470708847,-0.1602013856172561,0.4186874032020569
1630411883903,-0.0457014478743076,0.0357208400964736,-0.1728570461273193,0.4145750105381012
1630411884012,-0.0413803458213806,0.0307851564139127,-0.1891783326864242,0.4191392958164215
1630411884137,-0.0350640229880809,0.0256381053477525,-0.2009231895208358,0.4273940324783325
1630411884215,-0.0162992887198925,0.0252680033445358,-0.1994657963514328,0.4466805160045624
1630411884312,0.0040359562262892,0.0306868162006139,-0.188408151268959,0.4608324468135834
1630411884421,0.0167729891836643,0.0383122414350509,-0.1782983541488647,0.4658061861991882
1630411884515,0.0208992771804332,0.0445298738777637,-0.1746485084295272,0.4626019895076751
1630411884640,0.0193428173661232,0.0485816225409507,-0.1758763194084167,0.4523456990718841
1630411884765,0.0138874109834432,0.0509602054953575,-0.1786746084690094,0.4378932416439056
1630411884827,0.0099616032093763,0.0512262880802154,-0.1820454597473144,0.4248907566070556
1630411884937,0.0092410277575254,0.0480228923261165,-0.183781012892723,0.4168963134288788
1630411885030,0.0171196814626455,0.0414517819881439,-0.1808441281318664,0.4189627766609192
1630411885140,0.0331818982958793,0.0331819728016853,-0.1727868020534515,0.4296919107437134
1630411885218,0.0511181764304637,0.0255017112940549,-0.1630509346723556,0.4422926306724548
1630411885377,0.0646714717149734,0.0241248793900012,-0.1546456962823867,0.4520460665225982
1630411885518,0.0709172934293747,0.0383306704461574,-0.1490005701780319,0.4567813575267792
1630411885549,0.067799411714077,0.0690190345048904,-0.1481799781322479,0.455681562423706
1630411885643,0.0585805587470531,0.1042884662747383,-0.1553864926099777,0.4501934051513672
1630411885783,0.046723622828722,0.1308339983224868,-0.1724818348884582,0.4404169023036957
1630411885830,0.0336065851151943,0.1443995088338852,-0.1939225643873214,0.425205260515213
1630411885971,0.031508345156908,0.1509177535772323,-0.210776001214981,0.4131220877170563
1630411886065,0.0448443628847599,0.1584245562553405,-0.2183103710412979,0.4105365574359894
1630411886221,0.0671074017882347,0.1696553379297256,-0.2200281620025634,0.4192148149013519
1630411886276,0.0931465625762939,0.1829416304826736,-0.2231041640043258,0.4398533403873443
1630411886338,0.1086225286126136,0.1942961364984512,-0.2317898869514465,0.4590452313423157
1630411886479,0.1138088777661323,0.2017084062099456,-0.2471777647733688,0.4700855016708374
1630411886604,0.1111774966120719,0.205244168639183,-0.2677897214889526,0.4701082706451416
1630411886651,0.1026977822184562,0.2056128680706024,-0.2882424890995025,0.4570405185222626
1630411886744,0.0986887067556381,0.203932911157608,-0.3019199967384338,0.4404909312725067
1630411886869,0.0992395654320716,0.1983574628829956,-0.3069756925106048,0.4264412224292755
1630411887010,0.1097017377614975,0.1840627342462539,-0.3092111051082611,0.4179727733135223
1630411887072,0.1312301605939865,0.1593293398618698,-0.3154033124446869,0.4171262979507446
1630411887213,0.1594311743974685,0.1300161927938461,-0.3265632390975952,0.4213464260101318
1630411887307,0.1867463439702987,0.1076340898871421,-0.3373949229717254,0.4300006926059723
1630411887385,0.2049076408147812,0.0999792292714119,-0.343132883310318,0.4337423741817474
1630411887478,0.2122922390699386,0.1022623106837272,-0.341977447271347,0.4396736025810241
1630411887572,0.2088168263435363,0.1029866710305213,-0.3343320786952972,0.4444102942943573
1630411887682,0.2000976353883743,0.0987916886806488,-0.3211599886417389,0.442077100276947
1630411887791,0.1871718019247055,0.0971420258283615,-0.304195761680603,0.4352879226207733
1630411887932,0.1787255257368087,0.1087111309170723,-0.2867718338966369,0.4386487901210785
1630411888041,0.175939455628395,0.1322709172964096,-0.2740063965320587,0.4518905878067016
1630411888103,0.1743904799222946,0.1565287709236145,-0.2680908143520355,0.4658142626285553
1630411888166,0.1717603504657745,0.1731848269701004,-0.2682254314422607,0.4806036353111267
1630411888276,0.1629513055086136,0.181617870926857,-0.2706059217453003,0.4915454387664795
1630411888391,0.155173972249031,0.1850097030401229,-0.2713369131088257,0.5051667094230652
1630411888547,0.1429062932729721,0.1848817467689514,-0.2686573565006256,0.5151358842849731
1630411888625,0.1210101097822189,0.1814638823270797,-0.2629789113998413,0.515580952167511
1630411888703,0.0889875516295433,0.176824152469635,-0.2538580000400543,0.5072567462921143
1630411888797,0.0563325844705104,0.1728603243827819,-0.2399788647890091,0.4919236600399017
1630411888906,0.0353372544050216,0.1680264770984649,-0.220418781042099,0.482796311378479
1630411889015,0.0244353674352169,0.161051943898201,-0.2001019269227981,0.4760513305664062
1630411889124,0.0213567297905683,0.155276671051979,-0.1869398355484008,0.4723385274410248
1630411889223,0.0219294354319572,0.152522400021553,-0.183993399143219,0.4743901491165161
1630411889288,0.0265906862914562,0.1479564011096954,-0.1876365095376968,0.4768641293048858
1630411889413,0.0297638215124607,0.1331236213445663,-0.1920175552368164,0.4717571139335632
1630411889492,0.0292437840253114,0.1071949154138565,-0.1921830177307129,0.4593971371650696
1630411889648,0.0329336784780025,0.0796297416090965,-0.1851373314857483,0.4495931565761566
1630411889726,0.0460009090602397,0.0608253665268421,-0.1699784845113754,0.4478220641613006
1630411889820,0.0665716901421547,0.0526438131928443,-0.1509828865528106,0.4536605775356293
1630411889929,0.0823414102196693,0.0547566674649715,-0.1354675143957138,0.4585714638233185
1630411890007,0.0929084569215774,0.0697809383273124,-0.1278029829263687,0.4626889228820801
1630411890116,0.0992622226476669,0.0968612283468246,-0.1267274916172027,0.468982458114624
1630411890309,0.1052897721529007,0.1270348727703094,-0.1295506358146667,0.4834859371185303
1630411890340,0.1150419563055038,0.1504411697387695,-0.136001318693161,0.4923153221607208
1630411890465,0.119634635746479,0.1653230786323547,-0.1476163566112518,0.5019557476043701
1630411890559,0.1217986047267913,0.1750860512256622,-0.1636216342449188,0.511418879032135
1630411890652,0.1211359202861785,0.1806096285581588,-0.1805206835269928,0.517338752746582
1630411890746,0.1187980324029922,0.1800590604543686,-0.19497050344944,0.5172007083892822
1630411890871,0.1152464523911476,0.1735867708921432,-0.2052206397056579,0.512686014175415
1630411890980,0.1148267239332199,0.1659483164548874,-0.2090709507465362,0.5091560482978821
1630411891074,0.1243074610829353,0.1633334457874298,-0.2063317149877548,0.5166437029838562
1630411891168,0.1324558556079864,0.1689458936452865,-0.2013475149869918,0.5290600657463074
1630411891308,0.1294510662555694,0.1822569519281387,-0.2011001706123352,0.541185200214386
1630411891355,0.1066333130002021,0.1995881199836731,-0.2074228227138519,0.5501704812049866
1630411891480,0.1066333130002021,0.2137748301029205,-0.2145939171314239,0.5501704812049866
1630411891561,0.1066333130002021,0.2186794579029083,-0.2155958712100982,0.5501704812049866
1630411891702,0.1066333130002021,0.2142302989959716,-0.2093258202075958,0.5501704812049866
1630411891749,0.1066333130002021,0.2071097195148468,-0.1999160498380661,0.5501704812049866
1630411891842,0.1066333130002021,0.2058460563421249,-0.1914792358875274,0.5501704812049866
1630411891905,0.1066333130002021,0.2156035602092743,-0.1856677681207656,0.5501704812049866
1630411892030,0.1066333130002021,0.2360614240169525,-0.1815130561590194,0.5501704812049866
1630411892186,0.1066333130002021,0.2631345689296722,-0.1755965650081634,0.5501704812049866
1630411892298,0.1066333130002021,0.2907648086547851,-0.1646656543016433,0.5501704812049866
1630411892330,0.1066333130002021,0.3129380643367767,-0.1493339091539383,0.5501704812049866
1630411892439,0.1066333130002021,0.3266998529434204,-0.1361928433179855,0.5501704812049866
1630411892533,0.0697240829467773,0.3330714106559753,-0.132217064499855,0.5501704812049866
1630411892689,0.0636483877897262,0.3336347043514251,-0.1382934749126434,0.5501704812049866
1630411892814,0.0545359440147876,0.3289015889167785,-0.1480540931224823,0.2519600987434387
1630411892876,0.0461697503924369,0.3192396759986877,-0.1533792167901992,0.2773118019104004
1630411892970,0.0446848347783088,0.307995855808258,-0.1518179476261139,0.3074203431606293
1630411893048,0.0569518208503723,0.3010605573654175,-0.1470278203487396,0.3461391031742096
1630411893126,0.0863564535975456,0.3014349937438965,-0.144312173128128,0.3947908878326416
1630411893314,0.1231819167733192,0.3049620985984802,-0.1466033160686493,0.4472488164901733
1630411893392,0.156536266207695,0.3028843998908996,-0.1534601151943206,0.4884215891361236
1630411893470,0.1789705753326416,0.2880154848098755,-0.162673220038414,0.5079017281532288
1630411893582,0.1777557581663131,0.2588514983654022,-0.173714742064476,0.5105298757553101
1630411893691,0.166786327958107,0.2200065702199936,-0.1878516674041748,0.5056121945381165
1630411893816,0.1518542170524597,0.1811255663633346,-0.2069828063249588,0.4997695684432983
1630411893879,0.1377002447843551,0.1533159911632537,-0.2319142520427703,0.4974190294742584
1630411893988,0.1416591107845306,0.143271803855896,-0.2599701285362243,0.5106242299079895
1630411894098,0.1482120901346206,0.1481752097606659,-0.2843375504016876,0.5277549624443054
1630411894207,0.1562197804450988,0.160110130906105,-0.2980252206325531,0.5448570251464844
1630411894285,0.1676223427057266,0.1706931889057159,-0.299957811832428,0.5607520937919617
1630411894394,0.1818146705627441,0.1749874353408813,-0.2974476516246795,0.5761637687683105
1630411894518,0.1955057680606842,0.1718584597110748,-0.2974735796451568,0.5895180106163025
1630411894601,0.2015009969472885,0.1645590960979461,-0.3004859685897827,0.5968822240829468
1630411894694,0.1876917779445648,0.1575333029031753,-0.3021345138549804,0.5910264253616333
1630411894804,0.1449214816093444,0.1532785147428512,-0.2989874184131622,0.5632404088973999
1630411894866,0.0770636647939682,0.1533552259206771,-0.2915965318679809,0.5148732662200928
1630411894991,-0.0014516648370772,0.1575395762920379,-0.2830098271369934,0.4672144949436188
1630411895147,-0.0014516648370772,0.1633951663970947,-0.2742612659931183,0.4672144949436188
1630411895210,-0.0014516648370772,0.1671450585126876,-0.2656096220016479,0.4672144949436188
1630411895335,-0.0014516648370772,0.1654659509658813,-0.2564535439014435,0.4672144949436188
1630411895413,-0.0014516648370772,0.157305508852005,-0.2457118779420852,0.4672144949436188
1630411895475,-0.0014516648370772,0.1425660252571106,-0.2326916307210922,0.5184647440910339
1630411895600,-0.0640522018074989,0.1214513033628463,-0.2185691148042678,0.519770085811615
1630411895741,-0.1026054471731185,0.0954363793134689,-0.2071087807416916,0.5128455758094788
1630411895803,-0.1356506943702697,0.0692235380411148,-0.2003028392791748,0.505371630191803
1630411896007,-0.1509961038827896,0.0492248237133026,-0.1973325312137603,0.5064042806625366
1630411896100,-0.1645457148551941,0.0383479818701744,-0.1950010806322097,0.513054609298706
1630411896132,-0.1634158194065094,0.033656895160675,-0.1910691559314727,0.5249692797660828
1630411896194,-0.1536847203969955,0.0301798544824123,-0.1854847818613052,0.5396409630775452
1630411896319,-0.14152492582798,0.0249846577644348,-0.1785162389278412,0.5507609248161316
1630411896428,-0.1282169073820114,0.017036372795701,-0.1707177311182022,0.5581844449043274
1630411896553,-0.1260005384683609,0.0073291724547743,-0.1622992306947708,0.5565005540847778
1630411896725,-0.1280634850263595,-0.0004515680484473,-0.1520161628723144,0.5489704608917236
1630411896756,-0.1285767257213592,-0.0004578305233735,-0.1360913813114166,0.5400369763374329
1630411896819,-0.1373472809791565,0.0102063259109854,-0.1135465055704116,0.5332441329956055
1630411896991,-0.1338640302419662,0.0291217286139726,-0.0890987589955329,0.5300276875495911
1630411897069,-0.12211374938488,0.0494713447988033,-0.0717415735125541,0.5269172787666321
1630411897147,-0.1072112321853637,0.0649739727377891,-0.0667936354875564,0.5270572900772095
1630411897225,-0.0909395664930343,0.0741515830159187,-0.0738864839076995,0.5307155251502991
1630411897319,-0.078438714146614,0.0805015414953231,-0.0895872414112091,0.5362868309020996
1630411897397,-0.075318768620491,0.0879183337092399,-0.1086499765515327,0.5308516025543213
1630411897557,-0.0731428489089012,0.0962106585502624,-0.1238858476281166,0.5199221968650818
1630411897667,-0.0785477310419082,0.1001845002174377,-0.1282402426004409,0.5018209218978882
1630411897745,-0.0894231647253036,0.096929170191288,-0.1199258416891098,0.4763258099555969
1630411897870,-0.0964248478412628,0.0914934203028678,-0.1056147366762161,0.455699622631073
1630411897948,-0.1022124961018562,0.0935970917344093,-0.0933496505022049,0.4435721337795257
1630411898026,-0.0942462459206581,0.1087639182806015,-0.0865766853094101,0.4530326426029205
1630411898167,-0.0802712514996528,0.131757766008377,-0.0862241387367248,0.4791260659694671
1630411898260,-0.0726040303707122,0.1505822986364364,-0.0952248871326446,0.5084728002548218
1630411898341,-0.0730626061558723,0.1579302251338958,-0.1157384365797042,0.5336829423904419
1630411898466,-0.0785924717783927,0.1548146307468414,-0.1437405198812484,0.5482780933380127
1630411898607,-0.0818362981081008,0.1479542255401611,-0.1670207381248474,0.5557920336723328
1630411898638,-0.0782191529870033,0.1428084373474121,-0.1751474738121032,0.5615546703338623
1630411898810,-0.0728128179907798,0.1388849169015884,-0.1668740361928939,0.5676877498626709
1630411898872,-0.0697495117783546,0.1331419497728347,-0.1477019339799881,0.5726707577705383
1630411898966,-0.0657019615173339,0.1269722282886505,-0.1241014748811721,0.5829703211784363
1630411899116,-0.06398756057024,0.1264058053493499,-0.1047593802213668,0.5884063839912415
1630411899169,-0.059727806597948,0.1350080072879791,-0.0972078964114189,0.5919880867004395
1630411899237,-0.0567178539931774,0.147868737578392,-0.1035059839487075,0.5931435227394104
1630411899365,-0.0586470924317836,0.1556422412395477,-0.117531806230545,0.5922374725341797
1630411899475,-0.0621176995337009,0.1517202258110046,-0.1311340183019638,0.5910090208053589
1630411899599,-0.0710734203457832,0.1349287033081054,-0.1416134536266327,0.5841567516326904
1630411899662,-0.0805328339338302,0.1095128431916236,-0.1507840901613235,0.5704655051231384
1630411899771,-0.0833207219839096,0.0833345130085945,-0.1579430103302002,0.5521284937858582
1630411899849,-0.0778872817754745,0.0630264803767204,-0.1601753383874893,0.5327425599098206
1630411900038,-0.0768377110362052,0.0491565987467765,-0.1582703292369842,0.5142595767974854
1630411900120,-0.0821120887994766,0.0389946885406971,-0.1574629098176956,0.4993321597576141
1630411900199,-0.1017088219523429,0.0323535986244678,-0.160754844546318,0.4798495471477508
1630411900282,-0.1269113570451736,0.0327104739844799,-0.1658354550600052,0.4574340581893921
1630411900338,-0.1434152424335479,0.0416889823973178,-0.1704134941101074,0.4345242977142334
1630411900463,-0.1553476750850677,0.0551022887229919,-0.1777392923831939,0.4121109247207641
1630411900590,-0.155125007033348,0.0670307874679565,-0.1926121711730957,0.3990405797958374
1630411900715,-0.1567002087831497,0.0728767812252044,-0.2156304717063903,0.3889738321304321
1630411900827,-0.1561427861452102,0.0709114968776702,-0.2424091249704361,0.3819037675857544
1630411900858,-0.1597232520580291,0.06253083050251,-0.2691770195960998,0.3708458542823791
1630411900967,-0.1680431365966797,0.0515362210571765,-0.2943078279495239,0.3494028449058532
1630411901061,-0.1746567189693451,0.0416772477328777,-0.3148767054080963,0.3243402540683746
1630411901201,-0.1839724779129028,0.0344421751797199,-0.3256174921989441,0.3014490306377411
1630411901341,-0.1894333213567733,0.0311671998351812,-0.3255427777767181,0.2917160987854004
1630411901389,-0.1920830160379409,0.0345412641763687,-0.3224323391914367,0.2992747724056244
1630411901483,-0.1722937077283859,0.0462843477725982,-0.3252140283584595,0.331073135137558
1630411901628,-0.1405199915170669,0.063927374780178,-0.3357830941677093,0.3693599104881286
1630411901703,-0.1063070744276046,0.0814472734928131,-0.3507885038852691,0.4011763632297516
1630411901835,-0.0752574205398559,0.0924934297800064,-0.3682456016540527,0.424748420715332
1630411901928,-0.0624794065952301,0.0939815565943718,-0.3886928558349609,0.4347433447837829
1630411902004,-0.0560863018035888,0.0865817740559578,-0.4070122241973877,0.4411664605140686
1630411902098,-0.0569984652101993,0.07181067019701,-0.4140025973320007,0.4475594460964203
1630411902178,-0.0590446405112743,0.0519383288919925,-0.4070956408977508,0.451654314994812
1630411902306,-0.0572153963148593,0.0317973457276821,-0.3928136825561523,0.4609304666519165
1630411902461,-0.0534701235592365,0.0177108366042375,-0.3761182129383087,0.4766177535057068
1630411902538,-0.0455049239099025,0.0137660233303904,-0.3557077050209045,0.4976084232330322
1630411902634,-0.0310558900237083,0.019933097064495,-0.3313183486461639,0.5244550108909607
1630411902748,-0.0073362928815186,0.0335665419697761,-0.3086611032485962,0.5492947697639465
1630411902790,0.0232932139188051,0.0502842292189598,-0.2939922213554382,0.5681027770042419
1630411902886,0.0552784316241741,0.0635551437735557,-0.286497563123703,0.5777903199195862
1630411903130,0.0756963044404983,0.0689830482006073,-0.2790026068687439,0.5717167258262634
1630411903147,0.0872736871242523,0.066407024860382,-0.2648151516914367,0.5602821707725525
1630411903265,0.0964511260390281,0.0601109825074672,-0.2415618598461151,0.554242730140686
1630411903331,0.1032649874687194,0.0563404411077499,-0.2106748074293136,0.5530213117599487
1630411903490,0.1154014244675636,0.0590169765055179,-0.1764764189720153,0.5589445233345032
1630411903538,0.1272215843200683,0.0670850276947021,-0.1459561586380005,0.5633653998374939
1630411903672,0.1359133869409561,0.0767594054341316,-0.1242043226957321,0.5634232759475708
1630411903732,0.1430007517337799,0.085184134542942,-0.1106235608458519,0.5634093284606934
1630411903842,0.1450461447238922,0.0913177207112312,-0.101187527179718,0.5599092245101929
1630411903950,0.1469775140285492,0.0951965227723121,-0.0947315245866775,0.5538221001625061
1630411903999,0.1454180032014846,0.0973274186253547,-0.0948671028017997,0.5433894395828247
1630411904110,0.1368097066879272,0.0975458920001983,-0.1040452495217323,0.527334451675415
1630411904258,0.1194759234786033,0.0940838679671287,-0.1192366406321525,0.5076798796653748
1630411904377,0.0899219289422035,0.0848584696650505,-0.1333017200231552,0.4853629171848297
1630411904441,0.0506306551396846,0.071732684969902,-0.140552744269371,0.4619380235671997
1630411904565,0.0098112681880593,0.0588138550519943,-0.1417211592197418,0.4413899481296539
1630411904596,-0.0307717993855476,0.0490390807390213,-0.1424655467271804,0.4232103228569031
1630411904724,-0.0688235312700271,0.0415473766624927,-0.1494608670473098,0.405586302280426
1630411904884,-0.1014598906040191,0.0329611338675022,-0.167015329003334,0.3898804485797882
1630411904994,-0.1336000710725784,0.0202187448740005,-0.1945786774158477,0.3770182132720947
1630411905023,-0.1638436317443847,0.0029466454870998,-0.2259769737720489,0.3689333498477936
1630411905150,-0.1896421164274215,-0.0165869202464818,-0.2525031864643097,0.3651700615882873
1630411905229,-0.2142896503210067,-0.0344855859875679,-0.2689137756824493,0.3653649389743805
1630411905324,-0.2336410880088806,-0.0480815917253494,-0.2763760089874267,0.3691722750663757
1630411905498,-0.2495498359203338,-0.058238185942173,-0.2774736285209656,0.3725700080394745
1630411905594,-0.2598082423210144,-0.0666032209992408,-0.2709137499332428,0.375894695520401
1630411905657,-0.2616552114486694,-0.0712935253977775,-0.2557244002819061,0.3763786256313324
1630411905750,-0.2552785575389862,-0.0679184943437576,-0.2351537942886352,0.3780146837234497
1630411905844,-0.2386426627635955,-0.0551880598068237,-0.2158586233854293,0.3836376667022705
1630411905922,-0.2215819805860519,-0.0381872691214084,-0.2030149400234222,0.3919665813446045
1630411906064,-0.2081645876169204,-0.0221649948507547,-0.1972460746765136,0.4008016586303711
1630411906159,-0.1975961029529571,-0.0071739517152309,-0.1942395120859146,0.4076281189918518
1630411906268,-0.1824315190315246,0.0096429288387298,-0.1874969750642776,0.4157312512397766
1630411906379,-0.1634123474359512,0.0282376464456319,-0.1737306863069534,0.4264030456542969
1630411906457,-0.1384555548429489,0.0479442700743675,-0.155913308262825,0.4387373030185699
1630411906569,-0.1081488877534866,0.0698074921965599,-0.141366496682167,0.4518399238586426
1630411906711,-0.0753332674503326,0.0936951786279678,-0.1363020092248916,0.4653261303901672
1630411906774,-0.0389632731676101,0.1158856675028801,-0.1425651460886001,0.4790754616260528
1630411906854,-0.0096529591828584,0.1327569484710693,-0.157363086938858,0.4888008534908294
1630411907031,0.009046921506524,0.1445492804050445,-0.1763222068548202,0.492535650730133
1630411907087,0.0172503776848316,0.1527567207813263,-0.1967556923627853,0.4912956953048706
1630411907164,0.0188840106129646,0.1558388024568557,-0.2180259227752685,0.4888608753681183
1630411907277,0.0177592784166336,0.1499068439006805,-0.2401247769594192,0.4868910610675812
1630411907432,0.0153146442025899,0.1347193717956543,-0.2624706923961639,0.4851608872413635
1630411907494,0.0169077832251787,0.1149498000741005,-0.2831431329250335,0.4855397939682007
1630411907619,0.0187134947627782,0.0950875580310821,-0.2991910576820373,0.4860778152942657
1630411907683,0.0227378103882074,0.0757733955979347,-0.3076472580432892,0.4855136275291443
1630411907792,0.0231002904474735,0.0567209459841251,-0.3097130954265594,0.4820084273815155
1630411907887,0.0253597442060709,0.04226665943861,-0.3113681375980377,0.4782634973526001
1630411907981,0.0303101763129234,0.0363585464656353,-0.3192228674888611,0.4756557643413543
1630411908094,0.0342991612851619,0.0351644158363342,-0.3328220844268799,0.4745374023914337
1630411908169,0.0385905690491199,0.0313555300235748,-0.3438687920570373,0.4740148186683655
1630411908276,0.0363121815025806,0.0233148783445358,-0.3422108590602875,0.4743589162826538
1630411908385,0.0326302088797092,0.0157474353909492,-0.3262100517749786,0.4781400561332702
1630411908513,0.0335115082561969,0.0124923009425401,-0.3021680116653442,0.4857629239559173
1630411908609,0.039404172450304,0.0119429798796772,-0.2785913348197937,0.4934103786945343
1630411908733,0.0469329580664634,0.011237951926887,-0.2605721056461334,0.4954986572265625
1630411908828,0.0559614673256874,0.0108264377340674,-0.2486266940832138,0.4921029210090637
1630411908892,0.0608665682375431,0.0115459943190217,-0.2402067631483078,0.4842183291912079
1630411908970,0.0633468702435493,0.0135864336043596,-0.2334960848093032,0.4744726419448852
1630411909113,0.0670008361339569,0.0178216788917779,-0.2288199514150619,0.4690423607826233
1630411909208,0.0690656304359436,0.0240658521652221,-0.2275819182395935,0.4683116674423218
1630411909318,0.0712837576866149,0.0288039222359657,-0.2276497483253479,0.4685983955860138
1630411909429,0.066191129386425,0.0268487595021724,-0.2235953509807586,0.4606641829013824
1630411909525,0.0534894838929176,0.0156808160245418,-0.2112294286489486,0.4446961283683777
1630411909636,0.0376157537102699,-0.0017345023807138,-0.1927327066659927,0.4268139600753784
1630411909714,0.0179383549839258,-0.0184102952480316,-0.1740789264440536,0.4114143550395965
1630411909809,0.001905542332679,-0.0293730422854423,-0.1599689722061157,0.3992160558700561
1630411909920,-0.0098515339195728,-0.0354357697069644,-0.1518694460391998,0.3878633975982666
1630411910019,-0.0224275887012481,-0.0402397625148296,-0.1497089564800262,0.3725928366184234
1630411910113,-0.0318549796938896,-0.0432230494916439,-0.151310846209526,0.3606028258800506
1630411910189,-0.0410662926733493,-0.0392363481223583,-0.153420940041542,0.3584442734718323
1630411910345,-0.0487315170466899,-0.0252463221549987,-0.1550956666469574,0.3709116578102112
1630411910487,-0.0491807721555233,-0.0062748519703745,-0.1585638672113418,0.3930767178535461
1630411910518,-0.0485767535865306,0.0080810412764549,-0.1653794348239898,0.4148513674736023
1630411910627,-0.0532424822449684,0.0106355538591742,-0.1731593906879425,0.4240740835666656
1630411910738,-0.0616983585059642,0.0017481943359598,-0.1792797744274139,0.4205121994018554
1630411910833,-0.0720235481858253,-0.0125382123515009,-0.1874320954084396,0.4102974236011505
1630411910945,-0.0739848166704177,-0.0244702249765396,-0.2040740996599197,0.4052459895610809
1630411911053,-0.0659438297152519,-0.029204910621047,-0.2306334823369979,0.4091770350933075
1630411911182,-0.0556871592998504,-0.0260379966348409,-0.2612303495407104,0.4154297411441803
1630411911228,-0.0464264415204525,-0.0175996255129575,-0.2881012856960296,0.4202281236648559
1630411911323,-0.0372297242283821,-0.0065043661743402,-0.3084689378738403,0.4255788922309875
1630411911434,-0.0243905130773782,0.0062026237137615,-0.3221558630466461,0.4358054995536804
1630411911607,-0.0060826973058283,0.0190961509943008,-0.3277372121810913,0.4529522657394409
1630411911678,0.0099243139848113,0.0285966228693723,-0.3219314813613891,0.4692085981369018
1630411911749,0.0184541009366512,0.0292394813150167,-0.3033080995082855,0.4773377776145935
1630411911829,0.0197144821286201,0.0188310630619525,-0.2737286388874054,0.4775076508522033
1630411911953,0.013248911127448,0.0024659656919538,-0.2384022176265716,0.4718607068061828
1630411912079,0.0037935879081487,-0.0107317678630352,-0.2027278840541839,0.4643920361995697
1630411912173,-0.0014950837939977,-0.012054793536663,-0.1714484542608261,0.4626331925392151
1630411912285,-0.0041186888702213,-0.0004897419130429,-0.1478145271539688,0.4651651382446289
1630411912379,-0.0033866378944367,0.0181446895003318,-0.1318765878677368,0.4707755148410797
1630411912411,-0.0072136465460062,0.0347876623272895,-0.122345246374607,0.4745156764984131
1630411912550,-0.0182741302996873,0.0430151633918285,-0.1162613630294799,0.4736316204071045
1630411912628,-0.0295068845152854,0.0412973389029502,-0.111291728913784,0.4731033146381378
1630411912787,-0.0380875058472156,0.0319876335561275,-0.1068643480539321,0.4716151058673858
1630411912851,-0.044076107442379,0.0179461240768432,-0.1039255186915397,0.4671141505241394
1630411912990,-0.0544009879231452,0.0013832871336489,-0.1041705757379531,0.453663170337677
1630411913085,-0.0715063512325286,-0.0150291416794061,-0.109025552868843,0.4320622980594635
1630411913163,-0.0859802514314651,-0.0273886919021606,-0.1189435869455337,0.4141972959041595
1630411913275,-0.0920838788151741,-0.0326603688299655,-0.1337950676679611,0.4050551950931549
1630411913384,-0.0906877368688583,-0.0303116291761398,-0.1525814980268478,0.4032636880874634
1630411913478,-0.0812191739678382,-0.0214760247617959,-0.1732629239559173,0.4036915898323059
1630411913591,-0.0702953413128852,-0.0079473722726106,-0.1950857788324356,0.4023189544677734
1630411913668,-0.0585743635892868,0.0059314724057912,-0.2186041325330734,0.4012089073657989
1630411913764,-0.0462774746119976,0.0161618310958147,-0.2417209893465042,0.400213748216629
1630411913863,-0.0412133149802684,0.0211568772792816,-0.2571122646331787,0.3988966643810272
1630411914030,-0.0382293239235878,0.023494966328144,-0.2565288245677948,0.4005881547927856
1630411914097,-0.0394598357379436,0.0264547932893037,-0.2427617013454437,0.4051966667175293
1630411914187,-0.0429393574595451,0.0299547631293535,-0.2267802208662033,0.4109593629837036
1630411914265,-0.0462433658540248,0.0316240452229976,-0.2175475805997848,0.4137813746929168
1630411914359,-0.0506944097578525,0.0290540196001529,-0.216603934764862,0.4095615744590759
1630411914487,-0.0512339361011981,0.0222014393657445,-0.2206909954547882,0.4027645289897918
1630411914646,-0.0548431389033794,0.0136978533118963,-0.2262675762176513,0.3949471116065979
1630411914755,-0.0583359524607658,0.006653094664216,-0.2339435070753097,0.3868720829486847
1630411914802,-0.0610129460692405,0.0032613312359899,-0.2472747266292572,0.3812378048896789
1630411914913,-0.0661873891949653,0.0030134867411106,-0.2687390446662903,0.3763126730918884
1630411914991,-0.071628600358963,0.0025343720335513,-0.2962090075016022,0.377350389957428
1630411915086,-0.0821029990911483,-0.0020771652925759,-0.3230827450752258,0.3823031187057495
1630411915275,-0.1001860797405242,-0.0121272765100002,-0.3429544866085052,0.3840459287166595
1630411915322,-0.1247088015079498,-0.0260123126208782,-0.3536718785762787,0.3806213438510895
1630411915431,-0.1447222083806991,-0.0402332246303558,-0.3571787774562835,0.3731045126914978
1630411915510,-0.1536602228879928,-0.051960963755846,-0.3558333218097687,0.3673465847969055
1630411915639,-0.1438906043767929,-0.0603881850838661,-0.3499979972839355,0.3672540783882141
1630411915732,-0.1288107186555862,-0.0645409524440765,-0.3397173881530761,0.3677960634231567
1630411915857,-0.1206037104129791,-0.0614725425839424,-0.3266353011131286,0.3692970275878906
1630411915953,-0.1187447756528854,-0.0482378751039505,-0.3144697248935699,0.3703621029853821
1630411916062,-0.1240412443876266,-0.0285330843180418,-0.3061532378196716,0.3693397343158722
1630411916106,-0.1231684759259224,-0.0110111469402909,-0.3019372224807739,0.3710320293903351
1630411916217,-0.1232037097215652,-0.0017546085873618,-0.2991609275341034,0.3784336149692535
1630411916342,-0.1227738335728645,0.0001772312098182,-0.2940614819526672,0.3930630385875702
1630411916436,-0.1233751624822616,-0.0013388253282755,-0.2859715819358825,0.4095483124256134
1630411916514,-0.1273332983255386,-0.0043297708034515,-0.2784219086170196,0.4200428128242492
1630411916621,-0.128915250301361,-0.0077632190659642,-0.2761901319026947,0.4219902455806732
1630411916716,-0.1287480145692825,-0.0090991100296378,-0.280366450548172,0.4204722642898559
1630411916873,-0.1248281151056289,-0.0059077586047351,-0.2869862914085388,0.4210419952869415
1630411916918,-0.121109053492546,0.0006822262075729,-0.2924667596817016,0.4255383312702179
1630411917045,-0.1204645931720733,0.0064651076681911,-0.2996778786182403,0.4295636415481567
1630411917138,-0.1287254393100738,0.0083982879295945,-0.3150961399078369,0.4302494823932647
1630411917249,-0.1415727585554123,0.0048523764126002,-0.3413846492767334,0.4277895390987396
1630411917340,-0.1572054326534271,-0.006004128139466,-0.3732801377773285,0.4219594001770019
1630411917467,-0.1748013943433761,-0.0245464071631431,-0.3992963433265686,0.416923314332962
1630411917531,-0.1865401715040207,-0.0461878553032875,-0.4093644917011261,0.4166001081466675
1630411917671,-0.1938105225563049,-0.0627947971224784,-0.3982689678668976,0.4215164184570312
1630411917750,-0.1875227391719818,-0.0690884813666343,-0.3676579594612121,0.4305676519870758
1630411917829,-0.1666398048400879,-0.0676598474383354,-0.3281150460243225,0.4437701404094696
1630411917956,-0.1419924348592758,-0.0650072023272514,-0.2913982570171356,0.4545623362064361
1630411918002,-0.1217366755008697,-0.0647706761956214,-0.262602686882019,0.4609644711017608
1630411918111,-0.1048750653862953,-0.0679741501808166,-0.2394610345363617,0.4640040397644043
1630411918269,-0.0907770991325378,-0.0764459893107414,-0.2191885858774185,0.4663402736186981
1630411918365,-0.0796788558363914,-0.0907758325338363,-0.2042503654956817,0.4742744266986847
1630411918524,-0.0707131773233413,-0.1063776165246963,-0.1993462741374969,0.4865375161170959
1630411918569,-0.0659978538751602,-0.1158314272761344,-0.2032194137573242,0.500170111656189
1630411918648,-0.0591607354581356,-0.1166162639856338,-0.2079902738332748,0.5100677609443665
1630411918761,-0.0493831448256969,-0.1120933070778846,-0.2054834812879562,0.5149074792861938
1630411918885,-0.0340035110712051,-0.1053099408745765,-0.1948553174734115,0.5191299915313721
1630411918994,-0.0182988625019788,-0.096888281404972,-0.1825940459966659,0.523576557636261
1630411919106,-0.0082817785441875,-0.0877606198191642,-0.176002562046051,0.5282697081565857
1630411919152,-0.0048182178288698,-0.0807947367429733,-0.1799237877130508,0.5280165076255798
1630411919263,-0.0101011265069246,-0.07700065523386,-0.1961064636707306,0.5183767676353455
1630411919358,-0.0221629459410905,-0.075036808848381,-0.2208427339792251,0.4977159202098846
1630411919468,-0.0295947808772325,-0.0723534524440765,-0.2437619417905807,0.4751580059528351
1630411919611,-0.0279926657676696,-0.0677803233265876,-0.2544595897197723,0.4615179598331451
1630411919676,-0.0196774490177631,-0.060706790536642,-0.2513687014579773,0.4580401182174682
1630411919767,-0.0125143090263009,-0.0504326932132244,-0.241397425532341,0.4606456756591797
1630411919864,-0.006495926529169,-0.0382942855358123,-0.2315521538257599,0.4625967144966125
1630411919986,-0.0022927559912204,-0.0289231147617101,-0.2233935594558715,0.4612113237380981
1630411920129,0.0005964075680822,-0.0257506892085075,-0.21644888818264,0.4568801522254944
1630411920192,0.002201700117439,-0.0252592973411083,-0.2119095474481582,0.4517073929309845
1630411920304,0.0010374649427831,-0.0202567297965288,-0.2113607972860336,0.447856456041336
1630411920400,5.3607225709129125e-05,-0.0083093931898474,-0.2143547981977462,0.4454882740974426
1630411920542,-0.0008179867290891,0.0056175715290009,-0.2180051654577255,0.4449125230312347
1630411920606,0.0002139723947038,0.0159618537873029,-0.2199055850505828,0.4468342363834381
1630411920732,0.0005825293483212,0.0228004399687051,-0.219710424542427,0.4540141820907593
1630411920780,-0.0016166510758921,0.0282804127782583,-0.2180371880531311,0.4632102847099304
1630411920889,-0.0066067506559193,0.0335479862987995,-0.2147996574640274,0.471820592880249
1630411921032,-0.0224995631724596,0.0370146185159683,-0.2107409387826919,0.4739247560501098
1630411921094,-0.0471830070018768,0.0361680686473846,-0.208145722746849,0.4665558040142059
1630411921188,-0.0798737034201622,0.0290870182216167,-0.2103358954191208,0.4563862681388855
1630411921282,-0.1120488047599792,0.0158029831945896,-0.2191373705863952,0.4455960690975189
1630411921455,-0.1416972279548645,-0.0001478729100199,-0.2331035882234573,0.4326788485050201
1630411921517,-0.1653861850500106,-0.0126874726265668,-0.2493956983089447,0.419772207736969
1630411921597,-0.1808041632175445,-0.0173997860401868,-0.2656008303165436,0.4083692133426666
1630411921724,-0.1915964931249618,-0.0160804595798254,-0.279983788728714,0.4010858833789825
1630411921799,-0.1932072788476944,-0.0126672917976975,-0.2912206053733825,0.4023275375366211
1630411921924,-0.192517802119255,-0.0072545716539025,-0.2986732125282287,0.4093330502510071
1630411922033,-0.1877047717571258,0.0049509527161717,-0.3029786646366119,0.420074462890625
1630411922112,-0.1821102499961853,0.0269295535981655,-0.3039315342903137,0.4318060278892517
1630411922198,-0.1771177500486374,0.0535755194723606,-0.3010450303554535,0.4390495419502258
1630411922285,-0.1710312962532043,0.0757334008812904,-0.2968298196792602,0.4439502656459808
1630411922378,-0.1689958423376083,0.088534265756607,-0.297729879617691,0.4473101496696472
1630411922516,-0.1625687927007675,0.0944504663348198,-0.3100831806659698,0.4542595744132995
1630411922610,-0.1539904177188873,0.1006158217787742,-0.3346328139305115,0.4644681215286255
1630411922720,-0.1353625953197479,0.1127388253808021,-0.363964170217514,0.4754976630210876
1630411922857,-0.109684482216835,0.1302024275064468,-0.3867537081241607,0.4850868582725525
1630411922950,-0.0814062431454658,0.1483672559261322,-0.396137923002243,0.4941957294940948
1630411923013,-0.0531813465058803,0.1640164256095886,-0.3949223160743713,0.5040643215179443
1630411923139,-0.033943548798561,0.1760032922029495,-0.3899249732494354,0.5132777690887451
1630411923216,-0.025301706045866,0.1830621510744094,-0.3853312134742737,0.5190024971961975
1630411923341,-0.0296790227293968,0.1831478774547577,-0.3828680217266083,0.5180330872535706
1630411923449,-0.0443274118006229,0.1740440428256988,-0.3837195038795471,0.5088741183280945
1630411923560,-0.0604027472436428,0.1556547582149505,-0.3885806798934936,0.4939129650592804
1630411923606,-0.0725033432245254,0.1305857300758361,-0.3974736928939819,0.4754509627819061
1630411923777,-0.0751834362745285,0.1038339883089065,-0.4113253355026245,0.4572290480136871
1630411923840,-0.0671347379684448,0.0829183235764503,-0.4287502765655517,0.443649023771286
1630411923933,-0.0538135394454002,0.0713651776313781,-0.442219465970993,0.4363213181495666
1630411924011,-0.0406583584845066,0.0662432163953781,-0.4417942464351654,0.4327390789985657
1630411924123,-0.0346970222890377,0.0614678375422954,-0.4236601591110229,0.4303104877471924
1630411924234,-0.0395386442542076,0.0531655959784984,-0.3963081538677215,0.429039865732193
1630411924360,-0.0524586401879787,0.0428951121866703,-0.3722316920757293,0.430242657661438
1630411924517,-0.0729266628623008,0.0333423279225826,-0.3587204813957214,0.4302988350391388
1630411924578,-0.0979941189289093,0.0235942248255014,-0.354590505361557,0.4254836142063141
1630411924656,-0.1246410459280014,0.0114796608686447,-0.3550865650177002,0.411131739616394
1630411924720,-0.1451236009597778,-0.000640193815343,-0.356678307056427,0.3928727805614471
1630411924927,-0.1559145748615265,-0.0054789646528661,-0.3577298521995544,0.3751335442066192
1630411924977,-0.1554881781339645,0.0033435318619012,-0.3560132980346679,0.3664834201335907
1630411925086,-0.1480513364076614,0.0226110499352216,-0.3488495647907257,0.3695411086082458
1630411925149,-0.1444168984889984,0.0428156480193138,-0.3357288241386413,0.3814297616481781
1630411925255,-0.1448694467544555,0.0571850351989269,-0.3165264129638672,0.4018080830574035
1630411925414,-0.1578137129545211,0.0626643747091293,-0.292574942111969,0.4214266240596771
1630411925446,-0.1793510019779205,0.060650810599327,-0.2686091661453247,0.4329753816127777
1630411925555,-0.2048022747039795,0.0546300671994686,-0.2516596913337707,0.4363647997379303
1630411925701,-0.2217698246240615,0.0492342822253704,-0.2453103810548782,0.4363342225551605
1630411925772,-0.2253316789865493,0.04936995357275,-0.2469781935214996,0.4336990714073181
1630411925849,-0.2093956172466278,0.056757740676403,-0.2500160932540893,0.4346690773963928
1630411925942,-0.1829418987035751,0.0682564824819564,-0.2497214078903198,0.4378098845481872
1630411926098,-0.1552793383598327,0.0798407867550849,-0.246566966176033,0.4424417912960052
1630411926206,-0.1267201155424118,0.0885179564356803,-0.242390438914299,0.4512066543102264
1630411926251,-0.1003244444727897,0.0922613963484764,-0.2372849583625793,0.467730700969696
1630411926349,-0.0796909257769584,0.0882764011621475,-0.2314034849405288,0.4946830570697784
1630411926456,-0.0665558129549026,0.0745292752981185,-0.2277947217226028,0.5220546722412109
1630411926565,-0.0594685822725296,0.0541864112019538,-0.229142889380455,0.544118344783783
1630411926644,-0.0564512461423873,0.0355119034647941,-0.2340383827686309,0.5516665577888489
1630411926863,-0.0530476681888103,0.0259191859513521,-0.2376246452331543,0.5461268424987793
1630411926944,-0.0506354048848152,0.0272492468357086,-0.2352116852998733,0.5335085391998291
1630411927005,-0.0496409572660923,0.0362302176654338,-0.2260745614767074,0.5184486508369446
1630411927120,-0.0441543459892272,0.0487221218645572,-0.2116498351097107,0.5080177187919617
1630411927226,-0.037485022097826,0.0608753636479377,-0.1968843042850494,0.5038899779319763
1630411927276,-0.0316497236490249,0.0686153322458267,-0.1867968738079071,0.5075061917304993
1630411927399,-0.0293372720479965,0.0709658488631248,-0.1833343803882599,0.51653653383255
1630411927507,-0.0313725695013999,0.0710320249199867,-0.1838448047637939,0.5276924967765808
1630411927617,-0.0370081663131713,0.0723965764045715,-0.1853114366531372,0.5357728600502014
1630411927678,-0.0451484583318233,0.0778975784778595,-0.1873016357421875,0.5395962595939636
1630411927848,-0.0539937540888786,0.0905052423477172,-0.1907232105731964,0.5384530425071716
1630411927902,-0.0544926971197128,0.1132740303874015,-0.1943963021039962,0.5326007008552551
1630411928116,-0.0470868200063705,0.1447189897298813,-0.1960369497537613,0.5242258310317993
1630411928161,-0.0381838083267211,0.1755566596984863,-0.1955787241458892,0.5120407938957214
1630411928209,-0.0321867689490318,0.1956075131893158,-0.1947623342275619,0.5003026127815247
1630411928301,-0.0324292555451393,0.2008993923664093,-0.1959359347820282,0.4952900409698486
1630411928379,-0.0349139720201492,0.1941397339105606,-0.2015046775341034,0.4958057403564453
1630411928501,-0.0372276902198791,0.1804576218128204,-0.2124003618955612,0.5006819367408752
1630411928657,-0.0421158000826835,0.1645908057689666,-0.2270019203424453,0.5060352683067322
1630411928752,-0.0479590333998203,0.1500005275011062,-0.2407571971416473,0.5058167576789856
1630411928862,-0.0526715815067291,0.1390265822410583,-0.2491828352212906,0.501785397529602
1630411928938,-0.0624975077807903,0.1309202760457992,-0.2525525987148285,0.4906335771083832
1630411929016,-0.0722473114728927,0.1225110664963722,-0.2551004886627197,0.4770488739013672
1630411929079,-0.0806793048977851,0.1113054677844047,-0.2599276900291443,0.4676454663276672
1630411929261,-0.0892788916826248,0.0966575667262077,-0.269010990858078,0.4608144760131836
1630411929340,-0.0979617312550544,0.0772984474897384,-0.2823023796081543,0.4536493420600891
1630411929404,-0.1163118705153465,0.0504088103771209,-0.2996983826160431,0.43990159034729
1630411929545,-0.1353301852941513,0.0155114894732832,-0.317373663187027,0.4255967438220978
1630411929607,-0.149053156375885,-0.020120283588767,-0.3291041851043701,0.4174573421478271
1630411929686,-0.1502612680196762,-0.045470118522644,-0.3325746655464172,0.4207831025123596
1630411929857,-0.1395670473575592,-0.0548817589879035,-0.3327881395816803,0.4289323687553406
1630411929951,-0.1262359172105789,-0.0512425489723682,-0.3373373746871948,0.434904396533966
1630411930029,-0.1100909784436225,-0.0398929193615913,-0.348554790019989,0.4420560896396637
1630411930201,-0.0972952544689178,-0.0269601456820964,-0.3637094497680664,0.4489777982234955
1630411930248,-0.0884986072778701,-0.0184938348829746,-0.3758384585380554,0.4580509960651397
1630411930324,-0.0824287012219429,-0.0170077811926603,-0.3758883774280548,0.4674333333969116
1630411930466,-0.0783015862107276,-0.0198573675006628,-0.3575966358184814,0.471404105424881
1630411930560,-0.0755757093429565,-0.0214837808161973,-0.3234283626079559,0.4706611931324005
1630411930716,-0.0762193128466606,-0.0189061779528856,-0.2809771597385406,0.464796781539917
1630411930779,-0.075912520289421,-0.0140855722129344,-0.2365123629570007,0.4603381156921386
1630411930841,-0.0734213963150978,-0.0097803156822919,-0.1959625482559204,0.4595945477485657
1630411930919,-0.0630910322070121,-0.0061816326342523,-0.1638312190771103,0.4626507759094238
1630411931060,-0.0471653267741203,-0.0028109792619943,-0.1431190967559814,0.4673499763011932
1630411931169,-0.033175379037857,-0.0006511658430099,-0.1330468207597732,0.4672078192234039
1630411931279,-0.0267435666173696,0.0003031451196875,-0.1294592767953872,0.4628404080867767
1630411931341,-0.0298364143818616,0.0022695446386933,-0.1258255094289779,0.4514084160327911
1630411931439,-0.0347090028226375,0.0079013453796505,-0.116314522922039,0.4392317235469818
1630411931611,-0.0340326018631458,0.0172654539346694,-0.1007972434163093,0.4336193203926086
1630411931720,-0.0282752141356468,0.027640413492918,-0.0848598405718803,0.4325162470340729
1630411931829,-0.019834904000163,0.0361718013882637,-0.0744239762425422,0.4347784519195556
1630411931861,-0.017460498958826,0.0411198213696479,-0.0725326538085937,0.4299839437007904
1630411931939,-0.0175668224692344,0.0422373116016387,-0.0793049857020378,0.4195610582828522
1630411932095,-0.0192801356315612,0.0403142794966697,-0.0942841321229934,0.4063817262649536
1630411932189,-0.0228005368262529,0.0372915528714656,-0.1164970993995666,0.3910314738750458
1630411932329,-0.0238041933625936,0.0353786163032054,-0.1426778137683868,0.3772237598896026
1630411932376,-0.0273710209876298,0.0347516536712646,-0.1654780060052871,0.3630529344081878
1630411932504,-0.0322012975811958,0.0329068750143051,-0.1766872406005859,0.3476965725421905
1630411932614,-0.0440567247569561,0.0267272256314754,-0.1742956340312957,0.3286336660385132
1630411932645,-0.058851845562458,0.0156726948916912,-0.1650887429714203,0.3106375932693481
1630411932770,-0.0669370591640472,0.0018152331467717,-0.1585171669721603,0.2992215752601623
1630411932942,-0.0700196623802185,-0.0133349578827619,-0.1604522317647934,0.2957508862018585
1630411932988,-0.0679613873362541,-0.0298506114631891,-0.1718671172857284,0.2978358268737793
1630411933067,-0.0682517886161804,-0.0474568791687488,-0.1899982690811157,0.2957914471626282
1630411933207,-0.0756607875227928,-0.0635076314210891,-0.2098836004734039,0.2830014824867248
1630411933301,-0.0881716609001159,-0.073215402662754,-0.2287198901176452,0.2632673680782318
1630411933363,-0.1062829047441482,-0.0731482952833175,-0.2472301870584488,0.2401479184627533
1630411933523,-0.1241718754172325,-0.062478769570589,-0.2671839594841003,0.2282150536775589
1630411933616,-0.1354118585586547,-0.0450870767235755,-0.2856273651123047,0.2342943996191024
1630411933694,-0.1349351555109024,-0.0278385262936353,-0.29649618268013,0.2542982101440429
1630411933773,-0.1268027275800705,-0.0153836039826273,-0.2988321781158447,0.281387448310852
1630411933866,-0.1170503199100494,-0.0083160074427723,-0.3005899488925934,0.3033460974693298
1630411933991,-0.1141068488359451,-0.0043825199827551,-0.3094421625137329,0.3225423395633697
1630411934148,-0.1152242347598075,-0.001014576642774,-0.3258220255374908,0.3412778675556183
1630411934179,-0.1208627447485923,0.0030122043099254,-0.3441952168941498,0.3596980571746826
1630411934319,-0.1301812976598739,0.007624240592122,-0.3594388961791992,0.3758880496025085
1630411934447,-0.1364447027444839,0.0126961795613169,-0.3692710399627685,0.3859776556491852
1630411934509,-0.1381022483110427,0.0171857010573148,-0.3720714449882507,0.3895902335643768
1630411934634,-0.1348081678152084,0.0201096311211586,-0.3673176169395447,0.3832003474235534
1630411934743,-0.1201962605118751,0.0227874163538217,-0.3583100140094757,0.3818307518959045
1630411934822,-0.1036191508173942,0.0276017747819423,-0.349319577217102,0.3863533139228821
1630411934931,-0.0820082947611808,0.0338840261101722,-0.341025710105896,0.4013443887233734
1630411935009,-0.0607938133180141,0.0349790938198566,-0.3285930752754211,0.4208405613899231
1630411935118,-0.0480595044791698,0.0259037502110004,-0.3088385164737701,0.4319047033786773
1630411935196,-0.0397183857858181,0.0098195206373929,-0.2867326140403747,0.4405002892017364
1630411935368,-0.0423425324261188,-0.0037981555797159,-0.2695008218288421,0.4424708783626556
1630411935431,-0.0481405109167099,-0.0059989425353705,-0.2601375579833984,0.442826360464096
1630411935524,-0.0502788461744785,0.0044806851074099,-0.2572862207889557,0.4420121908187866
1630411935634,-0.0515641532838344,0.0230503492057323,-0.2572067081928253,0.4358260333538055
1630411935712,-0.0478845611214637,0.04444395378232,-0.2573707401752472,0.4277247488498688
1630411935821,-0.0432765036821365,0.0645792856812477,-0.2559568285942077,0.415416419506073
1630411935915,-0.0386669784784317,0.081125721335411,-0.2527930736541748,0.4055093228816986
1630411936071,-0.0333593674004077,0.0929552614688873,-0.2486134618520736,0.399022489786148
1630411936134,-0.0344545170664787,0.0987508296966552,-0.2430332005023956,0.3963082730770111
1630411936259,-0.0428566262125968,0.0967245399951934,-0.234276607632637,0.3900275528430938
1630411936337,-0.0561013408005237,0.0856782644987106,-0.2220305502414703,0.3773604333400726
1630411936385,-0.0727299824357032,0.0680187046527862,-0.2098210602998733,0.3615985512733459
1630411936590,-0.088929958641529,0.0518448501825332,-0.2033249884843826,0.3448086977005005
1630411936715,-0.0986469537019729,0.0453948676586151,-0.2061279863119125,0.3390417993068695
1630411936761,-0.0998664796352386,0.0484182983636856,-0.2163257449865341,0.34456866979599
1630411936886,-0.0857204049825668,0.0521118678152561,-0.2286493182182312,0.3615316152572632
1630411936933,-0.0654170513153076,0.0479589588940143,-0.2374434173107147,0.3848556578159332
1630411937058,-0.0504485592246055,0.0344351306557655,-0.2402657121419906,0.4012776613235473
1630411937199,-0.0443704016506671,0.0139174303039908,-0.2370898574590683,0.4107846319675445
1630411937261,-0.0475991554558277,-0.011829799041152,-0.227626547217369,0.4145628809928894
1630411937339,-0.0538066960871219,-0.0419309064745903,-0.2125226706266403,0.417079210281372
1630411937514,-0.062303464859724,-0.074200838804245,-0.1967635601758957,0.4197562038898468
1630411937529,-0.0743823274970054,-0.1021680533885955,-0.1888244003057479,0.4232126176357269
1630411937717,-0.0807921141386032,-0.1162564232945442,-0.1950446516275406,0.429904967546463
1630411937779,-0.0800975561141967,-0.1123721748590469,-0.2149639874696731,0.441027969121933
1630411937920,-0.0679119750857353,-0.0954500138759613,-0.2407059967517852,0.4570021629333496
1630411937982,-0.0512161403894424,-0.0774113237857818,-0.2624948918819427,0.4718707501888275
1630411938092,-0.0413525141775608,-0.0684766173362732,-0.2757153213024139,0.4817809462547302
1630411938185,-0.0367264002561569,-0.0714280679821968,-0.2808732390403747,0.4834887385368347
1630411938295,-0.043097548186779,-0.0812227204442024,-0.2802945673465729,0.4746641516685486
1630411938406,-0.05887883156538,-0.0874995738267898,-0.2763208746910095,0.4581053256988525
1630411938515,-0.0764259994029998,-0.0846931412816047,-0.2728049755096435,0.438553124666214
1630411938562,-0.0928205698728561,-0.0759497210383415,-0.2734583914279938,0.4246633648872375
1630411938703,-0.0987468659877777,-0.0646476000547409,-0.2793729901313782,0.4207841753959656
1630411938797,-0.0979397371411323,-0.0490376129746437,-0.2887139916419983,0.423956423997879
1630411938906,-0.0976342260837555,-0.0285539273172616,-0.2992999851703644,0.4289674162864685
1630411939031,-0.0969723239541053,-0.0088776852935552,-0.3071890473365783,0.4331664443016052
1630411939140,-0.1039488017559051,0.002939652884379,-0.3058664500713348,0.430289477109909
1630411939173,-0.1163835152983665,0.0065566189587116,-0.2921631932258606,0.4223795235157013
1630411939257,-0.1296535283327102,0.0087125012651085,-0.2708675563335418,0.4133318364620209
1630411939428,-0.1461153328418731,0.0148728331550955,-0.2510907351970672,0.4004065990447998
1630411939522,-0.1525501906871795,0.0262878444045782,-0.2372505515813827,0.3880653977394104
1630411939647,-0.1501426249742508,0.0401755645871162,-0.2264936864376068,0.370318204164505
1630411939678,-0.1398269236087799,0.0544273629784584,-0.2145083993673324,0.3516597747802734
1630411939819,-0.1231775283813476,0.0698645040392875,-0.1998086869716644,0.3365584313869476
1630411939897,-0.1045317873358726,0.0873841568827629,-0.1842994540929794,0.3316015303134918
1630411939975,-0.0899020954966545,0.1063177958130836,-0.1699871271848678,0.3394284248352051
1630411940084,-0.0737259909510612,0.1231217086315155,-0.1568748652935028,0.3519244194030761
1630411940241,-0.0591883435845375,0.134032055735588,-0.1460724920034408,0.3640420734882355
1630411940319,-0.0463478118181228,0.1389774829149246,-0.1401918530464172,0.3711656630039215
1630411940431,-0.031937725841999,0.1439790874719619,-0.1408014148473739,0.3810010552406311
1630411940477,-0.0246865358203649,0.1555821299552917,-0.1472341567277908,0.3958236277103424
1630411940556,-0.0148066123947501,0.1738151162862777,-0.156880185008049,0.4166635870933532
1630411940712,-0.0066096717491745,0.1910809725522995,-0.1658843159675598,0.434145450592041
1630411940805,-0.0010846407385542,0.1995704174041748,-0.1708503812551498,0.4387471973896026
1630411940915,0.006742195226252,0.1970903128385543,-0.1721157729625702,0.4370285868644714
1630411941009,0.0062892297282814,0.1862299442291259,-0.1739709079265594,0.431065022945404
1630411941102,0.0039251302368938,0.1712739318609237,-0.1819345653057098,0.4319325089454651
1630411941212,-0.0046421722508966,0.1548864394426345,-0.1989331841468811,0.4402605295181274
1630411941305,-0.0158671326935291,0.1377048790454864,-0.2239381074905395,0.4516282379627228
1630411941457,-0.0251605790108442,0.1205272078514099,-0.2521349787712097,0.4558255672454834
1630411941520,-0.025271251797676,0.1056625097990036,-0.2770499289035797,0.4476421177387237
1630411941645,-0.0192631352692842,0.0951122641563415,-0.295242428779602,0.4301962852478027
1630411941738,-0.0113930776715278,0.087131842970848,-0.3068760931491852,0.4090233743190765
1630411941834,-0.0045241913758218,0.0758550316095352,-0.3130693137645721,0.3922064900398254
1630411941908,0.001976546831429,0.0558430738747119,-0.3139957785606384,0.3823446631431579
1630411942017,0.0300635881721973,0.0289217177778482,-0.3092897236347198,0.3963730335235595
1630411942129,0.0712605640292167,0.0045137125998735,-0.302191823720932,0.4308070242404938
1630411942250,0.1196044012904167,-0.0073168948292732,-0.2970367968082428,0.4810519814491272
1630411942326,0.1605850309133529,-0.004122064448893,-0.2948395907878876,0.5347993969917297
1630411942442,0.183794304728508,0.0106708947569131,-0.291046679019928,0.5772148966789246
1630411942499,0.1984023004770279,0.0352695994079113,-0.278713047504425,0.6120901703834534
1630411942641,0.2073812931776046,0.0676642954349517,-0.2576087713241577,0.6382623910903931
1630411942752,0.2171039879322052,0.100401759147644,-0.2356408834457397,0.6564862132072449
1630411942831,0.2260680347681045,0.1243289783596992,-0.2214615046977996,0.6675209403038025
1630411942921,0.2316878736019134,0.1349229216575622,-0.2164070904254913,0.673998236656189
1630411943001,0.2332792431116104,0.1351436227560043,-0.2150188982486724,0.6788971424102783
1630411943125,0.2312337011098861,0.1324655711650848,-0.2116398513317108,0.6844799518585205
1630411943250,0.2283221334218979,0.133413091301918,-0.206537127494812,0.6913086175918579
1630411943344,0.2247229665517807,0.1399931460618972,-0.2048473805189132,0.6976915597915649
1630411943485,0.2189440131187439,0.1494525372982025,-0.210484892129898,0.7013726234436035
1630411943548,0.2039899379014969,0.1583983153104782,-0.2234083414077758,0.6930956244468689
1630411943644,0.1782789677381515,0.1650880128145218,-0.2390431612730026,0.671812117099762
1630411943705,0.1428010761737823,0.1685842871665954,-0.2524315416812897,0.6388234496116638
1630411943890,0.104484423995018,0.1674797087907791,-0.2608526051044464,0.5999122262001038
1630411943921,0.0716791301965713,0.1597356349229812,-0.2647329568862915,0.563723623752594
1630411944059,0.0475889407098293,0.1438127756118774,-0.2664976119995117,0.5309836864471436
1630411944152,0.0304855369031429,0.1214026734232902,-0.2672419548034668,0.5051020979881287
1630411944261,0.0193198174238204,0.0993282571434974,-0.2652283012866974,0.4865714311599731
1630411944339,0.0150664271786808,0.0861590206623077,-0.2589567601680755,0.4729256331920624
1630411944473,0.0138686290010809,0.0855960771441459,-0.251644879579544,0.4626796245574951
1630411944583,0.0103450939059257,0.0927320644259452,-0.2496209740638733,0.4540046751499176
1630411944645,0.002842218382284,0.1008845120668411,-0.2564883232116699,0.4464714229106903
1630411944726,-0.0091553134843707,0.1082014739513397,-0.2680592238903045,0.4400075078010559
1630411944889,-0.0205610729753971,0.1166698187589645,-0.2773055136203766,0.4348254799842834
1630411944967,-0.0263573881238698,0.1275532394647598,-0.2812502086162567,0.4317229092121124
1630411945061,-0.0297950245440006,0.1369726508855819,-0.2817965745925903,0.4298827946186065
1630411945175,-0.0310698077082633,0.1389451026916504,-0.2798402011394501,0.4325875639915466
1630411945306,-0.0299057774245739,0.1321215480566024,-0.2749156355857849,0.4407462477684021
1630411945383,-0.0277830492705106,0.1225400790572166,-0.2711694240570068,0.4525064826011657
1630411945502,-0.0186502486467361,0.1214782819151878,-0.2760472893714905,0.4672295153141022
1630411945589,-0.0041376515291631,0.1350298523902893,-0.2948624193668365,0.4800802171230316
1630411945667,0.0123290875926613,0.1572385430335998,-0.3247177004814148,0.4896950125694275
1630411945839,0.0213275831192731,0.1763383150100708,-0.3538214266300201,0.4925379157066345
1630411945901,0.0184162557125091,0.1840831488370895,-0.366500973701477,0.492250382900238
1630411945980,0.0055878744460642,0.1804615408182144,-0.3531554937362671,0.4896460175514221
1630411946042,-0.0079671693965792,0.1728705465793609,-0.3186284005641937,0.4870915710926056
1630411946217,-0.0126422652974724,0.1703923046588897,-0.2758800685405731,0.4873631298542022
1630411946326,-0.0048675285652279,0.1769942641258239,-0.235525906085968,0.4890635013580322
1630411946391,0.0104893343523144,0.1885721385478973,-0.2007904350757599,0.4909176528453827
1630411946516,0.0309530831873416,0.1973786503076553,-0.1716654896736145,0.4894382059574127
1630411946609,0.0487898327410221,0.1989899575710296,-0.1486217379570007,0.483147382736206
1630411946703,0.0625415295362472,0.194580078125,-0.1336923986673355,0.4699221551418304
1630411946781,0.0708291828632354,0.1880986541509628,-0.1263252049684524,0.4507741332054138
1630411946890,0.0746749639511108,0.1827330589294433,-0.1207835674285888,0.4300998449325561
1630411947015,0.0740815177559852,0.1768553107976913,-0.1116326451301574,0.4083371162414551
1630411947125,0.0653576552867889,0.1678922921419143,-0.0990485399961471,0.3879004120826721
1630411947234,0.051581010222435,0.1571457684040069,-0.0885874852538108,0.3666510581970215
1630411947312,0.038040917366743,0.1488796770572662,-0.086576260626316,0.3500896096229553
1630411947390,0.0306261293590068,0.1460051983594894,-0.0960620567202568,0.3402051031589508
1630411947515,0.0332819409668445,0.1450952291488647,-0.1172933280467987,0.3420123159885406
1630411947643,0.0386630482971668,0.13948455452919,-0.1480228453874588,0.3568837940692901
1630411947690,0.0401930883526802,0.1244643628597259,-0.1843230575323104,0.373018205165863
1630411947799,0.0351163893938064,0.099367544054985,-0.2220043838024139,0.3845186829566955
1630411947893,0.0204243119806051,0.0691480487585067,-0.2569640576839447,0.3840645849704742
1630411948049,-0.0044296840205788,0.0434680618345737,-0.2838959693908691,0.375488817691803
1630411948128,-0.0364692248404026,0.0306325182318687,-0.3001650869846344,0.3668809831142425
1630411948190,-0.0688513219356536,0.0321925953030586,-0.3074284195899963,0.3649984300136566
1630411948365,-0.0957708582282066,0.0433377660810947,-0.3109659552574157,0.3719459474086761
1630411948427,-0.112177699804306,0.0577231161296367,-0.3151047825813293,0.3862592875957489
1630411948490,-0.1236727684736251,0.0716908574104309,-0.3180439472198486,0.4052202999591827
1630411948599,-0.1295857578516006,0.08309056609869,-0.3153368532657623,0.4247232973575592
1630411948739,-0.1302839368581771,0.092360645532608,-0.3044716417789459,0.4341636002063751
1630411948864,-0.128162071108818,0.1044188439846038,-0.2866195440292358,0.4426071643829345
1630411948943,-0.1269001364707946,0.123637668788433,-0.266287237405777,0.4488870799541473
1630411949005,-0.130751222372055,0.1504189670085907,-0.2480389177799224,0.4504649937152862
