timestamp,TP9,AF7,AF8,TP10
1630411793194,0.1451496034860611,0.408774584531784,0.6161240935325623,0.5371965169906616
1630411793364,0.1723041534423828,0.4322534203529358,0.6385684013366699,0.5654404759407043
1630411793452,0.185653269290924,0.4548077583312988,0.6655065417289734,0.6019136309623718
1630411793529,0.1769576072692871,0.4685003459453583,0.6933101415634155,0.6523516774177551
1630411793628,0.1421788930892944,0.4546986222267151,0.7190080285072327,0.7042988538742065
1630411793704,0.1421788930892944,0.454658031463623,0.7517620921134949,0.7042988538742065
1630411793824,0.1421788930892944,0.4695234894752502,0.7853488922119141,0.7042988538742065
1630411793964,0.1421788930892944,0.4837404787540436,0.811234176158905,0.7042988538742065
1630411794052,0.1421788930892944,0.490338921546936,0.8255947828292847,0.7042988538742065
1630411794157,0.1421788930892944,0.4845234751701355,0.8325051069259644,0.7042988538742065
1630411794276,0.1421788930892944,0.4526891112327575,0.8295268416404724,0.7042988538742065
1630411794360,0.1421788930892944,0.358023852109909,0.8021095395088196,0.7042988538742065
1630411794476,0.1421788930892944,0.3816233873367309,0.7235175371170044,0.7042988538742065
1630411794577,0.1421788930892944,0.4804950058460235,0.5572124123573303,0.7042988538742065
1630411794674,0.1421788930892944,0.6278396248817444,0.626649022102356,0.7042988538742065
1630411794772,0.1421788930892944,0.6278396248817444,0.7129356861114502,0.7042988538742065
1630411794846,0.1421788930892944,0.6278396248817444,0.7791338562965393,0.7042988538742065
1630411795001,0.1421788930892944,0.7151371836662292,0.811114490032196,0.7042988538742065
1630411795035,0.1421788930892944,0.7321726679801941,0.8149459362030029,0.7042988538742065
1630411795191,0.1421788930892944,0.7435949444770813,0.8097612857818604,0.7042988538742065
1630411795288,0.1421788930892944,0.7453659772872925,0.7923974990844727,0.7042988538742065
1630411795391,0.1421788930892944,0.7374951839447021,0.7659596800804138,0.7042988538742065
1630411795496,0.1421788930892944,0.7277145385742188,0.743729829788208,0.7042988538742065
1630411795589,0.1421788930892944,0.7207868099212646,0.7333626747131348,0.7042988538742065
1630411795676,0.1421788930892944,0.7214149832725525,0.7316455245018005,0.7042988538742065
1630411795803,0.1421788930892944,0.7262669205665588,0.7317531108856201,0.7042988538742065
1630411795870,0.1421788930892944,0.7284396886825562,0.7345061898231506,1.1591017246246338
1630411795970,0.1421788930892944,0.7183207273483276,0.732359766960144,1.1620192527770996
1630411796078,0.1421788930892944,0.671272873878479,0.7102431058883667,1.1583434343338013
1630411796219,0.1421788930892944,0.54742431640625,0.6506773829460144,1.1583434343338013
1630411796279,0.1421788930892944,0.526797890663147,0.5439099073410034,1.1583434343338013
1630411796377,0.1421788930892944,0.5146592855453491,0.3937965333461761,1.1583434343338013
1630411796494,0.1421788930892944,0.4032151997089386,0.2398396879434585,1.1583434343338013
1630411796583,0.1421788930892944,0.4020868837833404,0.1429097950458526,1.1583434343338013
1630411796723,0.1421788930892944,0.3840154111385345,0.1254396587610244,1.1583434343338013
1630411796761,0.1421788930892944,0.3711184859275818,0.1502839922904968,1.1583434343338013
1630411796854,0.1421788930892944,0.3716962933540344,0.2026853263378143,1.1583434343338013
1630411797043,0.1421788930892944,0.3845450282096863,0.2384908646345138,1.1583434343338013
1630411797133,0.1421788930892944,0.4061045348644256,0.253002256155014,1.1794016361236572
1630411797201,0.1421788930892944,0.4255053699016571,0.2591186165809631,1.1851805448532104
1630411797281,0.1421788930892944,0.4427080750465393,0.2633555233478546,1.1851805448532104
1630411797423,0.1421788930892944,0.4606091678142547,0.265545904636383,1.1851805448532104
1630411797530,0.1421788930892944,0.4864783585071563,0.2688208520412445,1.1851805448532104
1630411797616,0.1421788930892944,0.526495635509491,0.2826750874519348,1.1851805448532104
1630411797693,0.1421788930892944,0.6777476668357849,0.3178136348724365,1.1851805448532104
1630411797839,0.1421788930892944,0.8164951205253601,0.3681235909461975,1.1851805448532104
1630411797886,0.1421788930892944,0.9190734624862672,0.4134785532951355,1.1851805448532104
1630411797963,0.1421788930892944,0.962222158908844,0.4354709982872009,1.1851805448532104
1630411798058,0.1421788930892944,0.9498205184936525,0.431930810213089,1.1851805448532104
1630411798215,0.1421788930892944,0.9161646366119384,0.4064380526542663,1.1851805448532104
1630411798303,0.1421788930892944,0.9161646366119384,0.3661012351512909,1.1851805448532104
1630411798436,0.1421788930892944,0.8842273354530334,0.3248629570007324,1.1851805448532104
1630411798495,0.1421788930892944,0.8562948107719421,0.2939705848693847,1.1851805448532104
1630411798626,0.1421788930892944,0.8305323719978333,0.2741440236568451,1.1851805448532104
1630411798692,0.1421788930892944,0.8033467531204224,0.256848007440567,1.1851805448532104
1630411798851,0.1421788930892944,0.7759775519371033,0.2404825538396835,1.1851805448532104
1630411798918,0.1421788930892944,0.747264564037323,0.2283406108617782,1.1851805448532104
1630411799004,0.1421788930892944,0.7282348275184631,0.2215932160615921,1.1851805448532104
1630411799073,0.1421788930892944,0.7282348275184631,0.2112300544977188,1.1851805448532104
1630411799217,0.1421788930892944,0.7075942754745483,0.1784589886665344,1.1851805448532104
1630411799370,0.1421788930892944,0.6662222146987915,0.1225893571972847,1.1851805448532104
1630411799432,0.1421788930892944,0.6053259968757629,0.072211630642414,1.1851805448532104
1630411799544,0.1421788930892944,0.543883204460144,0.0757976397871971,1.1851805448532104
1630411799623,0.1421788930892944,0.4946209490299225,0.1254780888557434,1.1851805448532104
1630411799714,0.1421788930892944,0.4573177397251129,0.1956519335508346,1.1851805448532104
1630411799839,0.1421788930892944,0.4573177397251129,0.2755495905876159,1.1851805448532104
1630411799911,0.1421788930892944,0.4235497117042541,0.3627350330352783,1.1851805448532104
1630411800067,0.1421788930892944,0.3826802372932434,0.450075626373291,1.1851805448532104
1630411800150,0.1421788930892944,0.3328853547573089,0.5225571990013123,1.1851805448532104
1630411800229,0.1421788930892944,0.3328853547573089,0.5749987959861755,1.1851805448532104
1630411800315,0.1421788930892944,0.3328853547573089,0.6086922883987427,1.1851805448532104
1630411800455,0.1421788930892944,0.3328853547573089,0.6319465041160583,1.1851805448532104
1630411800546,0.1421788930892944,0.3328853547573089,0.6524677872657776,1.1851805448532104
1630411800674,0.1421788930892944,0.3328853547573089,0.6676321625709534,1.1851805448532104
1630411800745,0.1421788930892944,0.3328853547573089,0.6800380945205688,1.1851805448532104
1630411800848,0.1421788930892944,0.3328853547573089,0.6867637038230896,1.1851805448532104
1630411800935,0.1421788930892944,0.3328853547573089,0.6862474679946899,1.1851805448532104
1630411801023,0.1421788930892944,0.3328853547573089,0.6763063073158264,1.1851805448532104
1630411801160,0.1421788930892944,0.4951142370700836,0.6601812839508057,1.1851805448532104
1630411801263,0.1421788930892944,0.4373266994953155,0.6379572749137878,1.1851805448532104
1630411801354,0.1421788930892944,0.3883793652057647,0.6042044758796692,1.1851805448532104
1630411801422,0.1421788930892944,0.3374807238578796,0.5528377890586853,1.1851805448532104
1630411801535,0.1421788930892944,0.2899458110332489,0.4822381138801574,1.1851805448532104
1630411801623,0.7764362096786499,0.2515556514263153,0.4011289775371551,0.5465127229690552
1630411801765,0.7764362096786499,0.2501868307590484,0.3240869641304016,0.5085819959640503
1630411801853,0.7764362096786499,0.2802902162075043,0.2840725481510162,0.4919173717498779
1630411801984,0.7764362096786499,0.3669233024120331,0.3074848353862762,0.5343980193138123
1630411802114,0.7764362096786499,0.491598904132843,0.3824112117290497,0.6278059482574463
1630411802211,0.7764362096786499,0.6084958910942078,0.4710211753845215,0.6278059482574463
1630411802287,0.7764362096786499,0.6084958910942078,0.5489303469657898,0.6278059482574463
1630411820026,-0.1974330991506576,0.261894166469574,-0.3641449809074402,0.1893390715122223
1630411821347,0.2632137537002563,-0.1616264581680297,0.0178140364587306,0.3035632967948913
1630411824440,-0.204356774687767,-0.5919667482376099,0.0153257269412279,-0.139490321278572
1630411824550,-0.1739588230848312,-0.5834001302719116,0.0203414671123027,-0.032718539237976
1630411824628,-0.1462519615888595,-0.5515888929367065,0.0302817095071077,0.0755763873457908
1630411824706,-0.1172521486878395,-0.5026310086250305,0.0467062331736087,0.1659586280584335
1630411824800,-0.0845424830913543,-0.4266363382339477,0.0586547404527664,0.2328889369964599
1630411824925,-0.0552802421152591,-0.3182950019836426,0.0537512265145778,0.2733068466186523
1630411825065,-0.0322055928409099,-0.2067105770111084,0.0323780179023742,0.2947022318840027
1630411825128,-0.0059091770090162,-0.1085786297917366,-0.0005349668790586,0.3075717091560364
1630411825258,0.0371782705187797,-0.0297280568629503,-0.032175775617361,0.3252432942390442
1630411825305,0.0876919254660606,0.0349566452205181,-0.0571339428424835,0.3513787984848022
1630411825405,0.1324954628944397,0.0917547494173049,-0.0843964368104934,0.3826238512992859
1630411825521,0.1613325774669647,0.1442993879318237,-0.1238174065947532,0.4067667126655578
1630411825646,0.1742581576108932,0.1848412603139877,-0.1746211796998977,0.4200141131877899
1630411825709,0.1786765158176422,0.2094665616750717,-0.2262549698352813,0.4272428154945373
1630411825834,0.1793204247951507,0.2215861231088638,-0.2595339119434356,0.4277127385139465
1630411825943,0.1746403723955154,0.2299007922410965,-0.2514884769916534,0.4193049073219299
1630411826037,0.1681645363569259,0.237681970000267,-0.2159409672021865,0.4038956463336944
1630411826115,0.1627008318901062,0.2441562116146087,-0.1873664408922195,0.3839015364646911
1630411826271,0.1557534486055374,0.2460142970085144,-0.1789584755897522,0.359951764345169
1630411826380,0.1389105767011642,0.2421195209026336,-0.1917520016431808,0.3340235650539398
1630411826493,0.1181591600179672,0.2291111052036285,-0.2022696435451507,0.3130421042442322
1630411826587,0.1065628826618194,0.2163499295711517,-0.1876463741064071,0.3066086173057556
1630411826660,0.1016388088464737,0.2103541791439056,-0.13823963701725,0.3227659463882446
1630411826739,0.0953938588500022,0.2079660147428512,-0.063286006450653,0.3566551208496094
1630411826886,0.1010631248354911,0.1938620209693908,0.0105155920609831,0.3967817723751068
1630411826995,0.0677663758397102,0.1684232205152511,0.063520148396492,0.3900129497051239
1630411827058,0.0477639697492122,0.1460499018430709,0.0925291404128074,0.3877420425415039
1630411827136,0.0501894392073154,0.125847578048706,0.1054542362689971,0.3968327939510345
1630411827245,0.0658971890807151,0.1194203421473503,0.1116168871521949,0.4106194078922272
1630411827339,0.0877251401543617,0.1312728226184845,0.1158236488699913,0.4262616634368896
1630411827482,0.116486832499504,0.1507189571857452,0.1232088282704353,0.4453175067901611
1630411827607,0.1458047479391098,0.1691688895225525,0.1344435364007949,0.4648056626319885
1630411827716,0.1736288368701934,0.1850937902927398,0.1558542400598526,0.4748628437519073
1630411827763,0.2057405710220337,0.2014815658330917,0.1888253688812255,0.4819890856742859
1630411827841,0.2530581653118133,0.2163989692926406,0.2253728508949279,0.5003373622894287
1630411827935,0.3159036338329315,0.2359622567892074,0.2548016011714935,0.5493456125259399
1630411828138,0.3159036338329315,0.2424397319555282,0.2973244786262512,0.5493456125259399
1630411828185,0.3159036338329315,0.2424397319555282,0.3790390491485595,0.5493456125259399
1630411828266,0.3159036338329315,0.2424397319555282,0.4898836314678192,0.5493456125259399
1630411828375,0.3159036338329315,0.2424397319555282,0.6155750155448914,0.5493456125259399
1630411828469,0.3159036338329315,0.2424397319555282,0.6307536959648132,0.5493456125259399
1630411828547,0.3159036338329315,0.2424397319555282,0.653293788433075,0.5493456125259399
1630411828719,0.3159036338329315,0.2424397319555282,0.6823440194129944,0.5493456125259399
1630411828797,0.3159036338329315,0.2424397319555282,0.7301689386367798,0.5493456125259399
1630411828859,0.3159036338329315,0.2424397319555282,0.7569246292114258,0.5493456125259399
1630411828984,0.3159036338329315,0.2424397319555282,0.7684500813484192,0.5493456125259399
1630411829078,0.3159036338329315,0.2424397319555282,0.7696223258972168,0.5493456125259399
1630411829140,0.3159036338329315,0.2424397319555282,0.7634720802307129,0.5493456125259399
1630411829330,0.3159036338329315,0.2424397319555282,0.783003032207489,0.5493456125259399
1630411829424,0.3159036338329315,0.2424397319555282,0.8056862354278564,0.5493456125259399
1630411829486,0.3159036338329315,0.2424397319555282,0.8343514204025269,0.5493456125259399
1630411829580,0.3159036338329315,0.2424397319555282,0.8581680655479431,0.5493456125259399
1630411829674,0.3159036338329315,0.2424397319555282,0.8536367416381836,0.5493456125259399
1630411829830,0.3159036338329315,0.2424397319555282,0.7928590774536133,0.5493456125259399
1630411829924,0.3159036338329315,0.2424397319555282,0.5835367441177368,0.5493456125259399
1630411830002,0.3159036338329315,0.2424397319555282,0.5835367441177368,0.5493456125259399
1630411830111,0.3159036338329315,0.2424397319555282,0.5835367441177368,0.5493456125259399
1630411830174,0.3159036338329315,0.2424397319555282,0.5835367441177368,0.5493456125259399
1630411830302,0.3159036338329315,0.2424397319555282,0.4696050584316253,0.5493456125259399
1630411830364,0.3159036338329315,0.2424397319555282,0.4696050584316253,0.5493456125259399
1630411830505,0.3159036338329315,0.2424397319555282,0.4696050584316253,0.5493456125259399
1630411830630,0.3159036338329315,0.2424397319555282,0.4696050584316253,0.5493456125259399
1630411830692,0.3159036338329315,0.2424397319555282,0.4696050584316253,0.5493456125259399
1630411830801,0.3159036338329315,0.2424397319555282,0.4696050584316253,0.5493456125259399
1630411830879,0.3159036338329315,0.2424397319555282,0.7286418676376343,0.5493456125259399
1630411831020,0.3159036338329315,0.2424397319555282,0.8832591772079468,0.5493456125259399
1630411831145,0.3159036338329315,0.2424397319555282,0.8832591772079468,0.5493456125259399
1630411831239,0.3159036338329315,0.2424397319555282,0.8832591772079468,0.5493456125259399
1630411831320,0.3159036338329315,0.2424397319555282,0.8832591772079468,0.5493456125259399
1630411831429,0.3159036338329315,0.2424397319555282,0.8911762237548828,0.5493456125259399
1630411831476,0.3159036338329315,0.2424397319555282,0.8911762237548828,0.5493456125259399
1630411831617,0.3159036338329315,0.2424397319555282,0.8911762237548828,0.5493456125259399
1630411831757,0.3159036338329315,0.2424397319555282,0.8911762237548828,0.5493456125259399
1630411831835,0.3159036338329315,0.2424397319555282,0.8911762237548828,0.5493456125259399
1630411831913,0.3159036338329315,0.2424397319555282,0.8911762237548828,0.5493456125259399
1630411832054,0.3159036338329315,0.2424397319555282,0.878227174282074,0.5493456125259399
1630411832132,0.3159036338329315,0.2424397319555282,0.8839836716651917,0.5493456125259399
1630411832210,0.3159036338329315,0.2424397319555282,0.8690928816795349,0.5493456125259399
1630411832385,0.3159036338329315,0.2424397319555282,0.8200495839118958,0.5493456125259399
1630411832447,0.3159036338329315,0.2424397319555282,0.7032834887504578,0.5493456125259399
1630411832494,0.3159036338329315,0.2424397319555282,0.450180321931839,0.5493456125259399
1630411832666,0.3159036338329315,0.2424397319555282,0.429826408624649,0.5493456125259399
1630411832759,0.3159036338329315,0.2424397319555282,0.4142268002033233,0.5493456125259399
1630411832822,0.3159036338329315,0.2424397319555282,0.39430633187294,0.5493456125259399
1630411832931,0.3159036338329315,1.026006817817688,0.2382559329271316,0.5493456125259399
1630411833072,0.3159036338329315,0.9503634572029114,0.2146203368902206,0.5493456125259399
1630411833166,0.3159036338329315,0.8803978562355042,0.188241496682167,0.5493456125259399
1630411833259,0.3159036338329315,0.8180510997772217,0.1631178259849548,0.5493456125259399
1630411833357,0.3159036338329315,0.7677947282791138,0.1411451399326324,0.5493456125259399
1630411833435,0.3159036338329315,0.7280526757240295,0.1285422891378402,0.5493456125259399
1630411833592,0.3159036338329315,0.7091616988182068,0.0109263537451624,0.5493456125259399
1630411833654,0.3159036338329315,0.7223132848739624,0.0065531129948794,0.5493456125259399
1630411833764,0.3159036338329315,0.7606770992279053,0.0436162762343883,0.5493456125259399
1630411833842,0.3159036338329315,0.8014931082725525,0.0781544223427772,0.5493456125259399
1630411833951,0.3159036338329315,0.8248825073242188,0.0914422497153282,0.5493456125259399
1630411834045,0.3159036338329315,0.825312614440918,0.0762273147702217,0.5493456125259399
1630411834185,0.3159036338329315,0.7768023014068604,0.0464133471250534,0.5493456125259399
1630411834298,0.3159036338329315,0.7201977968215942,0.0443372204899787,0.5493456125259399
1630411834360,0.3159036338329315,0.7116479873657227,0.1101505681872367,0.5493456125259399
1630411834469,0.3159036338329315,0.7119143605232239,0.2378496974706649,0.5493456125259399
1630411834563,0.3159036338329315,0.7310704588890076,0.3752264678478241,0.5493456125259399
1630411834657,0.3159036338329315,0.7598560452461243,0.4903460741043091,0.5493456125259399
1630411834797,0.3159036338329315,0.794581949710846,0.5164029598236084,0.5493456125259399
1630411834860,0.3159036338329315,0.830700159072876,0.5443130731582642,0.5493456125259399
1630411835032,0.3159036338329315,0.8683809041976929,0.5785695910453796,0.5493456125259399
1630411835063,0.3159036338329315,0.8989927172660828,0.5838916301727295,0.5493456125259399
1630411835157,0.3159036338329315,0.9073280096054076,0.5853276252746582,0.5493456125259399
1630411835266,0.3159036338329315,0.8791508674621582,0.6257910132408142,0.5493456125259399
1630411835380,0.3159036338329315,0.9283718466758728,0.716665506362915,0.5493456125259399
1630411835489,0.3159036338329315,1.0230096578598022,0.8246941566467285,0.5493456125259399
1630411835599,0.3159036338329315,1.1128568649291992,0.9140727519989014,0.5493456125259399
1630411835708,0.3159036338329315,1.1694395542144775,0.9682031273841858,0.5493456125259399
1630411835786,0.3159036338329315,1.1885591745376587,0.98941969871521,0.5493456125259399
1630411835864,0.3159036338329315,1.1603436470031738,0.9848093390464784,0.5493456125259399
1630411835989,0.3159036338329315,1.1043809652328491,0.9613908529281616,0.5493456125259399
1630411836130,0.3159036338329315,1.068861722946167,0.9334540963172911,0.5493456125259399
1630411836224,0.3159036338329315,1.0543888807296753,0.9195266962051392,0.5493456125259399
1630411836289,0.3159036338329315,1.0590221881866455,0.9336524605751038,0.5493456125259399
1630411836367,0.3159036338329315,1.0709152221679688,0.9496067762374878,0.5493456125259399
1630411836508,0.3159036338329315,1.074470043182373,0.9694307446479796,0.5493456125259399
1630411836649,0.3159036338329315,1.0652267932891846,0.9825859665870668,0.5493456125259399
1630411836711,1.0060579776763916,1.0459418296813965,0.9843692183494568,0.5493456125259399
1630411836805,0.9260973930358888,1.0229743719100952,0.9660956859588624,0.5493456125259399
1630411836914,0.8544632792472839,0.97356116771698,0.9195890426635742,0.5493456125259399
1630411836992,0.8054684400558472,0.8983277678489685,0.8441526889801025,1.782401442527771
1630411837086,0.8054684400558472,0.8233680129051208,0.7523404955863953,1.782401442527771
1630411837227,0.8054684400558472,0.7865221500396729,0.6747653484344482,1.782401442527771
1630411837314,0.8054684400558472,0.7835670709609985,0.6442215442657471,1.782401442527771
1630411837408,0.8054684400558472,0.805178701877594,0.6758517026901245,1.782401442527771
1630411837501,0.8054684400558472,0.8301799297332764,0.7426935434341431,1.782401442527771
1630411837642,0.8054684400558472,0.8430607318878174,0.7990565299987793,1.782401442527771
1630411837689,0.8054684400558472,0.8340024948120117,0.8154329657554626,1.782401442527771
1630411837829,0.8054684400558472,0.785872757434845,0.7906653881072998,1.782401442527771
1630411837923,0.7147166132926941,0.6851888298988342,0.7385961413383484,1.782401442527771
1630411838079,0.5599619746208191,0.5434849858283997,0.6841690540313721,1.782401442527771
1630411838126,0.3464159071445465,0.423961728811264,0.6564446091651917,1.782401442527771
1630411838236,0.3464159071445465,0.4743123948574066,0.6705541014671326,1.782401442527771
1630411838316,0.3464159071445465,0.62857586145401,0.7099539041519165,1.782401442527771
1630411838441,0.3464159071445465,0.7891783714294434,0.7512896656990051,1.782401442527771
1630411838535,0.3464159071445465,0.9055219292640686,0.7810226082801819,1.782401442527771
1630411838628,0.3464159071445465,0.968942165374756,0.8005537390708923,1.1428874731063845
1630411838753,0.3464159071445465,0.9589387774467468,0.8110723495483398,1.0707006454467771
1630411838800,0.3464159071445465,0.9438138604164124,0.8150219917297363,1.0099453926086426
1630411838910,0.6890478730201721,0.940159022808075,0.8082782030105591,0.9574419260025024
1630411839086,0.6676110625267029,0.9407039284706116,0.7841079831123352,0.9109053015708924
1630411839149,0.6410351395606995,0.9359911680221558,0.7442140579223633,0.8684386014938354
1630411839263,0.6162557005882263,0.9235912561416626,0.7073246836662292,0.8291028738021851
1630411839385,0.6126767992973328,0.9071128964424132,0.691241443157196,0.7923648357391357
1630411839426,0.6318379044532776,0.8890592455863953,0.6978388428688049,0.760247528553009
1630411839526,0.6591344475746155,0.8699765205383301,0.714938759803772,0.7334355115890503
1630411839672,0.680633544921875,0.8653967976570129,0.7269431352615356,0.7115471959114075
1630411839735,0.6938610076904297,0.8487770557403564,0.7180334329605103,0.6924872994422913
1630411839829,0.6968921422958374,0.8152827620506287,0.6885794401168823,0.5474082827568054
1630411839969,0.6904847025871277,0.7656714916229248,0.6505535840988159,0.4189178645610809
1630411840016,0.677614688873291,0.7197543978691101,0.6196621060371399,0.3595318794250488
1630411840141,0.6446446180343628,0.7091450095176697,0.6100199222564697,0.3822171986103058
1630411840250,0.6448332071304321,0.7381834387779236,0.6276370882987976,0.4655501246452331
1630411840391,0.6813350915908813,0.7812527418136597,0.6492600440979004,0.5499498248100281
1630411840485,0.739213228225708,0.8052535057067871,0.6503443121910095,0.6117499470710754
1630411840547,0.8160490393638611,0.8146568536758423,0.6332613229751587,0.649301290512085
1630411840641,0.8991096019744873,0.8245148062705994,0.6151025891304016,0.6682947874069214
1630411840782,0.9650852084159852,0.8421902060508728,0.6091096997261047,0.6804081201553345
1630411840891,1.0082275867462158,0.8730804324150085,0.6216292381286621,0.6972545981407166
1630411840969,1.0347962379455566,0.9115837216377258,0.6473050117492676,0.7199885249137878
1630411841110,1.0509532690048218,0.9316718578338624,0.6746531128883362,0.7415885329246521
1630411841156,1.0547685623168943,0.9550215601921082,0.6884276866912842,0.7581644058227539
1630411841235,1.0523498058319092,0.9808696508407592,0.6914725303649902,0.7682121992111206
1630411841328,1.0480728149414062,0.9802384972572328,0.6890612840652466,0.77060467004776
1630411841516,1.0449670553207395,0.9759745597839355,0.6842832565307617,0.7641770839691162
1630411841578,1.0422242879867554,0.9659444093704224,0.6778290271759033,0.7468788623809814
1630411841656,1.0365124940872192,0.936800479888916,0.6624793410301208,0.7155883312225342
1630411841781,1.0256937742233276,0.8820652961730957,0.6305274963378906,0.6673555374145508
1630411841859,1.0037485361099243,0.806654691696167,0.5851016044616699,0.6073547005653381
1630411841953,0.9655230641365052,0.7266024947166443,0.5386767983436584,0.5502808094024658
1630411842094,0.9034457206726074,0.6469352841377258,0.4999887943267822,0.5084273219108582
1630411842234,0.8159441351890564,0.5590930581092834,0.4722746014595032,0.4896793663501739
1630411842299,0.7165446877479553,0.450124591588974,0.4444225430488586,0.4899754524230957
1630411842377,0.6148019433021545,0.2650777101516723,0.3946245014667511,0.4977447092533111
1630411842518,0.5039283037185669,-0.1471021771430969,0.3117909729480743,0.5059074759483337
1630411842597,0.3773205280303955,-0.1685461550951004,0.2002804577350616,0.5198653340339661
1630411842724,0.2733729183673858,-0.1915770918130874,0.0972328409552574,0.5336010456085205
1630411842789,0.1950679868459701,-0.2119642496109008,0.0253875646740198,0.5461753606796265
1630411842881,0.1383979767560959,-0.3014739155769348,-0.0166508425027132,0.5577544569969177
1630411842977,0.0917866602540016,-0.3387001752853393,-0.037810493260622,0.5658092498779297
1630411843074,0.0656383037567138,-0.3610478043556213,-0.0344627387821674,0.5715176463127136
1630411843179,0.0640643388032913,-0.3618096709251404,-0.0128093771636486,0.5780041217803955
1630411843351,0.0796417221426963,-0.3182517290115356,0.0199792012572288,0.5837756395339966
1630411843432,0.1127196326851844,-0.2286883741617202,0.0543958880007267,0.585724413394928
1630411843509,0.1539829522371292,-0.131378099322319,0.0767998099327087,0.5814582705497742
1630411843601,0.1810653507709503,-0.0522620342671871,0.0818387866020202,0.5735483765602112
1630411843696,0.1873705089092254,0.0052868835628032,0.0696858912706375,0.5637293457984924
1630411843771,0.1812911331653595,0.050765361636877,0.0512260645627975,0.5506871342658997
1630411843917,0.1835334599018097,0.1038011088967323,0.0273064672946929,0.5308394432067871
1630411844040,0.199909970164299,0.1610967218875885,-0.0018122472101822,0.5028625726699829
1630411844101,0.2580887973308563,0.2213547080755233,-0.0304778013378381,0.4676234424114227
1630411844212,0.376090794801712,0.2850031554698944,-0.0515251457691192,0.4406315088272095
1630411844336,0.525090217590332,0.344686895608902,-0.0566201023757457,0.438271164894104
1630411844414,0.6576472520828247,0.387038379907608,-0.0366724319756031,0.4530687928199768
1630411844528,0.7510709166526794,0.4074580669403076,0.007478957530111,0.4744583070278168
1630411844667,0.8055849075317383,0.412260890007019,0.0486102066934108,0.4831368327140808
1630411844712,0.8310835957527161,0.4087595641613006,0.063688538968563,0.4690846800804138
1630411844854,0.8417524695396423,0.3993021249771118,0.0469358675181865,0.441374808549881
1630411844915,0.8505738973617554,0.3889102041721344,0.0145941358059644,0.4156841039657593
1630411845026,0.8663397431373596,0.3886553943157196,-0.0005604230682365,0.4008845388889313
1630411845147,0.898201048374176,0.4072593450546264,0.0113107813522219,0.3932972550392151
1630411845257,0.9380630850791932,0.4353448152542114,0.037246223539114,0.3898351788520813
1630411845318,0.9723852276802064,0.4552788138389587,0.0625510215759277,0.3902761936187744
1630411845456,0.991673707962036,0.454608678817749,0.0798512250185012,0.3970565497875213
1630411845538,1.014599323272705,0.4389259219169616,0.0890306234359741,0.3953826427459717
1630411845613,1.032991647720337,0.4382998347282409,0.1106985509395599,0.3864955604076385
1630411845757,1.0373979806900024,0.4700913429260254,0.1715550869703292,0.3649450540542602
1630411845819,1.0201098918914795,0.5833021998405457,0.311567097902298,0.3142544329166412
1630411845929,0.9841579794883728,0.5834671258926392,0.4981227815151214,0.2359996140003204
1630411846040,0.9455169439315796,0.5953811407089233,0.6667839884757996,0.1410114616155624
1630411846134,0.9259191155433656,0.6195594072341919,0.7850692868232727,0.0659780725836753
1630411846254,0.9384254217147828,0.6514623165130615,0.8538533449172974,0.0480883792042732
1630411846400,0.9751988649368286,0.6865590810775757,0.8881993293762207,0.071613036096096
1630411846447,1.0189071893692017,0.7201076745986938,0.9106014966964722,0.0966828167438507
1630411846540,1.0555537939071655,0.774588406085968,0.9321662783622742,0.1292064934968948
1630411846633,1.0555537939071655,0.7918211817741394,0.9487156867980956,0.1292064934968948
1630411846728,1.0555537939071655,0.8071678876876831,0.9704149961471558,0.1292064934968948
1630411846807,1.0555537939071655,0.8354769349098206,0.9965195655822754,0.1292064934968948
1630411846963,1.0555537939071655,0.8884804844856262,1.0221012830734253,0.1292064934968948
1630411847089,1.0555537939071655,0.9684020280838012,1.0396097898483276,0.1292064934968948
1630411847166,1.0555537939071655,1.0169376134872437,1.0465322732925415,1.1161261796951294
1630411847273,1.0555537939071655,0.9698514342308044,1.0423583984375,1.1224067211151123
1630411847335,1.112396001815796,0.7157806754112244,1.0198801755905151,1.0986405611038208
1630411847412,1.0486936569213867,0.6498988270759583,0.9687888622283936,1.0600740909576416
1630411847553,0.9901242852211,0.6248314380645752,0.8866179585456848,1.0155781507492063
1630411847682,0.9467782974243164,0.626964271068573,0.7867357134819031,0.972293257713318
1630411847774,0.9083060026168824,0.6319361329078674,0.695723295211792,0.9359424114227296
1630411847852,0.8780996799468994,0.6240043640136719,0.6344321370124817,0.9122327566146852
1630411847979,0.860579788684845,0.6086066961288452,0.5876390337944031,0.8957000374794006
1630411848046,0.8663284778594971,0.53544682264328,0.535785436630249,0.8873307704925537
1630411848198,0.8946353793144226,0.5280836820602417,0.491064190864563,0.8882989287376404
1630411848330,0.9312323927879332,0.5230194330215454,0.4251792728900909,0.8946369886398315
1630411848394,0.9584224820137024,0.5175966024398804,0.3240745365619659,0.9013628363609314
1630411848478,0.964985489845276,0.5071898698806763,0.1832469552755355,0.8843111991882324
1630411848593,0.9248905777931212,0.4967752993106842,0.0493116602301597,0.8400583267211914
1630411848640,0.899702250957489,0.4522965848445892,-0.0168781615793705,0.7730690240859985
1630411848768,0.8937855362892151,0.4714029729366302,-0.0089512160047888,0.7031382918357849
1630411848879,0.9030765295028688,0.5115747451782227,0.0323050059378147,0.6510935425758362
1630411848987,0.920660138130188,0.5410307049751282,0.0740781053900718,0.6219874620437622
1630411849067,0.9401218295097352,0.5498033165931702,0.0996346920728683,0.614396870136261
1630411849161,0.9561039805412292,0.5425302982330322,0.109743520617485,0.6176638007164001
1630411849256,0.9742063283920288,0.5284910798072815,0.1104789897799491,0.6245082020759583
1630411849414,0.9844778776168824,0.5145291686058044,0.1190966293215751,0.6364040374755859
1630411849507,0.9886054396629332,0.5253329873085022,0.1592925488948822,0.6510639190673828
1630411849568,0.985179364681244,0.5830202102661133,0.2455406039953231,0.6828968524932861
1630411849695,0.970921516418457,0.6689175963401794,0.3491310477256775,0.732373058795929
1630411849807,0.942499041557312,0.7485899925231934,0.4365602433681488,0.7842617630958557
1630411849885,0.907069981098175,0.8037952184677124,0.493274450302124,0.8242033123970032
1630411849995,0.8806726932525635,0.823627233505249,0.5207106471061707,0.8465906381607056
1630411850107,0.8659108877182007,0.8432305455207825,0.5298988223075867,0.8569111227989197
1630411850247,0.8484492301940918,0.8457788825035095,0.5317559838294983,0.8652926087379456
1630411850311,0.8305538892745972,0.8374304175376892,0.5358151197433472,0.872317910194397
1630411850401,0.8245297074317932,0.8277865052223206,0.539898157119751,0.8763585090637207
1630411850499,0.8295066952705383,0.8224034309387207,0.5476646423339844,0.8828755617141724
1630411850624,0.8313760757446289,0.8190391063690186,0.5589035153388977,0.89306640625
1630411850718,0.8210077881813049,0.8153374791145325,0.5704889297485352,0.9050659537315368
1630411850809,0.7950387001037598,0.8114542365074158,0.5796093344688416,0.9146404266357422
1630411850887,0.7845063805580139,0.8104751110076904,0.5808283090591431,0.9198092818260192
1630411851027,0.7970474362373352,0.7986981272697449,0.5665586590766907,0.927737295627594
1630411851103,0.7925578355789185,0.7567436695098877,0.5249103307723999,0.9342568516731262
1630411851246,0.8975698947906494,0.6768786311149597,0.4520978033542633,0.9504565596580504
1630411851321,1.0101969242095947,0.5734293460845947,0.3629277348518371,0.9877306222915648
1630411851415,1.023927927017212,0.4895968735218048,0.2942970991134643,1.0322591066360474
1630411851603,1.045788049697876,0.5281738638877869,0.2795259654521942,1.0726908445358276
1630411851679,1.072625756263733,0.5470357537269592,0.2971171438694,1.1017051935195925
1630411851714,1.1040356159210205,0.578302800655365,0.3066188395023346,1.1154314279556274
1630411851840,1.1326673030853271,0.5994797348976135,0.2923844456672668,1.1207294464111328
1630411851918,1.1527942419052124,0.6038879752159119,0.2634177505970001,1.1227130889892578
1630411852063,1.169853687286377,0.5952355861663818,0.2281179875135421,1.122053623199463
1630411852152,1.1978331804275513,0.5850067138671875,0.1960987597703933,1.1197230815887451
1630411852231,1.249668836593628,0.5801790356636047,0.1776200234889984,1.1165815591812134
1630411852360,1.3324100971221924,0.5773005485534668,0.1734324693679809,1.11253821849823
1630411852438,1.33314049243927,0.5843679308891296,0.1814361065626144,1.103208303451538
1630411852578,1.314757227897644,0.6017590761184692,0.1961163580417633,1.0863748788833618
1630411852651,1.249268651008606,0.6258171796798706,0.2125770300626754,1.0572770833969116
1630411852729,1.1050387620925903,0.6519585251808167,0.2301822751760482,1.0014673471450806
1630411852845,0.7884592413902283,0.6723434925079346,0.2452215850353241,0.90317964553833
1630411852938,0.803274929523468,0.6782800555229187,0.248614564538002,0.7698858380317688
1630411853126,0.8048280477523804,0.6645089387893677,0.2430580556392669,0.6206861138343811
1630411853171,0.7995676398277283,0.6358700394630432,0.2505140304565429,0.4947604537010193
1630411853296,0.7912572026252747,0.605786144733429,0.2753966152667999,0.4275465607643127
1630411853343,0.7912572026252747,0.5833134055137634,0.3093785047531128,0.3999539315700531
1630411853421,0.7912572026252747,0.5711844563484192,0.3509568274021148,0.4011681079864502
1630411853529,0.7912572026252747,0.5681048631668091,0.4000518321990967,0.4066488742828369
1630411853655,0.7912572026252747,0.5738323926925659,0.4653248488903045,0.3979800641536712
1630411853748,0.7912572026252747,0.5819447040557861,0.5427932739257812,0.3740094602108001
1630411853903,0.7912572026252747,0.6000050902366638,0.6142287254333496,0.3457852602005005
1630411853936,0.805908739566803,0.6188670992851257,0.6616475582122803,0.3341811299324035
1630411854015,0.8187332153320312,0.6332429051399231,0.692000150680542,0.3443048596382141
1630411854147,0.8230230808258057,0.6445526480674744,0.7230085134506226,0.3797270953655243
1630411854266,0.8147837519645691,0.6525241732597351,0.7575192451477051,0.4296165406703949
1630411854377,0.7947295308113098,0.6517521739006042,0.7848808169364929,0.4849778711795807
1630411854531,0.7947295308113098,0.6368622779846191,0.8020612001419067,0.4849778711795807
1630411854583,0.7947295308113098,0.6148024797439575,0.806925356388092,0.4849778711795807
1630411854708,0.7947295308113098,0.5902966856956482,0.8014296889305115,0.4849778711795807
1630411854757,0.7947295308113098,0.5666128993034363,0.7913408875465393,0.4849778711795807
1630411854885,0.7947295308113098,0.5473089218139648,0.7784656882286072,0.4849778711795807
1630411854979,0.7947295308113098,0.5336683988571167,0.7616646885871887,0.4849778711795807
1630411855104,0.7947295308113098,0.525637149810791,0.7418066263198853,0.4849778711795807
1630411855198,0.7947295308113098,0.5204028487205505,0.7177078723907471,0.4849778711795807
1630411855245,0.7947295308113098,0.523350179195404,0.6944677829742432,0.4849778711795807
1630411855394,0.7947295308113098,0.5350230932235718,0.6920000910758972,0.4849778711795807
1630411855520,0.7947295308113098,0.5566763877868652,0.669256329536438,0.4849778711795807
1630411855627,0.7947295308113098,0.5928794741630554,0.6579824090003967,0.4849778711795807
1630411855700,0.7947295308113098,0.5702216625213623,0.640228807926178,0.4849778711795807
1630411855779,0.7947295308113098,0.5388783812522888,0.6396393775939941,0.4849778711795807
1630411855900,0.7947295308113098,0.5113195776939392,0.6201508641242981,0.4849778711795807
1630411855980,0.7947295308113098,0.5483951568603516,0.5910085439682007,0.4849778711795807
1630411856106,0.7947295308113098,0.5795333385467529,0.5663808584213257,0.4849778711795807
1630411856201,0.7947295308113098,0.603667676448822,0.5475905537605286,0.4849778711795807
1630411856308,0.7947295308113098,0.6225403547286987,0.5438838601112366,0.4849778711795807
1630411856387,0.7947295308113098,0.657539963722229,0.5811138153076172,0.4849778711795807
1630411856498,0.7947295308113098,0.7375559210777283,0.6781691312789917,0.4849778711795807
1630411856594,0.7947295308113098,0.8516743183135986,0.8038129210472107,0.4849778711795807
1630411856766,0.7947295308113098,0.9571192860603333,0.9120468497276306,0.4849778711795807
1630411856844,0.7947295308113098,1.0281513929367063,0.974450409412384,0.4849778711795807
1630411856908,0.7947295308113098,1.0584815740585327,0.9844009280204772,0.4849778711795807
1630411857002,0.7947295308113098,1.0567468404769895,0.9708648920059204,0.4849778711795807
1630411857173,0.7947295308113098,1.0337251424789429,0.9460089206695556,0.4849778711795807
1630411857250,0.7947295308113098,1.0337251424789429,0.9211105704307556,0.4849778711795807
1630411857360,0.7947295308113098,1.0167417526245115,0.902646005153656,0.4849778711795807
1630411857407,0.7947295308113098,1.0075085163116455,0.9000054001808167,0.4849778711795807
1630411857534,0.7947295308113098,1.013399362564087,0.9126332998275756,0.4849778711795807
1630411857628,0.7947295308113098,1.025981903076172,0.9315254092216492,0.4849778711795807
1630411857801,0.7947295308113098,1.0366357564926147,0.9476721286773682,0.4849778711795807
1630411857818,0.7947295308113098,1.0411025285720823,0.954221785068512,0.4849778711795807
1630411857975,0.7947295308113098,1.035436987876892,0.9445269107818604,0.4849778711795807
1630411858023,0.7947295308113098,1.010454535484314,0.9071189165115356,0.4849778711795807
1630411858102,0.7947295308113098,0.954443633556366,0.8312005996704102,0.4849778711795807
1630411858214,0.7947295308113098,0.870870053768158,0.7173894047737122,1.310115098953247
1630411858339,1.275170922279358,0.7765114307403564,0.589792013168335,1.2945743799209597
1630411858387,1.2150752544403076,0.7007679343223572,0.4924191236495971,1.253305196762085
1630411858546,1.1619141101837158,0.6584197282791138,0.4477269351482391,1.2055857181549072
1630411858685,1.1281967163085938,0.6370750665664673,0.4362044930458069,1.1665741205215454
1630411858731,1.10632586479187,0.6101983785629272,0.4256960153579712,1.1403807401657104
1630411858842,1.0849157571792605,0.5723832845687866,0.3958513140678406,1.1224632263183594
1630411858888,1.0570292472839355,0.5140859484672546,0.339689701795578,1.1024740934371948
1630411859000,1.0238367319107056,0.4287184774875641,0.2482364028692245,1.077338457107544
1630411859207,0.9915828108787536,0.3201398849487304,0.1254523992538452,1.0486574172973633
1630411859254,0.9633602499961852,0.2146093398332595,-0.0046058921143412,1.0194876194000244
1630411859363,0.9377091526985168,0.1408224552869796,-0.1077565029263496,0.9919589161872864
1630411859460,0.914159059524536,0.0841464698314666,-0.1702294647693634,0.9518741965293884
1630411859553,0.8360076546669006,0.0009034539107233,-0.2061657309532165,0.8896104097366333
1630411859646,0.7565750479698181,-0.115461029112339,-0.2235850393772125,0.81465744972229
1630411859756,0.6747908592224121,-0.244709774851799,-0.244806483387947,0.7139933109283447
1630411859881,0.612850546836853,-0.2283493280410766,-0.2285998165607452,0.6237184405326843
1630411859964,0.5873994827270508,0.0482040382921695,-0.0938242599368095,0.5763112306594849
1630411860048,0.5737266540527344,0.3991088271141052,0.1356857717037201,0.5634855031967163
1630411860131,0.5307269096374512,0.4222130179405212,0.3568329513072967,0.5451706647872925
1630411860242,0.4469919204711914,0.4492876231670379,0.515894889831543,0.4884704649448395
1630411860371,0.3352480828762054,0.4802183508872986,0.6085483431816101,0.3698390126228332
1630411860465,0.2451229095458984,0.5144810676574707,0.6504103541374207,0.2088914364576339
1630411860593,0.2241167575120926,0.5514335036277771,0.663062334060669,0.0483439043164253
1630411860649,0.2359420657157898,0.591901421546936,0.6652037501335144,-0.0497746020555496
1630411860745,0.2359420657157898,0.6387432217597961,0.6652262806892395,-0.0497746020555496
1630411860868,0.2359420657157898,0.6941131353378296,0.6664512157440186,-0.0497746020555496
1630411861026,0.2359420657157898,0.7044015526771545,0.6694846749305725,-0.0497746020555496
1630411861119,0.2359420657157898,0.7278974056243896,0.6790691614151001,-0.0497746020555496
1630411861151,0.2359420657157898,0.7638695240020752,0.6979748606681824,-0.0497746020555496
1630411861295,0.8786187171936035,0.7987045049667358,0.7238921523094177,-0.0497746020555496
1630411861390,0.9233339428901672,0.8033354878425598,0.7444317936897278,0.6350613236427307
1630411861438,0.9200907945632936,0.7255542278289795,0.7417099475860596,0.5998482704162598
1630411861612,0.8867242336273193,0.3736160397529602,0.7001240253448486,0.549863874912262
1630411861690,0.84612637758255,0.3301737606525421,0.6127751469612122,0.496806263923645
1630411861814,0.8106728792190552,0.2883580029010772,0.4903479516506195,0.4510181248188019
1630411861940,0.7754676342010498,0.2498922795057296,0.3673653602600097,0.4126806855201721
1630411861988,0.7425503730773926,0.2175770550966262,0.287507563829422,0.3842462003231048
1630411862129,0.7117968797683716,0.1954347044229507,0.2624479234218597,0.3722601532936096
1630411862177,0.6834509372711182,0.186239942908287,0.2645713984966278,0.3758800625801086
1630411862269,0.6573119163513184,0.1897027194499969,0.2748934030532837,0.3899858593940735
1630411862364,0.6321290135383606,0.1963333785533905,0.2811736464500427,0.4039538502693176
1630411862505,0.6164806485176086,0.207407459616661,0.2786288559436798,0.4100234508514404
1630411862614,0.5807761549949646,0.1874493807554245,0.2543100118637085,0.3948969542980194
1630411862708,0.5042836666107178,0.1352360546588897,0.1988396346569061,0.3519193828105926
1630411862787,0.3835280239582062,0.0661245658993721,0.1051345244050026,0.2940987348556518
1630411862900,0.2416408360004425,0.0065690744668245,-0.0167379360646009,0.2366541624069214
1630411862961,0.1333967447280883,-0.0191004555672407,-0.1304296404123306,0.2017435431480407
1630411863073,0.0983414202928543,-0.0205213632434606,-0.194939911365509,0.1914087235927581
1630411863204,0.0741929039359092,-0.0120866652578115,-0.2166411131620407,0.2222898602485656
1630411863308,0.0486781261861324,-0.0068797883577644,-0.2258312702178955,0.2956468760967254
1630411863470,0.0384380929172039,-0.0050471816211938,-0.2328002601861953,0.4418592751026153
1630411863528,0.0354430824518203,-0.0040238169021904,-0.2264196127653122,0.6519104838371277
1630411863607,0.6960533261299133,-0.0034307374153286,-0.2020840644836425,0.8546003103256226
1630411863716,0.9892047047615052,-0.0059594656340777,-0.1561595648527145,1.0044468641281128
1630411863780,1.027024269104004,-0.0128546301275491,-0.1008456051349639,1.0955041646957395
1630411863873,1.0698996782302856,-0.0215119253844022,-0.0482722595334053,1.1414144039154053
1630411864038,1.142642855644226,-0.0249289963394403,-0.0038977325893938,1.1612948179244995
1630411864110,1.1693034172058103,-0.0174961686134338,0.0252035483717918,1.1678591966629028
1630411864190,1.1918264627456665,-0.0070816497318446,0.0436292253434658,1.1748818159103394
1630411864333,1.2404043674468994,0.0093163372948765,0.0624144859611988,1.2034348249435425
1630411864412,1.293526530265808,0.0375290960073471,0.0816113799810409,1.2346066236495972
1630411864500,1.353360652923584,0.1013894230127334,0.0911581739783287,1.2681266069412231
1630411864674,1.424670696258545,0.1931143552064895,0.0984162911772728,1.3043067455291748
1630411864750,1.424670696258545,0.2761356830596924,0.1168938875198364,1.3409532308578491
1630411864812,1.424670696258545,0.3313983976840973,0.1459302604198455,1.37622332572937
1630411864923,1.424670696258545,0.3606668710708618,0.1753776520490646,1.401160478591919
1630411865034,1.424670696258545,0.3772428333759308,0.2002789080142974,1.3972796201705933
1630411865110,1.3485283851623535,0.3883864283561706,0.2127854377031326,1.345740556716919
1630411865251,1.3485283851623535,0.3974791169166565,0.2100864499807357,1.2365275621414185
1630411865331,1.3485283851623535,0.3990092873573303,0.1902745515108108,1.0741933584213257
1630411865440,1.3485283851623535,0.3932463526725769,0.1588189303874969,1.0741933584213257
1630411865534,1.3485283851623535,0.3859289586544037,0.1260140538215637,1.0741933584213257
1630411865675,1.3485283851623535,0.3773743212223053,0.1083942428231239,1.0741933584213257
1630411865721,1.3485283851623535,0.3694227337837219,0.1043651327490806,1.0741933584213257
1630411865876,1.3485283851623535,0.355834424495697,0.1005467325448989,1.0741933584213257
1630411865970,0.5684360861778259,0.3320186734199524,0.0941263511776924,0.8829105496406555
1630411866015,0.6229476928710938,0.2814465165138244,0.0938434526324272,0.9481311440467834
1630411866159,0.6877976655960083,0.1936022937297821,0.0938141345977783,0.9971466660499572
1630411866254,0.7368053197860718,0.0768131464719772,0.0842150300741195,1.0194097757339478
1630411866332,0.7632510662078857,-0.0385522469878196,0.0663737207651138,1.0191365480422974
1630411866457,0.7894042730331421,-0.1117816045880317,0.0415762215852737,1.018499493598938
1630411866583,0.8305363059043884,-0.1341344714164734,0.0048260241746902,1.0340497493743896
1630411866771,0.8866262435913086,-0.1136132478713989,-0.0394478701055049,1.063825011253357
1630411866803,0.9368112087249756,-0.0681456178426742,-0.0889830216765403,1.0886354446411133
1630411866897,0.9670882821083068,-0.0115593085065484,-0.1307528167963028,1.100657939910889
1630411866964,0.9745696783065796,0.0354873500764369,-0.1535416692495346,1.098406434059143
1630411867078,0.9649524092674256,0.0602853633463382,-0.1635876446962356,1.0875529050827026
1630411867165,0.966480553150177,0.0714314505457878,-0.1781942993402481,1.0865358114242554
1630411867297,0.9691954851150512,0.0745065808296203,-0.2058658599853515,1.0835223197937012
1630411867354,0.977366268634796,0.0796266794204711,-0.2451845705509185,1.0798746347427368
1630411867449,0.9860855340957642,0.0947922468185424,-0.2915543019771576,1.0695348978042605
1630411867541,0.9918668270111084,0.121842972934246,-0.339642196893692,1.051263451576233
1630411867728,0.9938963055610656,0.1563771516084671,-0.3811557590961456,1.0327059030532837
1630411867776,0.9941313862800598,0.1897730827331543,-0.4141292572021484,1.0248481035232544
1630411867898,0.9920942187309264,0.2154488563537597,-0.4386978447437286,1.027288556098938
1630411867969,0.980124831199646,0.227271631360054,-0.4340548515319824,1.0258890390396118
1630411868075,0.950722873210907,0.2213602513074875,-0.3891009390354156,1.0039798021316528
1630411868198,0.9025002717971802,0.1969625651836395,-0.3269203305244446,0.9634484648704528
1630411868276,0.8505334854125977,0.1555742472410202,-0.2790952920913696,0.9189765453338624
1630411868383,0.8190961480140686,0.1087101623415947,-0.2524313926696777,0.8894445300102234
1630411868497,0.8233334422111511,0.075222447514534,-0.245292842388153,0.8871203660964966
1630411868561,0.851227879524231,0.0655015185475349,-0.249370738863945,0.904774844646454
1630411868668,0.8807790875434875,0.0709659904241561,-0.2571169137954712,0.9291062355041504
1630411868763,0.8966326713562012,0.0787548050284385,-0.2584362030029297,0.943196713924408
1630411868887,0.9027116894721984,0.0788190886378288,-0.2475148886442184,0.9492865800857544
1630411868979,0.9033893942832948,0.0656586438417434,-0.224830761551857,0.9522956609725952
1630411869089,0.8998278975486755,0.0364073440432548,-0.1974808871746063,0.9544892311096193
1630411869197,0.8902164101600647,-0.0074168979190289,-0.1720387190580368,0.9482248425483704
1630411869275,0.8752761483192444,-0.0576042011380195,-0.1567209959030151,0.9278524518013
1630411869374,0.8638501167297363,-0.1009538993239402,-0.1516882926225662,0.8997570872306824
1630411869483,0.8650972843170166,-0.1300033181905746,-0.1571170091629028,0.8740818500518799
1630411869577,0.8825509548187256,-0.1413470953702926,-0.1693645268678665,0.8630174398422241
1630411869702,0.9079481363296508,-0.140880212187767,-0.1920323669910431,0.858384370803833
1630411869780,0.923988163471222,-0.136300191283226,-0.2036827802658081,0.8525755405426025
1630411869874,0.9198822975158693,-0.1420015543699264,-0.1895964592695236,0.834674060344696
1630411870015,0.894131600856781,-0.1619940102100372,-0.1490265429019928,0.799472451210022
1630411870108,0.8568259477615356,-0.1923465579748153,-0.1001041308045387,0.7485803961753845
1630411870218,0.818497359752655,-0.2239828705787658,-0.0580638535320758,0.6911135911941528
1630411870329,0.783270001411438,-0.2415609657764434,-0.0332666561007499,0.6385140419006348
1630411870423,0.7503356337547302,-0.2381304800510406,-0.0256096348166465,0.5937149524688721
1630411870532,0.7216117978096008,-0.2191342264413833,-0.0313271731138229,0.5565524697303772
1630411870611,0.7023773193359375,-0.1941137313842773,-0.0420274101197719,0.5292372703552246
1630411870736,0.6948134899139404,-0.1748062670230865,-0.0483512990176677,0.5258362293243408
1630411870860,0.6951292157173157,-0.1626629084348678,-0.0420585423707962,0.5455552339553833
1630411870923,0.695196807384491,-0.1533749252557754,-0.0220588948577642,0.577980637550354
1630411871032,0.6854472756385803,-0.1430808752775192,-0.000460796727566,0.6076381802558899
1630411871126,0.6598708629608154,-0.1372899264097213,0.0108041623607277,0.6293747425079346
1630411871204,0.620809018611908,-0.1368393152952194,0.012180627323687,0.6581939458847046
1630411871347,0.5917981266975403,-0.1421223133802414,0.0007212634081952,0.7061753273010254
1630411871457,0.5897306799888611,-0.1424302458763122,-0.0270092077553272,0.764164924621582
1630411871550,0.611872136592865,-0.1388316601514816,-0.0705698207020759,0.8148321509361267
1630411871629,0.6388211250305176,-0.1358432024717331,-0.120311751961708,0.8511735796928406
1630411871707,0.6545616984367371,-0.134901538491249,-0.1625855565071106,0.8733195066452026
1630411871832,0.6634534001350403,-0.1436218321323394,-0.1874644756317138,0.8851614594459534
1630411871925,0.6673580408096313,-0.1609950810670852,-0.1958587914705276,0.8894505500793457
1630411872082,0.6613702178001404,-0.1822341233491897,-0.1924492418766021,0.8858802318572998
1630411872144,0.6435056924819946,-0.199888214468956,-0.1872089952230453,0.8761968016624451
1630411872312,0.6186903119087219,-0.1996645778417587,-0.1891082525253296,0.8605428338050842
1630411872366,0.5932530760765076,-0.1746780574321746,-0.2065218687057495,0.8431004285812378
1630411872397,0.5733423233032227,-0.1417959034442901,-0.2505734264850616,0.8225133419036865
1630411872569,0.5638051629066467,-0.1070291399955749,-0.314890444278717,0.799857497215271
1630411872662,0.5635860562324524,-0.072851225733757,-0.3784121572971344,0.7756168842315674
1630411872819,0.5595865249633789,-0.0419973582029342,-0.4172547459602356,0.7375287413597107
1630411872850,0.5356820225715637,-0.023848783224821,-0.433232307434082,0.6734578609466553
1630411872928,0.4877896010875702,-0.0215510260313749,-0.4380455017089844,0.5883201956748962
1630411873069,0.4223116338253021,-0.0269916485995054,-0.4396570324897766,0.5024102926254272
1630411873209,0.3559953272342682,-0.0331796593964099,-0.4440975189208984,0.4341691434383392
1630411873256,0.3123903274536133,-0.0205789804458618,-0.4579284489154815,0.3893226981163025
1630411873381,0.2993520498275757,0.0352611914277076,-0.4755858182907104,0.3803927004337311
1630411873475,0.3058089911937713,0.1250205338001251,-0.4957102835178375,0.4099784791469574
1630411873537,0.3223055005073547,0.2185790240764618,-0.5248702168464661,0.4636889696121216
1630411873647,0.3333552777767181,0.2897380888462066,-0.5628239512443542,0.5072537660598755
1630411873787,0.3288041055202484,0.3319047093391418,-0.6123177409172058,0.530508816242218
1630411873912,0.3148520588874817,0.3513055145740509,-0.6637172698974609,0.5279618501663208
1630411874021,0.29749795794487,0.3599537014961242,-0.7033773064613342,0.5165700316429138
1630411874100,0.2735554277896881,0.3573833703994751,-0.7157897353172302,0.5085446834564209
1630411874209,0.2354884296655655,0.3482109904289245,-0.6800386905670166,0.50424724817276
1630411874240,0.1853356063365936,0.3352125585079193,-0.5889157056808472,0.5037827491760254
1630411874415,0.1312994956970214,0.3264232277870178,-0.4550268650054931,0.5053042769432068
1630411874509,0.085858941078186,0.3266345262527466,-0.3146018385887146,0.500518798828125
1630411874587,0.0559489615261554,0.3337660133838653,-0.2057472020387649,0.4870658814907074
1630411874681,0.0330739691853523,0.3453038930892944,-0.1365796476602554,0.4657523036003113
1630411874774,0.0150405056774616,0.3541764318943023,-0.1051520109176635,0.4493119418621063
1630411874899,-0.0067177321761846,0.3463294208049774,-0.0949842408299446,0.4382029175758362
1630411875024,-0.021773986518383,0.3124982416629791,-0.0895156934857368,0.4258997142314911
1630411875087,0.0043559372425079,0.2515169978141784,-0.0812254175543785,0.421300321817398
1630411875196,0.0791987180709838,0.1818902492523193,-0.0710635632276535,0.4477761685848236
1630411875321,0.1605097949504852,0.1281715929508209,-0.0565635822713375,0.4976539313793182
1630411875385,0.2151033878326416,0.1061219349503517,-0.0378515198826789,0.5491950511932373
1630411875465,0.2367613613605499,0.1075845137238502,-0.019630329683423,0.5874325633049011
1630411875637,0.244944155216217,0.1233859881758689,-0.0081439949572086,0.6141155362129211
1630411875699,0.250564694404602,0.1325706541538238,-0.010991133749485,0.6316471695899963
1630411875840,0.2618822455406189,0.1315622478723526,-0.0306137967854738,0.6395237445831299
1630411875887,0.2878241539001465,0.1219940334558487,-0.0717519298195838,0.6377503275871277
1630411875996,0.3232310116291046,0.104513444006443,-0.1361664235591888,0.6306955218315125
1630411876121,0.3583494126796722,0.0832849889993667,-0.2119728028774261,0.6221868991851807
1630411876261,0.3867674767971039,0.0588722676038742,-0.2766189277172088,0.6150947213172913
1630411876308,0.4101682901382446,0.0302981492131948,-0.2949784398078918,0.6084530353546143
1630411876452,0.4283173382282257,0.0035871418658643,-0.2750147581100464,0.6015222072601318
1630411876515,0.4373904168605804,-0.0129661681130528,-0.2481879293918609,0.5939013957977295
1630411876577,0.4302866458892822,-0.012883611023426,-0.2338748276233673,0.5755860805511475
1630411876702,0.4072795212268829,-0.0092404969036579,-0.2346755862236023,0.531745970249176
1630411876812,0.3892242312431335,-0.0183817725628614,-0.2518245875835418,0.4676570892333984
1630411876921,0.4010277688503265,-0.0550399273633956,-0.2823283672332763,0.4177497327327728
1630411877030,0.4593783617019653,-0.119675301015377,-0.310578852891922,0.4181489050388336
1630411877124,0.5497337579727173,-0.1941782683134079,-0.3229138851165771,0.4709064662456512
1630411877233,0.6507925391197205,-0.2433375865221023,-0.3179649114608764,0.5662931203842163
1630411877311,0.7371776103973389,-0.2545695900917053,-0.3135871291160583,0.6704766750335693
1630411877424,0.7930839657783508,-0.2408631592988968,-0.3204009234905243,0.7646000981330872
1630411877502,0.8287472128868103,-0.2199120968580246,-0.3396499752998352,0.855288565158844
1630411877627,0.8613277077674866,-0.2047477662563324,-0.3637928962707519,0.9471405744552612
1630411877721,0.8947142362594604,-0.1937946081161499,-0.3906230628490448,1.0278599262237549
1630411877799,0.9241570234298706,-0.1893895119428634,-0.42227903008461,1.0890296697616575
1630411877924,0.9437455534934998,-0.1903557032346725,-0.4576684534549713,1.1320133209228516
1630411878065,0.9518023133277892,-0.2023321241140365,-0.4860914647579193,1.1569247245788574
1630411878127,0.959059715270996,-0.2133577018976211,-0.4897912740707397,1.174696445465088
1630411878236,0.9736161231994628,-0.2058889865875244,-0.4639899730682373,1.1964112520217896
1630411878346,0.9885833263397216,-0.1799541860818863,-0.42003133893013,1.221634864807129
1630411878458,0.9927796125411988,-0.1456290483474731,-0.3698900043964386,1.2378379106521606
1630411878536,0.9822777509689332,-0.1142680421471595,-0.3232304155826568,1.240578532218933
1630411878677,0.9591200351715088,-0.0828465968370437,-0.2806099951267242,1.233151912689209
1630411878786,0.9253862500190736,-0.0447557382285594,-0.2433472573757171,1.2146376371383667
1630411878833,0.8846803903579712,-0.0035685286857187,-0.2065854221582412,1.1885758638381958
1630411878958,0.8482062816619873,0.0298523977398872,-0.1677705347537994,1.1600736379623413
1630411879052,0.8185186982154846,0.0564431361854076,-0.1305669993162155,1.12459397315979
1630411879160,0.785538375377655,0.0857463032007217,-0.1024147495627403,1.0799028873443604
1630411879268,0.7586209177970886,0.1185185834765434,-0.0813483521342277,1.043303608894348
1630411879378,0.7551965713500977,0.1511310636997223,-0.06247129291296,1.037004828453064
1630411879503,0.7725473046302795,0.176432192325592,-0.0412437282502651,1.0522229671478271
1630411879550,0.7957887053489685,0.1943022757768631,-0.0171292405575513,1.077148675918579
1630411879659,0.8049736022949219,0.1991338580846786,0.0039918413385748,1.100381851196289
1630411879737,0.7933194041252136,0.1891911327838897,0.0178593210875988,1.1136456727981567
1630411879878,0.771466851234436,0.1708448827266693,0.0220285225659608,1.1136350631713867
1630411879971,0.7587102055549622,0.149932324886322,0.0205789934843778,1.1129006147384644
1630411880049,0.7611727118492126,0.1351798474788665,0.0211901571601629,1.1235849857330322
1630411880143,0.7683563232421875,0.1263714134693145,0.0272861570119857,1.1373529434204102
1630411880253,0.7699090838432312,0.1172499433159828,0.0335002541542053,1.1489663124084473
1630411880346,0.7652859687805176,0.1008800566196441,0.0329833291471004,1.1572967767715454
1630411880508,0.758064329624176,0.0806577131152153,0.0266863256692886,1.16196608543396
1630411880570,0.7485764622688293,0.0573218427598476,0.0197561513632535,1.166048526763916
1630411880664,0.7380086779594421,0.0247471034526824,0.0202503111213445,1.1650454998016355
1630411880757,0.720429539680481,-0.0117820771411061,0.0349836871027946,1.1520200967788696
1630411880898,0.6934328675270081,-0.0389675982296466,0.0526063740253448,1.11955463886261
1630411880961,0.6738507151603699,-0.0371609441936016,0.0656068846583366,1.0802679061889648
1630411881086,0.674744725227356,-0.0002375892800046,0.0698327794671058,1.0486607551574707
1630411881195,0.689100444316864,0.0754547640681266,0.0666400641202926,1.0243172645568848
1630411881273,0.7061308026313782,0.175187349319458,0.0613876841962337,0.9970386624336244
1630411881398,0.720453143119812,0.2691679000854492,0.0620912238955497,0.9701923131942748
1630411881463,0.729486882686615,0.3371584713459015,0.0679089576005935,0.9524036645889282
1630411881573,0.7287121415138245,0.3728998601436615,0.0705178454518318,0.9366304874420166
1630411881729,0.7178419828414917,0.3848066329956054,0.0685563907027244,0.9268750548362732
1630411881776,0.7030978798866272,0.3842968940734863,0.0736149251461029,0.9293970465660096
1630411881885,0.6985134482383728,0.3820889890193939,0.0955793708562851,0.9374011754989624
1630411881979,0.7092800140380859,0.3803566396236419,0.1269948333501815,0.942456066608429
1630411882073,0.7454670071601868,0.3829436302185058,0.1520539224147796,0.9552905559539796
1630411882198,0.8229389786720276,0.3878198862075805,0.1626712381839752,0.9974867701530457
1630411882338,0.8397052884101868,0.3894341289997101,0.1531499624252319,1.059181571006775
1630411882432,0.8465445637702942,0.3828552365303039,0.1317544281482696,1.070134162902832
1630411882494,0.8385071158409119,0.3653689324855804,0.1047744452953338,1.076075315475464
1630411882651,0.8202534914016724,0.3376596868038177,0.0794455781579017,1.075136661529541
1630411882697,0.902780532836914,0.293953537940979,0.0642804726958274,1.128109097480774
1630411882791,0.9351695775985718,0.2249458283185959,0.0598046444356441,1.165613889694214
1630411882916,0.9500482082366944,0.1336096078157425,0.0582619570195674,1.1960089206695557
1630411882994,0.9650043249130248,0.0439909808337688,0.0517298243939876,1.2187385559082031
1630411883104,0.9880069494247437,-0.0119842952117323,0.0395596511662006,1.236847996711731
1630411883197,1.0102838277816772,-0.0349406488239765,0.0205311961472034,1.2457562685012815
1630411883322,1.023790955543518,-0.0494138002395629,-0.0107289152219891,1.2427829504013062
1630411883385,1.0259943008422852,-0.0711424425244331,-0.0654099881649017,1.2339870929718018
1630411883559,1.0201475620269775,-0.0957772880792617,-0.137607529759407,1.225630521774292
1630411883653,1.0058658123016355,-0.1302148401737213,-0.2040912806987762,1.2154921293258667
1630411883731,0.9628081321716307,-0.1691315025091171,-0.2436133921146392,1.188186764717102
1630411883825,0.9618636965751648,-0.2049653679132461,-0.2505823671817779,1.1382083892822266
1630411883903,0.9620583653450012,-0.2284264266490936,-0.2411827892065048,1.1275688409805298
1630411883996,0.9640061855316162,-0.2415474653244018,-0.2264459431171417,1.1148347854614258
1630411884137,0.9681444764137268,-0.2577946782112121,-0.2068939954042434,1.098793625831604
1630411884215,0.921661376953125,-0.2845616936683655,-0.1933461725711822,1.0303411483764648
1630411884327,0.9047723412513732,-0.3191559314727783,-0.183802455663681,0.9681633114814758
1630411884421,0.9013710618019104,-0.356936365365982,-0.1730591058731079,0.9139516949653624
1630411884515,0.8992751836776733,-0.3855498135089874,-0.1609153300523758,0.8676971197128296
1630411884640,0.8894122838973999,-0.3896315991878509,-0.1554070264101028,0.8226305842399597
1630411884765,0.8772096633911133,-0.3588046133518219,-0.1601097136735916,0.7947431206703186
1630411884827,0.8695171475410461,-0.2981830537319183,-0.1706936806440353,0.8023326992988586
1630411884937,0.8683534264564514,-0.227169394493103,-0.1754810512065887,0.8400464057922363
1630411885046,0.8679459095001221,-0.1665908694267273,-0.1785019189119339,0.8825446963310242
1630411885140,0.8569899201393127,-0.1255846470594406,-0.1830622106790542,0.9054288268089294
1630411885218,0.8313698768615723,-0.0987730845808982,-0.1915193349123001,0.9077047109603882
1630411885377,0.7978803515434265,-0.0782717242836952,-0.1946968585252761,0.8954963088035583
1630411885518,0.7604988217353821,-0.0562881119549274,-0.1805192083120346,0.8757333755493164
1630411885549,0.7189831733703613,-0.0279186535626649,-0.1502958834171295,0.8589312434196472
1630411885643,0.6717361211776733,0.0048142219893634,-0.1221838295459747,0.8495380282402039
1630411885783,0.6234560608863831,0.0388214401900768,-0.1100053712725639,0.8462873101234436
1630411885830,0.5774967670440674,0.0685637593269348,-0.1239762231707573,0.8459302186965942
1630411885971,0.5506336092948914,0.1013249158859252,-0.1570551842451095,0.8547089695930481
1630411886080,0.5424037575721741,0.1286760121583938,-0.196456953883171,0.8751389384269714
1630411886221,0.5457009077072144,0.146031767129898,-0.2269878685474395,0.9061366319656372
1630411886276,0.5582696795463562,0.1559498161077499,-0.2388789355754852,0.9408087730407716
1630411886338,0.5793402791023254,0.1580818891525268,-0.2361564040184021,0.966270923614502
1630411886479,0.5955779552459717,0.1536063551902771,-0.230563223361969,0.974457323551178
1630411886619,0.6024197936058044,0.1450797617435455,-0.2243572920560836,0.966303050518036
1630411886651,0.6010295748710632,0.1416782438755035,-0.2118279784917831,0.9501606822013856
1630411886744,0.5992143154144287,0.1432590037584304,-0.1838856935501098,0.939666986465454
1630411886869,0.6031602025032043,0.1472459435462951,-0.1526814997196197,0.9513679146766664
1630411887010,0.6161268949508667,0.1457367241382599,-0.1392737627029419,0.9904422163963318
1630411887072,0.6415925025939941,0.1381563246250152,-0.1606212258338928,1.050889253616333
1630411887213,0.6875767707824707,0.1287589073181152,-0.208810269832611,1.1303640604019165
1630411887307,0.7517527937889099,0.1175767853856086,-0.2530867159366607,1.2147748470306396
1630411887385,0.8172720670700073,0.1030424535274505,-0.2603155672550201,1.2380081415176392
1630411887478,0.8610935807228088,0.0766885504126548,-0.2377992272377014,1.2587196826934814
1630411887572,0.8779210448265076,0.0423085950314998,-0.2092718034982681,1.290636658668518
1630411887666,0.8760172128677368,0.0144616868346929,-0.1894505620002746,1.293436884880066
1630411887791,0.8647623658180237,0.0083369705826044,-0.1789506077766418,1.2794898748397827
1630411887932,0.8477733135223389,0.0255820993334054,-0.1680385768413543,1.2595232725143433
1630411888010,0.8311807513237,0.0464824996888637,-0.1494296789169311,1.2399982213974
1630411888103,0.8204787373542786,0.0557014420628547,-0.1296111941337585,1.233199119567871
1630411888181,0.8194735646247864,0.0483688302338123,-0.1210805252194404,1.2416218519210815
1630411888281,0.8275107145309448,0.0303842332214117,-0.1338465511798858,1.2591736316680908
1630411888406,0.8364723324775696,0.0078791920095682,-0.165385752916336,1.2722774744033811
1630411888531,0.8418694138526917,-0.0119221955537796,-0.1991058737039566,1.267176628112793
1630411888640,0.844236433506012,-0.0276787914335727,-0.2143494933843612,1.2365198135375977
1630411888703,0.8419116139411926,-0.033174093812704,-0.209948182106018,1.1703832149505615
1630411888797,0.8455728888511658,-0.01631117798388,-0.2018151879310608,1.070778489112854
1630411888890,0.8742478489875793,0.0222460273653268,-0.2050996720790863,1.084141969680786
1630411889015,0.9267085194587708,0.063228078186512,-0.2192677557468414,1.1183072328567505
1630411889125,0.9791914820671082,0.0903299674391746,-0.2331947237253189,1.1199607849121094
1630411889223,1.0136164426803589,0.0930652022361755,-0.2411766797304153,1.133710265159607
1630411889288,1.0330936908721924,0.0670015141367912,-0.2475378513336181,1.1428968906402588
1630411889398,1.0471556186676023,0.0183787290006876,-0.2607943415641784,1.1420706510543823
1630411889476,1.0603132247924805,-0.0246929358690977,-0.2655206322669983,1.1375339031219482
1630411889648,1.0813754796981812,-0.0208520386368036,-0.2398508042097091,1.135101318359375
1630411889726,1.1082971096038818,0.0340263582766056,-0.1851567476987838,1.1330031156539917
1630411889820,1.1298657655715942,0.1090112552046775,-0.1255648285150528,1.1247739791870115
1630411889929,1.1403138637542725,0.1698162257671356,-0.0827313214540481,1.1060994863510132
1630411890023,1.1416488885879517,0.2039919644594192,-0.0655751973390579,1.0868911743164062
1630411890116,1.1361229419708252,0.2159594148397445,-0.0648279041051864,1.0750069618225098
1630411890309,1.1235380172729492,0.2107759714126587,-0.0717356950044632,1.0723488330841064
1630411890340,1.118818759918213,0.1902289986610412,-0.0786058902740478,1.0836001634597778
1630411890465,1.0896625518798828,0.1620687246322631,-0.0809183195233345,1.0701767206192017
1630411890543,1.0343281030654907,0.1404058784246444,-0.0751120597124099,1.0203596353530884
1630411890652,0.96897691488266,0.1480265706777572,-0.0648747310042381,0.945795476436615
1630411890746,0.9222812056541444,0.1901360154151916,-0.0534065701067447,0.8769076466560364
1630411890855,0.9036744236946106,0.2432723194360733,-0.046946819871664,0.8383304476737976
1630411890980,0.9036582708358764,0.2784578800201416,-0.0488108284771442,0.8396044373512268
1630411891074,0.913443088531494,0.2931012213230133,-0.0676726996898651,0.8629190325737
1630411891168,0.8980969786643982,0.2962802648544311,-0.1111862286925315,0.8645513653755188
1630411891293,0.8329411149024963,0.3012714385986328,-0.1712207645177841,0.8308162689208984
1630411891355,0.7212209105491638,0.3261856138706207,-0.2208642959594726,0.7611772418022156
1630411891480,0.7212209105491638,0.3832277953624725,-0.2273062616586685,0.7611772418022156
1630411891561,0.7212209105491638,0.4592768549919128,-0.1885131001472473,0.7611772418022156
1630411891702,0.7212209105491638,0.5219643712043762,-0.1423777043819427,0.7611772418022156
1630411891733,0.7212209105491638,0.559137761592865,-0.1070756316184997,0.7611772418022156
1630411891827,0.7212209105491638,0.5755264163017273,-0.0859938785433769,0.7611772418022156
1630411891905,0.7212209105491638,0.5776909589767456,-0.076018251478672,0.7611772418022156
1630411892045,0.7212209105491638,0.5712864398956299,-0.078569084405899,0.7611772418022156
1630411892202,0.7212209105491638,0.5556434392929077,-0.0947623699903488,0.7611772418022156
1630411892298,0.7212209105491638,0.530600905418396,-0.1170654669404029,0.7611772418022156
1630411892345,0.7212209105491638,0.5019649267196655,-0.1353653669357299,0.7611772418022156
1630411892454,0.7212209105491638,0.4840300679206848,-0.144589826464653,0.7611772418022156
1630411892533,1.4110870361328125,0.4775230586528778,-0.1469962298870086,0.7611772418022156
1630411892689,1.3383581638336182,0.4703657627105713,-0.1484373956918716,0.7611772418022156
1630411892814,1.272380828857422,0.4502852857112884,-0.1548265963792801,0.852222740650177
1630411892861,1.2139530181884766,0.4043702781200409,-0.1673018783330917,0.8376969695091248
1630411892970,1.1633083820343018,0.321558266878128,-0.1739725172519683,0.8327520489692688
1630411893048,1.124495029449463,0.1951593905687332,-0.1675433367490768,0.8337513208389282
1630411893126,1.10200834274292,0.0477853864431381,-0.1532115340232849,0.8458408117294312
1630411893314,1.0990443229675293,-0.0777029916644096,-0.1447444707155227,0.8821178674697876
1630411893407,0.9706541299819946,-0.145694300532341,-0.1409605145454406,0.9306645393371582
1630411893470,0.8982053399085999,-0.1524911224842071,-0.1388306319713592,0.9674294590950012
1630411893567,0.9260222315788268,-0.129552349448204,-0.1291371285915374,0.9796606302261353
1630411893676,0.9269813299179076,-0.1007344797253608,-0.0919902697205543,0.9760238528251648
1630411893816,0.9109721183776855,-0.0750015974044799,-0.0332767404615879,0.9682509303092957
1630411893879,0.8887754678726196,-0.0603204555809497,0.0200610775500535,0.9606602191925048
1630411893973,0.8808209896087646,-0.0512885525822639,0.0571860186755657,0.962290585041046
1630411894082,0.8770348429679871,-0.036971416324377,0.0793266594409942,0.9682365655899048
1630411894207,0.8848059177398682,0.0017785264644771,0.0953671485185623,0.9790081977844238
1630411894285,0.9064241051673888,0.0735119506716728,0.1077282801270484,0.9942235946655272
1630411894394,0.9367792010307312,0.1585087180137634,0.1112235486507415,1.0111521482467651
1630411894488,0.9726046323776244,0.2261521965265274,0.0982023701071739,1.0288734436035156
1630411894601,1.006145715713501,0.267897218465805,0.0716386660933494,1.0476319789886477
1630411894694,1.0273001194000244,0.2891148924827575,0.0436750017106533,1.0629249811172483
1630411894804,1.0200861692428589,0.3002188801765442,0.0207598190754652,1.056930422782898
1630411894882,0.9688833355903624,0.3061639666557312,0.0012041227892041,1.0150712728500366
1630411895147,0.8617352843284607,0.3078341782093048,-0.0336520485579967,0.941481590270996
1630411895210,0.8617352843284607,0.3146622478961944,-0.0642970576882362,0.941481590270996
1630411895335,0.8617352843284607,0.3348892033100128,-0.1082476750016212,0.941481590270996
1630411895413,0.8617352843284607,0.368572324514389,-0.1352545768022537,0.941481590270996
1630411895491,0.8617352843284607,0.3981031477451324,-0.1255313158035278,0.8453626036643982
1630411895600,0.6580510139465332,0.409614086151123,-0.093923732638359,0.9285483360290528
1630411895741,0.6880001425743103,0.4023380279541015,-0.0708504468202591,0.9820346832275392
1630411895803,0.6920278668403625,0.3760421276092529,-0.0698605999350547,1.0052731037139893
1630411896022,0.6828296184539795,0.3374628722667694,-0.0835161730647087,1.0033137798309326
1630411896100,0.6789776682853699,0.3001916408538818,-0.099897988140583,0.9880146384239196
1630411896147,0.6886780858039856,0.2704062461853027,-0.1143815740942955,0.9745857119560242
1630411896210,0.7086440324783325,0.2522903382778168,-0.1254715472459793,0.9738448858261108
1630411896319,0.7208253145217896,0.2475341558456421,-0.1267162561416626,0.9891538023948668
1630411896428,0.7168472409248352,0.2534446120262146,-0.1207747012376785,1.0114589929580688
1630411896553,0.699667751789093,0.2643569409847259,-0.1113056764006614,1.028062105178833
1630411896725,0.6792487502098083,0.2718693315982818,-0.092154324054718,1.031348466873169
1630411896756,0.6668721437454224,0.2681424021720886,-0.0573473423719406,1.0406341552734375
1630411896819,0.67873615026474,0.2456961423158645,-0.0168216452002525,1.049952745437622
1630411897006,0.7065626382827759,0.2032727897167205,0.0093018850311636,1.0639625787734983
1630411897069,0.7332046031951904,0.1545826643705368,0.0137047991156578,1.0805847644805908
1630411897147,0.741876482963562,0.1190725788474083,0.0077416338026523,1.0744632482528689
1630411897241,0.7370396852493286,0.0908387079834938,0.0067167398519814,1.0651229619979858
1630411897319,0.7410029172897339,0.0612654164433479,0.0143587468191981,1.059893250465393
1630411897412,0.7566553950309753,0.0225257501006126,0.0203103683888912,1.097911357879639
1630411897557,0.7901102900505066,-0.02561198733747,0.019862625747919,1.156301975250244
1630411897651,0.8401879668235779,-0.0685240402817726,0.0157179329544305,1.228097677230835
1630411897745,0.884070873260498,-0.1052071526646614,0.0146831860765814,1.2867993116378784
1630411897870,0.9136125445365906,-0.1483412981033325,0.0228770226240158,1.3188848495483398
1630411897963,0.9383912086486816,-0.2041036933660507,0.0432649627327919,1.3333746194839478
1630411898026,0.9673051834106444,-0.2601698040962219,0.0712660551071167,1.3440569639205933
1630411898167,1.0022608041763306,-0.2971424758434295,0.1037917360663414,1.35985267162323
1630411898260,1.0388469696044922,-0.3073529601097107,0.1369852572679519,1.382532000541687
1630411898341,1.0662842988967896,-0.3067711293697357,0.1610697954893112,1.3999778032302856
1630411898482,1.0798670053482056,-0.3105795383453369,0.1712425947189331,1.4093657732009888
1630411898591,1.0858423709869385,-0.3165153861045837,0.1659788787364959,1.4154891967773438
1630411898638,1.091969013214111,-0.3076339662075043,0.151418462395668,1.4110777378082275
1630411898810,1.100121259689331,-0.2498650997877121,0.1355726271867752,1.403858661651611
1630411898857,1.1029645204544067,-0.1727472245693206,0.1262901425361633,1.392778992652893
1630411898966,1.097097635269165,-0.0961919575929641,0.1280138045549392,1.3787555694580078
1630411899075,1.077236533164978,-0.0206444803625345,0.1342766284942627,1.3520036935806274
1630411899175,1.039706468582153,0.0509947314858436,0.1388569623231887,1.3078815937042236
1630411899237,0.9946115016937256,0.1114120334386825,0.1414800137281417,1.2565927505493164
1630411899365,0.9550173282623292,0.1536146700382232,0.1438499242067337,1.212212324142456
1630411899475,0.9204245209693908,0.1762838065624237,0.1447510868310928,1.1755508184432983
1630411899599,0.883270263671875,0.1835137903690338,0.142745167016983,1.1405280828475952
1630411899646,0.8340087532997131,0.1823121011257171,0.1270555555820465,1.1036986112594604
1630411899771,0.7658924460411072,0.1764579564332962,0.0877369120717048,1.059360384941101
1630411899849,0.6910682916641235,0.1699903160333633,0.0397885628044605,1.0133090019226074
1630411900038,0.6350152492523193,0.1657424867153167,0.011254140175879,0.968536913394928
1630411900124,0.6166503429412842,0.1674059331417083,0.015282629057765,0.9157847762107848
1630411900211,0.6383801698684692,0.1743753105401992,0.0341198593378067,0.8569942712783813
1630411900275,0.6769356727600098,0.176320806145668,0.0446619801223278,0.8009782433509827
1630411900356,0.7236762642860413,0.1782872080802917,0.0377506464719772,0.7618032097816467
1630411900482,0.781562089920044,0.1820571720600128,0.0209971088916063,0.7666978240013123
1630411900606,0.8414656519889832,0.1804459542036056,0.0061715296469628,0.8073087930679321
1630411900715,0.8939793109893799,0.1655668020248413,-0.0033158229198306,0.8606719374656677
1630411900827,0.9348281025886536,0.1432081162929535,-0.0123256109654903,0.9061660766601562
1630411900858,0.957758605480194,0.122979536652565,-0.0286751426756382,0.9335026144981384
1630411900967,0.9662235379219056,0.1120369359850883,-0.0517336018383502,0.95027494430542
1630411901061,0.9678091406822203,0.110832929611206,-0.0769446268677711,0.9639936685562134
1630411901217,0.9665992259979248,0.1088414415717125,-0.097210556268692,0.9690338373184204
1630411901358,0.96754789352417,0.1064508706331253,-0.110880970954895,0.9692596793174744
1630411901388,0.9689692854881288,0.1034822538495063,-0.1348218023777008,0.96747624874115
1630411901483,0.965186595916748,0.1022613868117332,-0.1830103695392608,0.9622779488563538
1630411901627,0.948922872543335,0.1009231507778167,-0.2539530992507934,0.9511199593544006
1630411901701,0.9172370433807372,0.0974331870675087,-0.3250147998332977,0.9387328028678894
1630411901821,0.8739072680473328,0.0936569422483444,-0.3622010052204132,0.9275828003883362
1630411901911,0.8223085403442383,0.0878910422325134,-0.3524655401706695,0.9188379645347596
1630411902003,0.767652690410614,0.0753488764166832,-0.3207247257232666,0.91525000333786
1630411902098,0.7158035039901733,0.0560617819428443,-0.2912969887256622,0.925857961177826
1630411902178,0.6703563332557678,0.0381481684744358,-0.2708933055400848,0.9439085721969604
1630411902306,0.6301696300506592,0.0241934210062026,-0.2621792554855346,0.9600721597671508
1630411902461,0.6053736805915833,0.0159065201878547,-0.2660234570503235,0.9739454984664916
1630411902528,0.5963143110275269,0.0137897143140435,-0.2768272161483764,0.9842603802680968
1630411902618,0.5968642234802246,0.0156741440296173,-0.2853054404258728,0.9941966533660888
1630411902746,0.6011502146720886,0.0217252224683761,-0.2825117707252502,1.0050431489944458
1630411902790,0.6056311726570129,0.0348895452916622,-0.2679638266563415,1.0186060667037964
1630411902886,0.6100432276725769,0.0624848380684852,-0.2429527193307876,1.0310070514678955
1630411903119,0.6133052110671997,0.0996251851320266,-0.2174579799175262,1.042518138885498
1630411903140,0.6124008893966675,0.1369919031858444,-0.1982634663581848,1.049128174781799
1630411903245,0.6079578995704651,0.1701040714979171,-0.1863317191600799,1.0489193201065063
1630411903349,0.6098651885986328,0.1989542841911316,-0.1775777339935302,1.044956088066101
1630411903470,0.6213300228118896,0.2300274819135666,-0.169007197022438,1.036593317985535
1630411903511,0.6319198608398438,0.2676116824150085,-0.1579347103834152,1.0164411067962646
1630411903678,0.6300956606864929,0.3040187358856201,-0.1468984633684158,0.9733416438102722
1630411903734,0.6110219359397888,0.3264318406581878,-0.1410438120365142,0.9095695614814758
1630411903841,0.5813506245613098,0.3350061774253845,-0.1410045027732849,0.8363631963729858
1630411903950,0.5557098388671875,0.3339906930923462,-0.1335809826850891,0.767244815826416
1630411904000,0.5401260852813721,0.3290549218654632,-0.1101086288690567,0.7050407528877258
1630411904100,0.5294167399406433,0.3232718408107757,-0.0787825211882591,0.6394966244697571
1630411904257,0.5203999876976013,0.3172713220119476,-0.0546971447765827,0.5824484825134277
1630411904377,0.5030473470687866,0.3092209696769714,-0.0400333181023597,0.5291228294372559
1630411904440,0.4720534384250641,0.2937534749507904,-0.0358986891806125,0.4802926480770111
1630411904565,0.4339313805103302,0.267372578382492,-0.0385172702372074,0.4320564866065979
1630411904596,0.4117332696914673,0.2311698198318481,-0.0422637872397899,0.4215019941329956
1630411904726,0.4208953082561493,0.1876556575298309,-0.0485136471688747,0.4668559432029724
1630411904883,0.4510010182857513,0.1365178972482681,-0.0618862137198448,0.5377901792526245
1630411904994,0.4731283783912658,0.0670417696237564,-0.0824960395693779,0.599402904510498
1630411905028,0.4722183644771576,-0.032332420349121,-0.1102907657623291,0.6412138938903809
1630411905150,0.4515128135681152,-0.151470810174942,-0.140271246433258,0.6686956882476807
1630411905229,0.4312146008014679,-0.235254019498825,-0.162561222910881,0.6908502578735352
1630411905327,0.4235993027687073,-0.2522661983966827,-0.1642463952302932,0.706623911857605
1630411905500,0.4280099272727966,-0.2112928628921508,-0.1513104289770126,0.7136761546134949
1630411905594,0.4410506784915924,-0.1650682389736175,-0.145333856344223,0.7156112790107727
1630411905656,0.4629949927330017,-0.1379570513963699,-0.1610435098409652,0.7188599705696106
1630411905750,0.4989925324916839,-0.1304569095373153,-0.1942306607961654,0.7255725264549255
1630411905844,0.5491050481796265,-0.1372788548469543,-0.2341309487819671,0.7410402297973633
1630411905922,0.6024708151817322,-0.1501084566116333,-0.2628057301044464,0.7593379616737366
1630411906064,0.646798312664032,-0.1635293662548065,-0.2657757401466369,0.7715153098106384
1630411906158,0.6708362102508545,-0.1707957834005355,-0.2474641352891922,0.764121413230896
1630411906268,0.6756459474563599,-0.1716846376657486,-0.2242242693901062,0.7377438545227051
1630411906379,0.6691915988922119,-0.1627352386713028,-0.2068421393632888,0.7031838893890381
1630411906457,0.6604010462760925,-0.1435828208923339,-0.2000959068536758,0.671705424785614
1630411906569,0.6516073942184448,-0.1227066963911056,-0.1997093707323074,0.6440252661705017
1630411906712,0.6481727957725525,-0.1120738834142685,-0.2024150788784027,0.6192540526390076
1630411906774,0.6489752531051636,-0.1218907833099365,-0.2087346613407135,0.5976386666297913
1630411906854,0.6527395248413086,-0.1529850959777832,-0.2266529202461242,0.5848595499992371
1630411907029,0.6600632667541504,-0.2002364248037338,-0.2638612389564514,0.5837207436561584
1630411907089,0.6768226027488708,-0.2330403327941894,-0.3136140406131744,0.5923786163330078
1630411907164,0.7054554224014282,-0.2340428084135055,-0.3595789968967438,0.6082949042320251
1630411907275,0.7354048490524292,-0.2066305577754974,-0.3856748044490814,0.6252024173736572
1630411907434,0.7536782026290894,-0.1712929308414459,-0.3932892382144928,0.6341959834098816
1630411907494,0.754366934299469,-0.1437659412622451,-0.3853520154953003,0.6476625800132751
1630411907604,0.7415804266929626,-0.122075505554676,-0.3837472796440124,0.6849188208580017
1630411907683,0.7270063757896423,-0.1029700562357902,-0.3971098661422729,0.7497292757034302
1630411907793,0.7119880318641663,-0.0863237455487251,-0.4225521981716156,0.8184987306594849
1630411907888,0.6973087787628174,-0.0779403373599052,-0.4467895627021789,0.8709088563919067
1630411907982,0.6915396451950073,-0.0729529187083244,-0.4531767964363098,0.9098339080810548
1630411908093,0.7024332880973816,-0.0658361688256263,-0.4470941126346588,0.9472742080688475
1630411908169,0.7217721939086914,-0.048479214310646,-0.4410819411277771,0.9842889904975892
1630411908276,0.7352943420410156,-0.0174459405243396,-0.4394087791442871,1.010176420211792
1630411908385,0.7368142008781433,0.0209335517138242,-0.4435356855392456,1.0240572690963743
1630411908513,0.726875364780426,0.0520269721746444,-0.4522359371185303,1.0289820432662964
1630411908609,0.7044132947921753,0.0678242295980453,-0.4679641127586365,1.0265108346939087
1630411908733,0.6642305850982666,0.0705920308828353,-0.491193026304245,1.018925428390503
1630411908828,0.6161860823631287,0.071890652179718,-0.5251855850219727,1.008317232131958
1630411908891,0.5817769169807434,0.0738014057278633,-0.5691959857940674,0.9963465929031372
1630411908970,0.5777832269668579,0.0761609673500061,-0.6294992566108704,0.982563316822052
1630411909114,0.5992762446403503,0.0733514726161956,-0.6689227223396301,0.962816834449768
1630411909208,0.6263895034790039,0.0637429282069206,-0.6431146860122681,0.9319245219230652
1630411909318,0.6504635810852051,0.0477132275700569,-0.5619286894798279,0.8919051885604858
1630411909429,0.6674894094467163,0.0302699450403451,-0.4756297469139099,0.8559238910675049
1630411909526,0.6752105951309204,0.0110948802903294,-0.4142886698246002,0.8333654403686523
1630411909636,0.6762120127677917,0.0009508940274827,-0.3676910102367401,0.818945050239563
1630411909714,0.683437168598175,0.0082554891705513,-0.3249346613883972,0.8140287399291992
1630411909810,0.7053179144859314,0.0289892796427011,-0.286661684513092,0.826015293598175
1630411909921,0.7408536076545715,0.0510018579661846,-0.2566387355327606,0.8499882817268372
1630411910017,0.7777220606803894,0.0694055333733558,-0.238685056567192,0.8743285536766052
1630411910111,0.8067372441291809,0.0855414122343063,-0.2241799533367157,0.8950636982917786
1630411910189,0.8285747766494751,0.1054451614618301,-0.2072821706533432,0.9086452722549438
1630411910344,0.8412029147148132,0.1267310678958892,-0.1879893988370895,0.914280652999878
1630411910488,0.8403156995773315,0.143607959151268,-0.1682676374912262,0.9157752990722656
1630411910518,0.8276904225349426,0.1570652425289154,-0.1495244354009628,0.9178369045257568
1630411910628,0.8131868243217468,0.1752669364213943,-0.1418329328298568,0.9237053990364076
1630411910738,0.8055832386016846,0.2023624777793884,-0.1547231078147888,0.9308651685714722
1630411910819,0.8055329322814941,0.2389696538448333,-0.1899528950452804,0.9325205683708192
1630411910946,0.8070189952850342,0.2768568396568298,-0.2392799854278564,0.9225473999977112
1630411911053,0.8067806363105774,0.3053209483623504,-0.2902081906795501,0.8968452215194702
1630411911182,0.8039441704750061,0.3161368668079376,-0.3416214287281036,0.8554131388664246
1630411911228,0.7933862209320068,0.3070209920406341,-0.3929020762443542,0.7966511845588684
1630411911323,0.7722460031509399,0.2823681831359863,-0.4421302676200866,0.7252123355865479
1630411911434,0.7374005317687988,0.2499301880598068,-0.4821650385856628,0.6463420987129211
1630411911607,0.6963279247283936,0.2177080363035202,-0.5025913715362549,0.5762937068939209
1630411911673,0.6585680246353149,0.1873344480991363,-0.5192227363586426,0.5243464112281799
1630411911750,0.6249673962593079,0.154262363910675,-0.546093225479126,0.4868145287036896
1630411911829,0.5937857031822205,0.1156418398022651,-0.5847961902618408,0.4641629755496979
1630411911953,0.5666102766990662,0.0789743736386299,-0.6272717714309692,0.4472402036190033
1630411912079,0.5442209243774414,0.0489874221384525,-0.6722208261489868,0.4163012206554413
1630411912173,0.5172647833824158,0.0225100722163915,-0.7211537957191467,0.3608223795890808
1630411912285,0.4878560304641723,-0.0141240265220403,-0.7680531144142151,0.3110789358615875
1630411912379,0.4614775478839874,-0.0697025433182716,-0.7809183597564697,0.3072463870048523
1630411912425,0.4431000351905823,-0.1414657831192016,-0.7342316508293152,0.3504953980445862
1630411912550,0.4189736545085907,-0.2043113112449646,-0.6481449007987976,0.3972550332546234
1630411912628,0.3747586011886596,-0.2322777062654495,-0.5705049633979797,0.4230595529079437
1630411912793,0.3094059228897095,-0.2223110347986221,-0.5203176140785217,0.4274421036243438
1630411912850,0.2429753243923187,-0.1977411061525344,-0.4835830628871918,0.4214163422584533
1630411912993,0.2087825983762741,-0.1692173331975937,-0.4413028061389923,0.417595624923706
1630411913085,0.2126708626747131,-0.1438582688570022,-0.3987927436828613,0.4142179787158966
1630411913163,0.2321881800889969,-0.1261196285486221,-0.3646816611289978,0.4068889021873474
1630411913275,0.2488807290792465,-0.1187961548566818,-0.344449520111084,0.3993960320949554
1630411913384,0.2608963847160339,-0.1176993995904922,-0.3387019038200378,0.3959845304489136
1630411913479,0.2776841819286346,-0.1188056841492652,-0.3391802906990051,0.3981827199459076
1630411913590,0.3044113516807556,-0.1127068474888801,-0.3386102020740509,0.4119263887405395
1630411913668,0.3379122912883758,-0.0949381664395332,-0.3223328292369842,0.4321234226226806
1630411913747,0.3700950443744659,-0.0662840828299522,-0.2876078188419342,0.4551268815994262
1630411913859,0.4017244577407837,-0.0424702353775501,-0.2539334893226623,0.4830073416233063
1630411914030,0.4337897896766662,-0.0319011732935905,-0.2409278005361557,0.5160232186317444
1630411914094,0.466389536857605,-0.0373843237757682,-0.2515977025032043,0.5496266484260559
1630411914171,0.4936963319778442,-0.0574963577091693,-0.2717716097831726,0.5760412812232971
1630411914265,0.5127130150794983,-0.0893984958529472,-0.2882853150367737,0.5977689623832703
1630411914359,0.5203945636749268,-0.1277228444814682,-0.3050943315029144,0.6201493740081787
1630411914487,0.515798032283783,-0.1682094186544418,-0.334901213645935,0.6428284645080566
1630411914646,0.5034489035606384,-0.1973290890455246,-0.3725084066390991,0.6688950657844543
1630411914739,0.4925295412540436,-0.2001025676727295,-0.4031457006931305,0.7010317444801331
1630411914803,0.4863570630550384,-0.1786040514707565,-0.4012725949287414,0.7338021397590637
1630411914914,0.4842479228973388,-0.1518979370594024,-0.3521541953086853,0.75698322057724
1630411914992,0.48496013879776,-0.1327513754367828,-0.2848176658153534,0.7805176973342896
1630411915086,0.4881916642189026,-0.1321791857481002,-0.2239401340484619,0.806984007358551
1630411915275,0.49235999584198,-0.1522611081600189,-0.1896928995847702,0.8349035978317261
1630411915322,0.4911961853504181,-0.1856626272201538,-0.1839881390333175,0.8540381193161011
1630411915431,0.4722515046596527,-0.2197095155715942,-0.188378244638443,0.8560102581977844
1630411915510,0.4322612285614013,-0.2477271854877472,-0.1881804019212722,0.8380998969078064
1630411915639,0.3844988942146301,-0.2673481702804565,-0.183553472161293,0.8117508888244629
1630411915732,0.349294364452362,-0.2815744578838348,-0.1745763570070266,0.7920496463775635
1630411915858,0.3283392190933227,-0.2925273478031158,-0.1668802350759506,0.779232919216156
1630411915952,0.3208664059638977,-0.3022105395793915,-0.1592058390378952,0.7664034962654114
1630411916061,0.3224297761917114,-0.3082653880119324,-0.1523962169885635,0.7532503008842468
1630411916106,0.3260451555252075,-0.3172409534454345,-0.1476159840822219,0.7371292114257812
1630411916217,0.3283412456512451,-0.3355759084224701,-0.144417405128479,0.7164552807807922
1630411916342,0.3295116424560547,-0.3673269748687744,-0.1513059288263321,0.6932560205459595
1630411916437,0.3248464465141296,-0.4118745326995849,-0.177147090435028,0.6763572692871094
1630411916514,0.3056630790233612,-0.4599388539791107,-0.2141377925872802,0.6527568697929382
1630411916621,0.2639708220958709,-0.5021306276321411,-0.2476703971624374,0.6136940121650696
1630411916723,0.1981846392154693,-0.533764123916626,-0.2591013312339782,0.5533269047737122
1630411916874,0.1124085709452629,-0.555604100227356,-0.2515009641647339,0.4760489165782928
1630411916919,0.0249146874994039,-0.5577319860458374,-0.2455758303403854,0.3902733325958252
1630411917045,-0.0373030304908752,-0.5326080918312073,-0.2529250979423523,0.3244200944900512
1630411917138,-0.0674040243029594,-0.4926668703556061,-0.2691658139228821,0.2901288270950317
1630411917249,-0.0804577469825744,-0.4599309861660003,-0.2915676832199096,0.2724848091602325
1630411917326,-0.0686889663338661,-0.4439040422439575,-0.3109988570213318,0.2642063498497009
1630411917467,-0.0444519110023975,-0.4335719347000122,-0.3277932405471802,0.2620729804039001
1630411917531,-0.0097640845924615,-0.428129106760025,-0.3418208360671997,0.2640937566757202
1630411917671,0.0265913289040327,-0.4277323186397552,-0.35285085439682,0.2749116420745849
1630411917750,0.0653849989175796,-0.4299900531768799,-0.3631325662136078,0.2903342545032501
1630411917829,0.1085639670491218,-0.4264924824237823,-0.3689365684986114,0.3110394477844238
1630411917956,0.1540532112121582,-0.4148138761520386,-0.3729914724826813,0.3338249325752258
1630411918002,0.1919155269861221,-0.3922823667526245,-0.3909498751163482,0.3543679714202881
1630411918111,0.2259126901626587,-0.3717629313468933,-0.4342997074127197,0.3619009256362915
1630411918269,0.2658287286758423,-0.3542383313179016,-0.501265823841095,0.3636587560176849
1630411918364,0.3231512010097503,-0.3360519111156463,-0.5509105920791626,0.3710984587669372
1630411918527,0.3859009742736816,-0.3197689354419708,-0.52866131067276,0.3978054821491241
1630411918569,0.434347927570343,-0.3016485869884491,-0.4432603418827057,0.4450185298919678
1630411918648,0.4668143689632416,-0.2709106504917145,-0.3491990268230438,0.5298423767089844
1630411918760,0.5117486715316772,-0.2182704806327819,-0.2793104350566864,0.6625162363052368
1630411918885,0.596822202205658,-0.1628620475530624,-0.2226284146308899,0.8174577355384827
1630411918994,0.7128061056137085,-0.1235726922750473,-0.1567544639110565,0.9567041993141174
1630411919106,0.8195340037345886,-0.1085104122757911,-0.0802185088396072,1.0550339221954346
1630411919152,0.8915432691574097,-0.1086516752839088,-0.0140333585441112,1.1154440641403198
1630411919263,0.9256254434585572,-0.1147327646613121,0.034863956272602,1.1459614038467407
1630411919359,0.933997631072998,-0.1230527237057685,0.0687398090958595,1.1591126918792725
1630411919468,0.9330917000770568,-0.1282005906105041,0.0927170291543006,1.1642249822616575
1630411919612,0.935947060585022,-0.1286228150129318,0.1124569028615951,1.171196699142456
1630411919675,0.9426868557929992,-0.1251719295978546,0.1343336701393127,1.1829856634140017
1630411919768,0.9498408436775208,-0.1223177313804626,0.1533197313547134,1.1965032815933228
1630411919864,0.9511001706123352,-0.1273880749940872,0.1626559346914291,1.2075814008712769
1630411919986,0.9473421573638916,-0.1421691924333572,0.1616728603839874,1.2136518955230713
1630411920130,0.9481695890426636,-0.1688291728496551,0.1499323695898056,1.2170822620391846
1630411920193,0.9580427408218384,-0.2114636451005935,0.132867157459259,1.21435809135437
1630411920305,0.9701457619667052,-0.2743634879589081,0.1173183619976043,1.1975736618041992
1630411920399,0.9729551672935486,-0.3379500210285187,0.1008683368563652,1.160988688468933
1630411920543,0.962189257144928,-0.3686463832855224,0.0729970559477806,1.108122706413269
1630411920590,0.9481033086776732,-0.3482575118541717,0.0281703490763902,1.0595693588256836
1630411920732,0.9451054334640504,-0.3107149004936218,-0.0251410268247127,1.0303075313568115
1630411920780,0.9542143940925598,-0.2869948744773865,-0.0778303742408752,1.02027428150177
1630411920889,0.9663532376289368,-0.2810038924217224,-0.1246355548501014,1.0155125856399536
1630411921032,0.9752118587493896,-0.2734143137931824,-0.1631633639335632,1.0096222162246704
1630411921094,0.9760538339614868,-0.2500728964805603,-0.1960699558258056,0.9960092902183532
1630411921188,0.972569465637207,-0.2048403322696685,-0.2301365435123443,0.9764636158943176
1630411921282,0.9731231927871704,-0.1452416479587555,-0.2552346885204315,0.9573011994361876
1630411921455,0.9817756414413452,-0.0815198943018913,-0.2474960833787918,0.9437859654426576
1630411921517,0.9946383237838744,-0.0280278977006673,-0.2076218575239181,0.9351481795310974
1630411921597,1.0011847019195557,0.0083207348361611,-0.124411754310131,0.9221518635749816
1630411921724,0.9950160384178162,0.025730662047863,-0.0031042108312249,0.8992209434509277
1630411921783,0.9740275144577026,0.0343641936779022,0.124208815395832,0.8647175431251526
1630411921924,0.937613844871521,0.0356989577412605,0.2203247845172882,0.8193386197090149
1630411922033,0.8833077549934387,0.0342275314033031,0.2788922786712646,0.7610144019126892
1630411922112,0.8134465217590332,0.0368490628898143,0.3082683980464935,0.6886613965034485
1630411922188,0.7368741631507874,0.0452462993562221,0.3218511641025543,0.6041833758354187
1630411922285,0.6706912517547607,0.0552175752818584,0.3311816751956939,0.527797281742096
1630411922376,0.6310602426528931,0.0595060586929321,0.3386714458465576,0.4836223423480987
1630411922515,0.6134869456291199,0.0514957606792449,0.3464378416538238,0.4705027639865875
1630411922610,0.612909197807312,0.0293013583868742,0.3524920642375946,0.473640501499176
1630411922719,0.6243871450424194,-0.0071414080448448,0.3536136150360107,0.4860031604766845
1630411922841,0.6286765933036804,-0.0591669380664825,0.3487058579921722,0.4973603188991546
1630411922950,0.61384117603302,-0.1250277161598205,0.3346226513385772,0.5058104991912842
1630411923012,0.5876514315605164,-0.1877471953630447,0.3093725740909576,0.5300281643867493
1630411923139,0.5675218105316162,-0.2250488400459289,0.2672043740749359,0.5763095021247864
1630411923217,0.5758854746818542,-0.2263814657926559,0.1959536373615265,0.6545871496200562
1630411923340,0.6177146434783936,-0.2150212377309799,0.0881791859865188,0.7510770559310913
1630411923449,0.669603168964386,-0.2061330825090408,-0.0337030850350856,0.8360735774040222
1630411923562,0.7082691788673401,-0.2141575366258621,-0.1279619187116623,0.8917785286903381
1630411923606,0.7215216755867004,-0.2471437156200409,-0.1736130267381668,0.9153937697410583
1630411923777,0.7158591151237488,-0.2948538959026336,-0.1875126510858535,0.9179784655570984
1630411923840,0.7044963836669922,-0.3246397078037262,-0.2011548578739166,0.9120332598686218
1630411923933,0.6963024139404297,-0.3005632162094116,-0.2157917618751526,0.9100537896156312
1630411924012,0.6982729434967041,-0.230566918849945,-0.2324909269809723,0.9194205403327942
1630411924123,0.708096981048584,-0.1523756980895996,-0.2430460453033447,0.9371113777160645
1630411924232,0.7142308950424194,-0.0921586602926254,-0.2463293820619583,0.9506224393844604
1630411924359,0.7117495536804199,-0.056598026305437,-0.2417851984500885,0.9544623494148254
1630411924519,0.7029166221618652,-0.0443388260900974,-0.2313325256109237,0.9484097957611084
1630411924580,0.6927571296691895,-0.0488266609609127,-0.2139723747968673,0.9328705072402954
1630411924656,0.6817699670791626,-0.0643554180860519,-0.1909985542297363,0.9078192114830016
1630411924720,0.6667506098747253,-0.0856682583689689,-0.1721141338348388,0.8666906356811523
1630411924928,0.6458274126052856,-0.1063595116138458,-0.1693257540464401,0.8111096620559692
1630411924975,0.6234027743339539,-0.1143649816513061,-0.1887477785348892,0.7532376646995544
1630411925085,0.6081798076629639,-0.1071548610925674,-0.2279929220676422,0.7132959365844727
1630411925148,0.6033027172088623,-0.0909631103277206,-0.2698979675769806,0.6990228295326233
1630411925255,0.6056750416755676,-0.0732344463467598,-0.2986615002155304,0.69947350025177
1630411925415,0.6144275665283203,-0.0651258900761604,-0.3032772839069366,0.7011306881904602
1630411925446,0.6217181086540222,-0.0749246925115585,-0.2895987331867218,0.6963438391685486
1630411925554,0.6182018518447876,-0.1098768562078476,-0.2717868387699127,0.687188982963562
1630411925702,0.6027403473854065,-0.1660214811563491,-0.2576526999473572,0.6797007918357849
1630411925773,0.5806722640991211,-0.2246445715427398,-0.247089073061943,0.6846650838851929
1630411925849,0.5610963106155396,-0.2603581249713897,-0.2399246096611023,0.7040190696716309
1630411925944,0.5493462085723877,-0.2652023434638977,-0.2393282502889633,0.7279114127159119
1630411926097,0.540948748588562,-0.2490801513195037,-0.2486654669046402,0.7435995936393738
1630411926190,0.5349189043045044,-0.2253987938165664,-0.2708492577075958,0.7476221323013306
1630411926251,0.5288187265396118,-0.1919398158788681,-0.2946234941482544,0.7415717840194702
1630411926357,0.5220188498497009,-0.1523789316415786,-0.3132853507995605,0.7251518368721008
1630411926457,0.5217523574829102,-0.1204839199781417,-0.3250039219856262,0.7039567232131958
1630411926564,0.5303226113319397,-0.0958146750926971,-0.3330498337745666,0.6848400235176086
1630411926643,0.5482394695281982,-0.0757271498441696,-0.3416244387626648,0.6787097454071045
1630411926863,0.5656198263168335,-0.0609074309468269,-0.3577570915222168,0.6829312443733215
1630411926942,0.5718520283699036,-0.0569572187960147,-0.3896099030971527,0.6925082206726074
1630411927005,0.5730052590370178,-0.0607113912701606,-0.441114604473114,0.7009944915771484
1630411927120,0.5770466327667236,-0.0697743445634841,-0.5100151896476746,0.6978570818901062
1630411927227,0.5822975635528564,-0.07800954580307,-0.5822906494140625,0.676261305809021
1630411927274,0.5871699452400208,-0.0811054855585098,-0.6333723068237305,0.6373934149742126
1630411927398,0.588320791721344,-0.0832878798246383,-0.6475155353546143,0.5892047882080078
1630411927507,0.5925041437149048,-0.0832749232649803,-0.6130850911140442,0.5503928065299988
1630411927616,0.6041868925094604,-0.0838542804121971,-0.5413213968276978,0.5389485359191895
1630411927677,0.6176093816757202,-0.0884281769394874,-0.4625642299652099,0.5498765110969543
1630411927848,0.6242245435714722,-0.1051614210009574,-0.4074914157390594,0.5752559304237366
1630411927896,0.6228336095809937,-0.1385934203863144,-0.3819910585880279,0.606482744216919
1630411928115,0.6144481897354126,-0.1804583221673965,-0.3778012990951538,0.6390131115913391
1630411928162,0.6066839098930359,-0.2160225361585617,-0.3769277930259704,0.6675456762313843
1630411928209,0.6018768548965454,-0.2340777665376663,-0.3611755073070526,0.6844051480293274
1630411928310,0.5970633625984192,-0.2393437922000885,-0.3221621215343475,0.6879541873931885
1630411928378,0.5883501172065735,-0.2293433398008346,-0.273915559053421,0.6816083192825317
1630411928501,0.5732274055480957,-0.2189519107341766,-0.2333258837461471,0.6758050918579102
1630411928657,0.547542929649353,-0.1982854455709457,-0.2046305984258651,0.6772936582565308
1630411928753,0.5163998603820801,-0.1741437315940857,-0.1882393807172775,0.69532310962677
1630411928861,0.4873989820480346,-0.1546750962734222,-0.1810072064399719,0.725523054599762
1630411928939,0.4688722491264343,-0.1447318643331527,-0.179495483636856,0.7578619122505188
1630411929016,0.4555248320102691,-0.1464059650897979,-0.1801175624132156,0.7834893465042114
1630411929079,0.4428105652332306,-0.1574120819568634,-0.1798781305551529,0.798635721206665
1630411929261,0.4427874982357025,-0.1713610738515854,-0.1770840734243393,0.8153233528137207
1630411929339,0.4629863202571869,-0.1761531680822372,-0.1736906170845031,0.8351984024047852
1630411929404,0.4851804077625274,-0.1593317538499832,-0.168602854013443,0.8496475219726562
1630411929545,0.4934142827987671,-0.1201188862323761,-0.1552332192659378,0.8487716913223267
1630411929607,0.4823740124702453,-0.0789680629968643,-0.1303575038909912,0.8361029028892517
1630411929686,0.4559533894062042,-0.0514460802078247,-0.0981252044439315,0.8188543319702148
1630411929857,0.4262230992317199,-0.0381073616445064,-0.0620159432291984,0.8078023195266724
1630411929951,0.4088538289070129,-0.036160297691822,-0.0298263691365718,0.8076950311660767
1630411930045,0.4041172564029693,-0.0390800535678863,-0.0076174926944077,0.805728018283844
1630411930201,0.4065077304840088,-0.0526602305471897,0.0028225413989275,0.7948760986328125
1630411930248,0.4114364385604858,-0.0723245292901992,0.0057375691831111,0.7715956568717957
1630411930323,0.4168417453765869,-0.0931251645088195,0.0032441352959722,0.739435076713562
1630411930482,0.4176677763462066,-0.1051000133156776,-0.0032335733994841,0.7012672424316406
1630411930560,0.4120408892631531,-0.1050242111086845,-0.0141158727928996,0.6600953340530396
1630411930716,0.394966185092926,-0.0971933454275131,-0.0306637231260538,0.6173030138015747
1630411930763,0.3531408011913299,-0.0844023302197456,-0.0482187680900096,0.5624248385429382
1630411930826,0.2753895223140716,-0.0716466456651687,-0.0548412762582302,0.4844474196434021
1630411930935,0.1628194898366928,-0.0655157789587974,-0.0491410344839096,0.3898637294769287
1630411931044,0.0378235317766666,-0.0760859698057174,-0.0413389466702938,0.3078027367591858
1630411931169,-0.0522186309099197,-0.1015860140323638,-0.0419822186231613,0.2661340534687042
1630411931279,-0.0755620077252388,-0.1274482011795044,-0.0601468458771705,0.2644408345222473
1630411931341,-0.0578771010041236,-0.1326549053192138,-0.0933705046772956,0.27373206615448
1630411931423,-0.0372617281973362,-0.1140632405877113,-0.1303500533103943,0.2675381898880005
1630411931611,-0.0220385007560253,-0.0874984115362167,-0.1509149074554443,0.2675893306732178
1630411931720,0.0064505599439144,-0.0671242848038673,-0.1446783691644668,0.2919046878814697
1630411931845,0.0505403764545917,-0.0545124150812625,-0.1173767894506454,0.334518164396286
1630411931876,0.1077950969338417,-0.0450748912990093,-0.0882167145609855,0.3804245889186859
1630411931939,0.168073758482933,-0.0388298705220222,-0.0705416575074195,0.4282696843147278
1630411932095,0.2343851923942566,-0.0363646484911441,-0.0665673986077308,0.4840825498104095
1630411932189,0.3134990036487579,-0.0330078192055225,-0.0709907338023185,0.5636561512947083
1630411932329,0.4001091420650482,-0.0303989946842193,-0.0759347006678581,0.6621503233909607
1630411932376,0.4758340716361999,-0.0365293696522712,-0.079789824783802,0.7550005316734314
1630411932504,0.5301612019538879,-0.0530804172158241,-0.0777701660990715,0.8214510679244995
1630411932614,0.5615256428718567,-0.077223315834999,-0.0721673294901847,0.8555553555488586
1630411932645,0.5711575746536255,-0.1082973703742027,-0.0654295235872268,0.8604667782783508
1630411932770,0.5700180530548096,-0.1476712822914123,-0.0613706819713115,0.8511461615562439
1630411932942,0.5698987245559692,-0.2020757794380188,-0.0555812381207942,0.8414990901947021
1630411932973,0.5676535367965698,-0.266573041677475,-0.0339984409511089,0.8326433897018433
1630411933067,0.5648090243339539,-0.3128317296504974,-0.0045428122393786,0.8259624242782593
1630411933207,0.5577959418296814,-0.3200916945934295,0.0171094592660665,0.8178274035453796
1630411933301,0.5453726649284363,-0.3104848265647888,0.024584699422121,0.8070521950721741
1630411933382,0.527414858341217,-0.3096019029617309,0.0241151172667741,0.7964030504226685
1630411933523,0.5073115229606628,-0.3269841074943542,0.0299950744956731,0.7862036228179932
1630411933601,0.4836584329605102,-0.3560930788516998,0.0465872921049594,0.7710475325584412
1630411933710,0.4484774470329284,-0.3928413987159729,0.0701877921819686,0.7350629568099976
1630411933773,0.3967935740947723,-0.4266599416732788,0.0864382609724998,0.664576530456543
1630411933866,0.3288420140743255,-0.4307091534137726,0.0923895388841629,0.5561853647232056
1630411933991,0.2614651918411255,-0.398734986782074,0.0912746712565422,0.4267463386058807
1630411934148,0.2188967168331146,-0.3413801789283752,0.0908734947443008,0.3145582973957062
1630411934179,0.2209479510784149,-0.2829530835151672,0.0909724906086921,0.2616131007671356
1630411934319,0.2531472146511078,-0.2404049038887024,0.1007044911384582,0.2510374784469604
1630411934447,0.2877797782421112,-0.2151162326335907,0.1162045150995254,0.2461848706007003
1630411934509,0.3240063786506653,-0.2026518285274505,0.1256760656833648,0.2543964087963104
1630411934634,0.3556343019008636,-0.2092293053865432,0.128373384475708,0.2634722888469696
1630411934743,0.3908926844596863,-0.2266982197761535,0.1304250657558441,0.2774882912635803
1630411934822,0.4313226640224457,-0.2394728511571884,0.131668359041214,0.3011012971401214
1630411934931,0.4716866910457611,-0.2413418591022491,0.1381342560052871,0.3533760607242584
1630411935009,0.5037773251533508,-0.2311132997274398,0.151163712143898,0.4397382736206054
1630411935118,0.5260487198829651,-0.2083851546049118,0.1685008257627487,0.5482585430145264
1630411935196,0.5382542014122009,-0.1758550405502319,0.1859325617551803,0.6500166058540344
1630411935368,0.5408573746681213,-0.1380198150873184,0.2029458880424499,0.7239466905593872
1630411935431,0.5412695407867432,-0.1044193357229232,0.2128202468156814,0.7713471055030823
1630411935524,0.5412465333938599,-0.0796488374471664,0.2121375799179077,0.7983261942863464
1630411935634,0.5376694798469543,-0.0656901895999908,0.2023573219776153,0.8137590885162354
1630411935712,0.5254435539245605,-0.0577651038765907,0.1880382597446441,0.8224764466285706
1630411935821,0.5008900761604309,-0.0504053086042404,0.1677360087633133,0.826001763343811
1630411935915,0.4682903289794922,-0.0379118062555789,0.1398276686668396,0.8255043029785156
1630411936071,0.4368501901626587,-0.0227167066186666,0.1028223633766174,0.8240190148353577
1630411936134,0.4106620252132416,-0.0041886256076395,0.0573334097862243,0.8239096403121948
1630411936259,0.3826161921024322,0.0112395826727151,0.0065889009274542,0.8234790563583374
1630411936337,0.354258120059967,0.0215765070170164,-0.0400706008076667,0.8239043354988098
1630411936385,0.3394291400909424,0.0287579372525215,-0.0854319930076599,0.8202568888664246
1630411936590,0.3573693037033081,0.0354681424796581,-0.1405511349439621,0.805598258972168
1630411936715,0.4098317921161651,0.0427058301866054,-0.2106216698884964,0.7759361267089844
1630411936761,0.4758769273757934,0.0447082482278347,-0.2884750664234161,0.7344949245452881
1630411936886,0.5289874076843262,0.0365830920636653,-0.3603827953338623,0.6883056163787842
1630411936949,0.5608615875244141,0.0146801527589559,-0.3973001837730407,0.6473162770271301
1630411937058,0.5811684727668762,-0.0175685137510299,-0.3854027390480041,0.6231302618980408
1630411937199,0.5939860939979553,-0.0464632622897625,-0.3394753634929657,0.6125825643539429
1630411937261,0.6090450882911682,-0.0563577637076377,-0.2674584686756134,0.6163405179977417
1630411937339,0.6401761770248413,-0.0504241213202476,-0.1886575073003769,0.6397484540939331
1630411937514,0.7121580243110657,-0.0515886358916759,-0.078888826072216,0.6996642351150513
1630411937514,0.6791861653327942,-0.0460756495594978,-0.125176802277565,0.6728281378746033
1630411937717,0.7317142486572266,-0.0670186877250671,-0.0449773930013179,0.7140291333198547
1630411937779,0.7388980388641357,-0.0809322297573089,-0.0204966776072978,0.7166481614112854
1630411937920,0.7378116250038147,-0.0859320536255836,-0.0014446564018726,0.7082480788230896
1630411937967,0.7272325158119202,-0.0824135094881057,0.0164822824299335,0.6857314109802246
1630411938092,0.713042140007019,-0.0765731930732727,0.0310852918773889,0.657380223274231
1630411938185,0.6942268013954163,-0.0781660005450248,0.0428007617592811,0.6268837451934814
1630411938295,0.6701784133911133,-0.0857075080275535,0.0527803637087345,0.5993308424949646
1630411938406,0.6448163986206055,-0.0924703851342201,0.0656498223543167,0.5839744210243225
1630411938500,0.6246725916862488,-0.089616484940052,0.0837670043110847,0.5814191699028015
1630411938562,0.6183613538742065,-0.081809677183628,0.1021086648106575,0.5900603532791138
1630411938703,0.6402807235717773,-0.0827030166983604,0.1101344376802444,0.6154897212982178
1630411938797,0.6843284964561462,-0.1020154058933258,0.0987665578722953,0.6517491340637207
1630411938922,0.7236993312835693,-0.1381645798683166,0.0709167569875717,0.6796585917472839
1630411939015,0.745368242263794,-0.1732458770275116,0.0373008139431476,0.6950041055679321
1630411939125,0.7543972730636597,-0.1895561814308166,0.0080857351422309,0.7059603333473206
1630411939173,0.7576430439949036,-0.1830614805221557,-0.0124130528420209,0.7153024673461914
1630411939257,0.7620897889137268,-0.1713309586048126,-0.0233631022274494,0.7222649455070496
1630411939413,0.7685262560844421,-0.1691949665546417,-0.0268403645604848,0.725274920463562
1630411939522,0.7770979404449463,-0.1815861165523529,-0.0275798458606004,0.7310987710952759
1630411939647,0.780566394329071,-0.2068487107753753,-0.0237141605466604,0.7390647530555725
1630411939678,0.7753400802612305,-0.2288149744272232,-0.020202437415719,0.7470284104347229
1630411939819,0.7621285319328308,-0.2354169636964798,-0.0291073601692914,0.75491863489151
1630411939897,0.7483375668525696,-0.2246654629707336,-0.0554264895617961,0.7668886780738831
1630411939975,0.7407180070877075,-0.1999760568141937,-0.0974558889865875,0.7887195348739624
1630411940084,0.7352957129478455,-0.1523178219795227,-0.1430925577878952,0.8187764286994934
1630411940241,0.7196503281593323,-0.0852807909250259,-0.1728007048368454,0.8435294032096863
1630411940303,0.6829932332038879,-0.01881586574018,-0.1775369197130203,0.8496050834655762
1630411940431,0.6250484585762024,0.0297645796090364,-0.1734865754842758,0.8372435569763184
1630411940493,0.563167154788971,0.0537996292114257,-0.1738983690738678,0.8175930380821228
1630411940556,0.5114012360572815,0.0654349029064178,-0.1782626509666443,0.7963738441467285
1630411940696,0.4794273376464844,0.0749902725219726,-0.1841782182455063,0.7814480066299438
1630411940805,0.4686968326568603,0.0918437168002128,-0.1866954416036605,0.7837568521499634
1630411940915,0.4698670506477356,0.1177397146821022,-0.1847707033157348,0.8017080426216125
1630411941009,0.4714915454387665,0.1481636017560959,-0.1843585520982742,0.8201785087585449
1630411941102,0.469827264547348,0.1767502725124359,-0.1857631355524063,0.8300502300262451
1630411941196,0.470298558473587,0.1970211863517761,-0.1887563019990921,0.8308283686637878
1630411941305,0.4811114966869354,0.2114032804965973,-0.1831147670745849,0.8275102376937866
1630411941457,0.5035397410392761,0.2224098742008209,-0.1621481478214264,0.825431764125824
1630411941520,0.5234996676445007,0.23077392578125,-0.1308283060789108,0.8187588453292847
1630411941645,0.529062032699585,0.2267928421497345,-0.1074727475643158,0.7970191836357117
1630411941738,0.5326150059700012,0.2068239152431488,-0.1060657501220703,0.7685343027114868
1630411941833,0.5546437501907349,0.1767310202121734,-0.1242374926805496,0.7551334500312805
1630411941908,0.6002410054206848,0.1506725847721099,-0.1437720954418182,0.7686384916305542
1630411942017,0.6540437340736389,0.1360870450735092,-0.1538901031017303,0.797752320766449
1630411942128,0.6993229389190674,0.1231914088129997,-0.1577670127153396,0.8277255296707153
1630411942250,0.7301692366600037,0.1073449105024337,-0.1510378271341323,0.8489606380462646
1630411942326,0.748235285282135,0.0907827168703079,-0.1372182071208953,0.8588733077049255
1630411942429,0.7595622539520264,0.0783364549279213,-0.1253304332494735,0.8617637157440186
1630411942499,0.7679955363273621,0.0681454241275787,-0.1201440617442131,0.8639724850654602
1630411942642,0.7686172127723694,0.0577402785420417,-0.1308168619871139,0.8622730374336243
1630411942752,0.7598059773445129,0.0461627766489982,-0.1529096513986587,0.8539531826972961
1630411942835,0.7501832246780396,0.0322024524211883,-0.1797458827495575,0.8426359295845032
1630411942922,0.7452561855316162,0.0157467406243085,-0.2112727165222168,0.8307496905326843
1630411943001,0.7578189969062805,-0.0073122265748679,-0.2469214498996734,0.833196759223938
1630411943109,0.7905600070953369,-0.0314834639430046,-0.2748902142047882,0.8574191927909851
1630411943250,0.823521614074707,-0.052993107587099,-0.28215491771698,0.8880363702774048
1630411943345,0.8415271639823914,-0.0682818368077278,-0.2749565541744232,0.9123632311820984
1630411943484,0.841752290725708,-0.0789577513933181,-0.2682892978191376,0.9274349212646484
1630411943548,0.8326995372772217,-0.0857974365353584,-0.2676483988761902,0.9383975863456726
1630411943641,0.825036883354187,-0.0861784666776657,-0.2724713683128357,0.9499561190605164
1630411943704,0.8241245150566101,-0.0883354842662811,-0.2802754640579223,0.9614461660385132
1630411943889,0.8276184797286987,-0.102057509124279,-0.283596009016037,0.966238260269165
1630411943921,0.8341834545135498,-0.1334355175495147,-0.2836347222328186,0.9667491912841796
1630411944060,0.8414629697799683,-0.1738236248493194,-0.2782022953033447,0.9694526195526124
1630411944152,0.8519077301025391,-0.2092703878879547,-0.2582111954689026,0.9793895483016968
1630411944263,0.8656198382377625,-0.233229398727417,-0.2231125235557556,0.9931750297546388
1630411944339,0.8806858658790588,-0.255033016204834,-0.1803821176290512,1.0032275915145874
1630411944473,0.8955017328262329,-0.279420256614685,-0.1435087770223617,1.0069297552108765
1630411944583,0.9034380316734314,-0.2922207117080688,-0.1234617382287979,1.0031756162643433
1630411944645,0.8999310731887817,-0.2900283336639404,-0.1217928975820541,0.9926470518112184
1630411944726,0.8823399543762207,-0.2620861232280731,-0.1307124942541122,0.9733966588974
1630411944889,0.8588829636573792,-0.2112938612699508,-0.1405278146266937,0.9520955085754396
1630411944967,0.8414719104766846,-0.1377581059932708,-0.1468620300292968,0.9378178119659424
1630411945061,0.8397659063339233,-0.0507838204503059,-0.1516547501087188,0.9387049078941344
1630411945175,0.8563662767410278,0.0340729616582393,-0.1568748503923416,0.9546560049057008
1630411945305,0.8824048042297363,0.1005659475922584,-0.17079658806324,0.9756320714950562
1630411945398,0.9034625887870787,0.1489101946353912,-0.1996333301067352,0.9897750616073608
1630411945494,0.9106175899505616,0.1916973739862442,-0.2391112297773361,0.990956962108612
1630411945589,0.9058785438537598,0.2377330958843231,-0.2803745567798614,0.9801250100135804
1630411945667,0.8950921297073364,0.2795984148979187,-0.3164665400981903,0.9642171859741212
1630411945839,0.8839775323867798,0.3247096836566925,-0.348905473947525,0.9542750716209412
1630411945901,0.8727402091026306,0.3746381998062134,-0.3891078531742096,0.954426646232605
1630411945980,0.8561127185821533,0.4221880435943603,-0.4382570385932922,0.956326186656952
1630411946042,0.8352329730987549,0.4594487249851227,-0.4895371496677398,0.9502549767494202
1630411946200,0.8153200149536133,0.4849799573421478,-0.5337759852409363,0.9343618154525756
1630411946309,0.8120892643928528,0.4981918632984161,-0.5648024082183838,0.9211247563362122
1630411946391,0.829750120639801,0.5000958442687988,-0.5618991255760193,0.9147438406944276
1630411946531,0.8518689274787903,0.4936724007129669,-0.5192996263504028,0.9062743186950684
1630411946609,0.8785275220870972,0.4800395965576172,-0.4407298564910888,0.8942705392837524
1630411946703,0.9323357939720154,0.4641468822956085,-0.3468128442764282,0.9043788909912108
1630411946781,1.0219526290893557,0.4532147645950317,-0.2595780491828918,0.9631853103637696
1630411946890,1.122211456298828,0.4460989236831665,-0.1991519927978515,1.0606354475021362
1630411947015,1.208960771560669,0.4331402480602264,-0.163602277636528,1.1568952798843384
1630411947125,1.2653135061264038,0.4076593220233917,-0.1414721310138702,1.2213456630706787
1630411947234,1.2942768335342407,0.3756369352340698,-0.1274934858083725,1.251470685005188
1630411947312,1.307592511177063,0.3372841477394104,-0.1207548901438713,1.261993646621704
1630411947390,1.3143388032913208,0.2992092967033386,-0.1115336865186691,1.264701008796692
1630411947515,1.31610107421875,0.2815074920654297,-0.0970706492662429,1.2647336721420288
1630411947643,1.3158576488494873,0.2988108396530151,-0.0745872035622596,1.2689931392669678
1630411947706,1.3151371479034424,0.3414431512355804,-0.0538094192743301,1.2779597043991089
1630411947815,1.3122153282165527,0.385153204202652,-0.0423489920794963,1.2871830463409424
1630411947909,1.3037372827529907,0.4142443537712097,-0.0457177348434925,1.2904348373413086
1630411948034,1.2913005352020264,0.4246482253074646,-0.0620759762823581,1.2868127822875977
1630411948143,1.271479249000549,0.4222401976585388,-0.0922955721616745,1.2732348442077637
1630411948190,1.2319350242614746,0.4089329242706299,-0.1396184414625167,1.2413287162780762
1630411948365,1.1587220430374146,0.3914498388767242,-0.2020874917507171,1.1792714595794678
1630411948411,1.0520306825637815,0.3775614798069,-0.2622679769992828,1.0793333053588867
1630411948490,0.9186371564865112,0.375575840473175,-0.3073989748954773,0.9437888264656068
1630411948599,0.7697462439537048,0.3856165707111358,-0.3353194296360016,0.8341420888900757
1630411948739,0.6491220593452454,0.4049639701843261,-0.3511767089366913,0.7598153352737427
1630411948849,0.5718920826911926,0.4323790669441223,-0.3550797998905182,0.7254005074501038
1630411948927,0.5124245882034302,0.4578519463539123,-0.3500804305076599,0.7079999446868896
1630411949005,0.4902636408805847,0.4640164673328399,-0.3404012322425842,0.7053143978118896
1630411949114,0.4854360818862915,0.4395916759967804,-0.3392723500728607,0.6897653341293335
1630411949221,0.4701804518699646,0.3906508386135101,-0.3453742563724518,0.6441805362701416
1630411949347,0.4506193995475769,0.3321919441223144,-0.3424121439456939,0.5700666308403015
1630411949474,0.4499774277210235,0.2872713804244995,-0.3151276409626007,0.4896445572376251
1630411949537,0.6421178579330444,0.2650839388370514,-0.2636297941207886,0.4439909756183624
1630411949646,0.7124845385551453,0.2586674094200134,-0.2153172641992569,0.4698095917701721
1630411949709,0.7124845385551453,0.2723745107650757,-0.1784675270318985,0.5422128438949585
