timestamp,TP9,AF7,AF8,TP10
1629797528116,0.8916201591491699,1.3933496475219729,1.111846685409546,-0.4513100683689117
1629797528240,0.8916201591491699,1.3933496475219729,1.1232690811157229,-0.4513100683689117
1629797528381,0.8916201591491699,1.3933496475219729,1.1443277597427368,-0.4513100683689117
1629797528428,0.8916201591491699,1.3933496475219729,1.1698414087295532,-0.4513100683689117
1629797528459,0.8916201591491699,1.4273474216461182,1.1878057718276978,-0.4513100683689117
1629797528584,0.8916201591491699,1.4234949350357056,1.190802812576294,-0.4513100683689117
1629797528662,0.8916201591491699,1.400556564331055,1.1939563751220703,-0.4513100683689117
1629797528772,0.8916201591491699,1.36129891872406,1.202163577079773,-0.4513100683689117
1629797528975,0.8916201591491699,1.3095046281814575,1.2201372385025024,-0.4513100683689117
1629797529022,0.8916201591491699,1.2511963844299316,1.2438452243804932,-0.4513100683689117
1629797529115,0.8916201591491699,1.1770976781845093,1.2640845775604248,-0.4513100683689117
1629797529225,1.0572353601455688,1.0735212564468384,1.2777833938598633,0.3842290341854095
1629797529381,1.0572353601455688,0.9348494410514832,1.252287983894348,0.3382391035556793
1629797529428,1.0572353601455688,0.779406726360321,1.21626615524292,0.3340497016906738
1629797529475,1.0572353601455688,0.5855669379234314,1.171283483505249,0.3865325152873993
1629797529600,1.0572353601455688,0.553712785243988,1.11350679397583,0.3865325152873993
1629797529725,1.0572353601455688,0.524837851524353,1.038232922554016,0.3865325152873993
1629797529834,1.0572353601455688,0.5044883489608765,0.9337830543518066,0.3865325152873993
1629797529928,1.0572353601455688,0.4967463910579681,0.7778382897377014,0.3865325152873993
1629797530022,1.0572353601455688,0.4996161758899688,0.5576371550559998,0.3865325152873993
1629797530115,1.0572353601455688,0.4650591313838959,0.5576860904693604,0.3865325152873993
1629797530256,1.0572353601455688,0.4464097619056701,0.5612100958824158,0.3865325152873993
1629797530459,1.0572353601455688,0.4164992868900299,0.5632838010787964,0.3865325152873993
1629797530521,1.0572353601455688,0.3652008771896362,0.5594297051429749,0.3269203901290893
1629797530584,1.0572353601455688,0.2983762621879577,0.5499955415725708,0.3183619379997253
1629797530631,1.0572353601455688,0.2449901849031448,0.5314730405807495,0.340984433889389
1629797530709,1.0572353601455688,0.2180832177400589,0.5171725153923035,0.340984433889389
1629797530818,1.0572353601455688,0.2190090864896774,0.4752660095691681,0.340984433889389
1629797530974,1.2839362621307373,0.2368869632482528,0.48017019033432,0.340984433889389
1629797531027,1.2839362621307373,0.2584983706474304,0.5188578367233276,0.340984433889389
1629797531152,1.2839362621307373,0.2773094475269317,0.5676608681678772,0.340984433889389
1629797531245,1.2839362621307373,0.2912241816520691,0.603091835975647,1.350904941558838
1629797531308,1.2578248977661133,0.2938122451305389,0.6198368668556213,1.3150482177734375
1629797531433,1.2304325103759766,0.2800257503986358,0.626754879951477,1.2760268449783323
1629797531589,1.199559211730957,0.2466420382261276,0.6348877549171448,1.242070555686951
1629797531651,1.16650128364563,0.2009657472372055,0.6453637480735779,1.2181216478347778
1629797531745,1.13623309135437,0.1604320853948593,0.6539932489395142,1.2181216478347778
1629797531808,1.13623309135437,0.1389770358800888,0.6570748686790466,1.2181216478347778
1629797531933,1.13623309135437,0.1396684646606445,0.6555201411247253,1.2181216478347778
1629797532106,1.13623309135437,0.1424414366483688,0.6528292894363403,1.19067120552063
1629797532184,1.099561095237732,0.1363150030374527,0.6575843691825867,1.1624971628189087
1629797532247,1.0726388692855835,0.1183827817440033,0.6621813774108887,1.1352328062057495
1629797532356,1.036985993385315,0.0874236226081848,0.6587321162223816,1.1082878112792969
1629797532465,0.9661352038383484,0.0466049686074256,0.6425530910491943,1.03195059299469
1629797532544,0.9661352038383484,0.0047300634905695,0.611841082572937,0.9520140886306764
1629797532700,0.9706999659538268,-0.0325135737657547,0.5756989121437073,0.8719528317451477
1629797532856,0.9706999659538268,-0.0619115121662616,0.5437484383583069,0.7903871536254883
1629797532919,0.9290863275527954,-0.0833640322089195,0.5267783403396606,0.7107497453689575
1629797532965,0.8893271088600159,-0.0949885323643684,0.5204215049743652,0.6535100340843201
1629797533093,0.8893271088600159,-0.0890074968338012,0.5128540396690369,0.6172943115234375
1629797533187,0.8893271088600159,-0.0696914047002792,0.4973503649234772,0.5980773568153381
1629797533281,0.8893271088600159,-0.0515033565461635,0.4803201556205749,0.6484811902046204
1629797533374,0.8893271088600159,-0.0372577048838138,0.4692201614379883,0.6813892722129822
1629797533546,0.8893271088600159,-0.0207548011094331,0.4640384614467621,0.7030942440032959
1629797533593,0.8893271088600159,0.0005909548490308,0.4609953165054321,0.718665599822998
1629797533671,0.8893271088600159,0.0242874696850776,0.452818751335144,0.7590140700340271
1629797533765,0.8893271088600159,0.0413724891841411,0.4393968284130096,0.8118352293968201
1629797533968,0.8893271088600159,0.0485768429934978,0.4261626303195953,0.8730993270874023
1629797533999,0.8893271088600159,0.0468708761036396,0.4160309433937073,0.9286574125289916
1629797534111,0.8893271088600159,0.0375761911273002,0.4075576961040497,0.9695934057235718
1629797534189,0.8893271088600159,0.0245830491185188,0.3988469839096069,1.0002686977386477
1629797534314,1.3640425205230713,0.0132247945293784,0.3901694715023041,1.0241117477416992
1629797534455,1.3094329833984375,0.0048263412900269,0.3758519887924194,1.035395264625549
1629797534486,1.3094329833984375,-0.0040642437525093,0.3510824739933014,1.0355772972106934
1629797534596,1.3094329833984375,-0.0159977581351995,0.3193177282810211,1.0271011590957642
1629797534705,1.3094329833984375,-0.0291568953543901,0.2831538319587707,1.0091511011123655
1629797534798,1.3094329833984375,-0.0386482179164886,0.2417053878307342,1.0088735818862915
1629797534845,1.3094329833984375,-0.0404091514647007,0.2065724730491638,1.011645793914795
1629797534973,1.3094329833984375,-0.0106973433867096,0.1922819465398788,1.017869234085083
1629797535145,1.3094329833984375,0.0759265273809433,0.1921469122171402,1.018781065940857
1629797535191,1.3094329833984375,0.2023436874151229,0.2023979425430297,1.0062618255615234
1629797535379,1.3094329833984375,0.3212327063083648,0.2171448469161987,0.977759838104248
1629797535410,1.3094329833984375,0.4077111780643463,0.2245014458894729,0.9228256344795228
1629797535488,1.248698353767395,0.4334572851657867,0.22287218272686,0.8409909009933472
1629797535535,1.248698353767395,0.461624413728714,0.2193223237991333,0.739084780216217
1629797535848,1.248698353767395,0.6472988724708557,0.2119804620742797,0.6080144047737122
1629797535959,1.248698353767395,0.806968092918396,0.1975528299808502,0.422983705997467
1629797536006,1.248698353767395,0.9122234582901,0.1783602982759475,0.422983705997467
1629797536069,1.248698353767395,0.9435020089149476,0.1623653918504715,0.422983705997467
1629797536147,1.248698353767395,0.976731300354004,0.152003601193428,0.422983705997467
1629797536225,1.248698353767395,1.0133280754089355,0.1464443057775497,0.422983705997467
1629797536334,1.248698353767395,1.054194092750549,0.1455467492341995,0.422983705997467
1629797536413,1.248698353767395,1.0502703189849854,0.1457318216562271,0.422983705997467
1629797536491,1.248698353767395,1.0427905321121216,0.1932177543640136,0.422983705997467
1629797536616,1.248698353767395,1.0341593027114868,0.3397090137004852,0.422983705997467
1629797536725,1.248698353767395,1.0333515405654907,0.5848203301429749,0.422983705997467
1629797536819,1.248698353767395,1.0505273342132568,0.8340650796890259,0.422983705997467
1629797537009,1.248698353767395,1.068392634391785,0.8562648296356201,0.422983705997467
1629797537103,1.248698353767395,1.068392634391785,0.8815033435821533,0.422983705997467
1629797537134,1.248698353767395,1.068392634391785,0.9088520407676696,0.422983705997467
1629797537243,1.248698353767395,0.9894734025001526,0.9701096415519714,0.422983705997467
1629797537368,1.248698353767395,0.8322643041610718,0.986855447292328,0.422983705997467
1629797537384,1.248698353767395,0.601399838924408,0.988233208656311,0.422983705997467
1629797537525,1.248698353767395,0.5548762083053589,0.9867389798164368,0.422983705997467
1629797537634,1.248698353767395,0.5126533508300781,0.98492032289505,0.422983705997467
1629797537728,1.248698353767395,0.4782357811927795,0.9832953214645386,0.422983705997467
1629797537853,1.248698353767395,0.4522911608219147,0.9814615249633788,0.422983705997467
1629797537931,1.248698353767395,0.4616929590702057,0.978560507297516,0.422983705997467
1629797538027,1.248698353767395,0.4680239260196686,0.970404326915741,0.422983705997467
1629797538246,1.248698353767395,0.5091937780380249,0.8691594004631042,0.422983705997467
1629797538261,1.248698353767395,0.471589058637619,0.9621697068214417,0.422983705997467
1629797538340,1.248698353767395,0.3800359964370727,0.481636643409729,0.422983705997467
1629797538433,1.248698353767395,0.3800359964370727,0.481636643409729,0.422983705997467
1629797538511,1.248698353767395,0.3800359964370727,0.481636643409729,0.422983705997467
1629797538605,1.248698353767395,0.3800359964370727,0.481636643409729,0.422983705997467
1629797538793,1.248698353767395,0.3333031833171844,0.1368196457624435,0.422983705997467
1629797538839,1.248698353767395,0.328945904970169,-0.1251072287559509,0.422983705997467
1629797538933,1.248698353767395,0.3556833565235138,-0.2041223645210266,0.422983705997467
1629797539027,1.248698353767395,0.4054026901721954,-0.1886882930994033,0.422983705997467
1629797539218,1.248698353767395,0.4658635854721069,-0.1321001201868057,0.422983705997467
1629797539280,1.248698353767395,0.5317925214767456,-0.1321001201868057,0.422983705997467
1629797539358,1.248698353767395,0.6047007441520691,-0.1321001201868057,0.422983705997467
1629797539468,1.248698353767395,0.6047007441520691,-0.1321001201868057,0.422983705997467
1629797539530,1.8959769010543823,0.6047007441520691,-0.1321001201868057,0.422983705997467
1629797539655,1.8702980279922483,0.6047007441520691,-0.1321001201868057,0.422983705997467
1629797539733,1.8702980279922483,0.6047007441520691,-0.1321001201868057,0.422983705997467
1629797539905,1.8702980279922483,0.6047007441520691,-0.1321001201868057,0.422983705997467
1629797539999,1.8702980279922483,0.6047007441520691,-0.1321001201868057,0.422983705997467
1629797540111,1.8702980279922483,0.6047007441520691,-0.1321001201868057,0.422983705997467
1629797540251,1.8702980279922483,0.6047007441520691,-0.1321001201868057,0.422983705997467
1629797540329,1.8702980279922483,0.6047007441520691,-0.1321001201868057,0.422983705997467
1629797540360,1.8702980279922483,0.6047007441520691,-0.1321001201868057,0.422983705997467
1629797540501,1.8702980279922483,0.6047007441520691,-0.1321001201868057,0.422983705997467
1629797540626,1.8702980279922483,0.6047007441520691,-0.1321001201868057,0.422983705997467
1629797540673,1.8702980279922483,0.6047007441520691,-0.1321001201868057,0.422983705997467
1629797540751,1.8842692375183103,0.6047007441520691,-0.1321001201868057,0.422983705997467
1629797540923,1.8842692375183103,0.6047007441520691,-0.1321001201868057,0.422983705997467
1629797540970,1.8842692375183103,0.6047007441520691,-0.1321001201868057,0.422983705997467
1629797541032,1.8842692375183103,0.6047007441520691,-0.1321001201868057,0.422983705997467
1629797541208,1.8842692375183103,0.6047007441520691,-0.1321001201868057,0.422983705997467
1629797541270,1.8842692375183103,0.6047007441520691,-0.1321001201868057,0.422983705997467
1629797541364,1.8842692375183103,0.6047007441520691,-0.1321001201868057,0.422983705997467
1629797541473,1.8842692375183103,0.6047007441520691,-0.1321001201868057,0.422983705997467
1629797541598,1.8842692375183103,0.6047007441520691,-0.1321001201868057,0.422983705997467
1629797541692,1.8842692375183103,0.6047007441520691,-0.1321001201868057,0.422983705997467
1629797541801,1.8842692375183103,0.6047007441520691,-0.1321001201868057,0.422983705997467
1629797541926,0.6213358640670776,0.6878165006637573,0.8967844247817993,0.422983705997467
1629797541989,0.578862190246582,0.6373645663261414,0.8572866320610046,0.422983705997467
1629797542098,0.5773057341575623,0.5816168785095215,0.805783212184906,0.422983705997467
1629797542145,0.6141775250434875,0.5313680171966553,0.7528637647628784,0.422983705997467
1629797542288,0.6697024703025818,0.4867860674858093,0.7020596265792847,0.422983705997467
1629797542413,0.6697024703025818,0.4493537247180938,0.6555125117301941,0.422983705997467
1629797542538,0.6697024703025818,0.4241751432418823,0.6173874735832214,0.422983705997467
1629797542585,0.6697024703025818,0.4483993947505951,0.587842583656311,0.422983705997467
1629797542710,0.6697024703025818,0.5422702431678772,0.5651177167892456,0.422983705997467
1629797542788,0.6697024703025818,0.6669816970825195,0.5489749312400818,0.422983705997467
1629797542928,0.6697024703025818,0.6669816970825195,0.5390990376472473,0.422983705997467
1629797543009,0.6697024703025818,0.6669816970825195,0.5328869819641113,0.422983705997467
1629797543103,0.6179840564727783,0.6633209586143494,0.4887849390506744,0.422983705997467
1629797543259,0.6038714647293091,0.6531906127929688,0.4206263720989227,0.422983705997467
1629797543337,0.6427549719810486,0.6486086249351501,0.3343859612941742,0.422983705997467
1629797543368,0.7132182717323303,0.640573263168335,0.248678371310234,0.422983705997467
1629797543556,0.7132182717323303,0.698314368724823,0.1858182400465011,0.422983705997467
1629797543634,0.7132182717323303,0.7334814667701721,0.1532269120216369,0.422983705997467
1629797543681,0.7132182717323303,0.7765595316886902,0.1410368233919143,0.422983705997467
1629797543790,0.7132182717323303,0.8277221322059631,0.143234446644783,0.422983705997467
1629797543941,0.7132182717323303,0.8873414993286133,0.1571695506572723,0.422983705997467
1629797543990,0.7132182717323303,0.9548361897468568,0.1786200255155563,0.422983705997467
1629797544131,0.7132182717323303,1.0078561305999756,0.2062273770570755,0.422983705997467
1629797544271,0.7132182717323303,1.0078561305999756,0.2333316951990127,0.422983705997467
1629797544318,0.7132182717323303,1.0078561305999756,0.2486409693956375,0.422983705997467
1629797544396,0.7132182717323303,1.0078561305999756,0.2467571496963501,0.422983705997467
1629797544537,0.7132182717323303,0.5300092101097107,0.2294530570507049,0.422983705997467
1629797544631,0.7132182717323303,0.443786472082138,0.2104009091854095,0.422983705997467
1629797544693,0.7132182717323303,0.3717673420906067,0.1950962394475937,0.422983705997467
1629797544849,0.7132182717323303,0.3098372220993042,0.1849266141653061,0.422983705997467
1629797544992,0.7132182717323303,0.2210428863763809,0.1807443648576736,0.422983705997467
1629797545039,0.7132182717323303,-0.3039320409297943,0.1797167658805847,0.422983705997467
1629797545148,0.7132182717323303,-0.3207087516784668,0.1790477186441421,0.2497574985027313
1629797545258,0.7132182717323303,-0.3173616230487823,0.1734626144170761,0.1785093247890472
1629797545351,0.7132182717323303,-0.3042123913764953,0.162682220339775,0.1159091740846633
1629797545492,0.1139526739716529,-0.2875820994377136,0.1434559673070907,0.071070522069931
1629797545570,0.1320753395557403,-0.2689838707447052,0.1076590046286583,0.0619351677596569
1629797545680,0.1632827818393707,-0.2501175999641418,0.0488958284258842,0.0897992253303527
1629797545742,0.2103291153907776,-0.234130322933197,-0.0296639688313007,0.1365426629781723
1629797545852,0.2598194181919098,-0.2275076806545257,-0.1167909130454063,0.1727353632450103
1629797545914,0.2935773134231567,-0.2890239357948303,-0.1981189101934433,0.1895069926977157
1629797546123,0.3013178408145904,-0.3091259300708771,-0.2643311023712158,0.189714565873146
1629797546170,0.2941811978816986,-0.3096404373645782,-0.3239558935165405,0.1778613477945327
1629797546295,0.2861022651195526,-0.2978315949440002,-0.3853098154067993,0.1641759276390075
1629797546373,0.2893384397029876,-0.2735441923141479,-0.4458921551704407,0.1257246732711792
1629797546467,0.2961242794990539,-0.2356008887290954,-0.4983923435211181,0.1343130469322204
1629797546529,0.3139919340610504,-0.1836301237344741,-0.4989693760871887,0.2023731172084808
1629797546672,0.3574696481227875,-0.1191734671592712,-0.3958334028720855,0.3391565680503845
1629797546781,0.4300283789634704,-0.05974006280303,-0.2321084588766098,0.4980316162109375
1629797546891,0.5027780532836914,-0.016212498769164,-0.092373102903366,0.6303356289863586
1629797546984,0.5536736845970154,0.0004682132275775,-0.0035384243819862,0.7166953086853027
1629797547097,0.5807960629463196,-0.0020728984382003,0.0414837524294853,0.7588584423065186
1629797547175,0.589268684387207,-0.0151441525667905,0.0567895844578743,0.7713907957077026
1629797547300,0.5844990015029907,-0.0288377422839403,0.0593240708112716,0.7689107656478882
1629797547440,0.5723485946655273,-0.0394096821546554,0.0580615811049938,0.7616206407546997
1629797547472,0.5619117617607117,-0.0418247655034065,0.0607197172939777,0.7580819725990295
1629797547596,0.5653226375579834,-0.0376277193427085,0.0743420496582984,0.764062225818634
1629797547736,0.584231972694397,-0.0326138027012348,0.1006410121917724,0.7831100821495056
1629797547767,0.6089191436767578,-0.0291119869798421,0.1321185231208801,0.81071937084198
1629797547923,0.6248134970664978,-0.0322538465261459,0.1583419889211654,0.834563136100769
1629797548032,0.628167986869812,-0.0443951226770877,0.1725971549749374,0.8453674912452698
1629797548120,0.6145575642585754,-0.0712065026164054,0.1713245958089828,0.8349751830101013
1629797548167,0.5821132063865662,-0.1199369579553604,0.1495914310216903,0.795420229434967
1629797548277,0.5279287099838257,-0.189687505364418,0.1053496748208999,0.7214686274528503
1629797548372,0.454562097787857,-0.2669179737567901,0.0485639050602912,0.6165307760238647
1629797548504,0.3782257735729217,-0.3169626295566559,0.0011937047820538,0.502869188785553
1629797548631,0.3168179094791412,-0.3334924578666687,-0.0233614332973957,0.4150294959545135
1629797548740,0.275785356760025,-0.3295518755912781,-0.0281851757317781,0.365877628326416
1629797548820,0.2497896403074264,-0.3167793750762939,-0.0277488529682159,0.3436105847358703
1629797548900,0.2313220351934433,-0.2882108092308044,-0.0242676325142383,0.3415652513504028
1629797549007,0.221625417470932,-0.2524979710578918,-0.023419365286827,0.3516604006290436
1629797549168,0.2278730422258377,-0.2228458523750305,-0.0264692269265651,0.3697335422039032
1629797549231,0.1812948584556579,-0.2090435475111007,-0.0404176861047744,0.3738132119178772
1629797549372,0.0996148437261581,-0.2129009962081909,-0.0638368278741836,0.3540617227554321
1629797549404,-0.0014850875595584,-0.2262310087680816,-0.0935733616352081,0.3306308090686798
1629797549497,0.0297427512705326,-0.2445302456617355,-0.1185715124011039,0.3274966478347778
1629797549668,0.070132665336132,-0.2628354430198669,-0.1422750353813171,0.3423847258090973
1629797549745,0.1007428467273712,-0.2806342840194702,-0.171224296092987,0.3612154424190521
1629797549822,0.1152203232049942,-0.2945269048213959,-0.2082885652780532,0.376789778470993
1629797549902,0.1162265464663505,-0.3088419139385223,-0.2517220377922058,0.3846230506896972
1629797550041,0.1149888113141059,-0.3260972797870636,-0.2938569784164428,0.3878611326217651
1629797550149,0.1127393320202827,-0.3460473120212555,-0.3218134343624115,0.38859623670578
1629797550219,0.1113284230232238,-0.3644286692142486,-0.3313380777835846,0.3887904286384582
1629797550365,0.1150708496570587,-0.387622982263565,-0.3276999592781067,0.3888939321041107
1629797550501,0.1276810616254806,-0.4281255602836609,-0.3265695571899414,0.3863756358623504
1629797550524,0.1469453871250152,-0.488482266664505,-0.3348757028579712,0.3860319852828979
1629797550616,0.1541125476360321,-0.5519088506698608,-0.362625390291214,0.3974395990371704
1629797550678,0.2179556936025619,-0.5842946767807007,-0.4055642187595367,0.4356627762317657
1629797550900,0.264504998922348,-0.5550668239593506,-0.4426047205924988,0.489724725484848
1629797550931,0.2840714454650879,-0.4777871668338775,-0.4504869282245636,0.5338430404663086
1629797551090,0.2509782612323761,-0.4046043157577514,-0.4200797080993652,0.5525147318840027
1629797551137,0.220363900065422,-0.3675664365291595,-0.3721516728401184,0.5558573007583618
1629797551246,0.1991521418094635,-0.3530720472335815,-0.3238062262535095,0.55392986536026
1629797551340,0.2013850063085556,-0.3345934152603149,-0.2873092293739319,0.5641748309135437
1629797551410,0.2549124956130981,-0.2996947467327118,-0.2631819248199463,0.590268075466156
1629797551550,0.3783892095088959,-0.2461749017238617,-0.2489266544580459,0.6456429958343506
1629797551628,0.5388344526290894,-0.1887456029653549,-0.2439931780099868,0.7281997799873352
1629797551743,0.6801937818527222,-0.1446957737207412,-0.243534117937088,0.8154675960540771
1629797551868,0.7771477103233337,-0.1207451671361923,-0.2468149960041046,0.88280189037323
1629797551931,0.829588770866394,-0.1157736256718635,-0.2512456774711609,0.9229857921600342
1629797552024,0.8477152585983276,-0.1210339367389679,-0.2555909752845764,0.937715709209442
1629797552167,0.8465179204940796,-0.127911701798439,-0.2577090263366699,0.9340240955352784
1629797552276,0.838375449180603,-0.1390026956796646,-0.2526726126670837,0.9175816178321838
1629797552401,0.8270351886749268,-0.1617141664028167,-0.2479574382305145,0.8923622965812683
1629797552433,0.820826530456543,-0.1989285051822662,-0.2513694763183594,0.8691197037696838
1629797552589,0.8211995959281921,-0.2426954954862594,-0.2700492739677429,0.8547033667564392
1629797552651,0.8245433568954468,-0.2696634232997894,-0.2922878265380859,0.8463835716247559
1629797552824,0.8283231258392334,-0.279074102640152,-0.308476835489273,0.8413557410240173
1629797552854,0.8309045433998108,-0.2883509695529938,-0.3055705726146698,0.832006573677063
1629797552967,0.8253269791603088,-0.3072482347488403,-0.2761988937854767,0.8161631226539612
1629797553107,0.7971131205558777,-0.3480882942676544,-0.2384276688098907,0.7808758020401001
1629797553138,0.7304543256759644,-0.4011374413967132,-0.2123098820447921,0.7152636647224426
1629797553248,0.6269062161445618,-0.4248546659946441,-0.2037624269723892,0.6262500286102295
1629797553373,0.5158023238182068,-0.3870171010494232,-0.2035727202892303,0.5608506202697754
1629797553545,0.4494452774524688,-0.3097876608371734,-0.2054152637720108,0.5703076720237732
1629797553623,0.4444555044174194,-0.2351418286561966,-0.2059414237737655,0.6345496773719788
1629797553716,0.4640206396579742,-0.1838104724884033,-0.1996047049760818,0.6962165236473083
1629797553763,0.4704680144786834,-0.1404878199100494,-0.1915307641029358,0.7255757451057434
1629797553904,0.4683670997619629,-0.0919939950108528,-0.1852215975522995,0.7301666140556335
1629797554079,0.4591788351535797,-0.0449667498469352,-0.1789081692695617,0.7215168476104736
1629797554141,0.4510087370872497,-0.0132115054875612,-0.1682445555925369,0.7105811238288879
1629797554203,0.4604708254337311,0.004463059362024,-0.1510176360607147,0.710383951663971
1629797554255,0.5119471549987793,0.0162590350955724,-0.1229643151164054,0.7337079048156738
1629797554365,0.5259596109390259,0.0364083014428615,-0.0824906900525093,0.7877247929573059
1629797554552,0.5353850722312927,0.0711614117026329,-0.0362128615379333,0.8582224249839783
1629797554677,0.540387749671936,0.1131984293460846,0.0003117995802313,0.9168249368667604
1629797554708,0.547116756439209,0.1463654041290283,0.0351407118141651,0.95393568277359
1629797554818,0.6135198473930359,0.1606523543596267,0.0718784481287002,0.9722670316696168
1629797554911,0.6479882001876831,0.155925303697586,0.1077476888895034,0.97762268781662
1629797554993,0.6805557608604431,0.1409917324781417,0.1328095495700836,0.9733856916427612
1629797555134,0.7187001705169678,0.1228225827217102,0.1470914036035537,0.9640262722969056
1629797555368,0.7462351322174072,0.1073878183960914,0.1520680636167526,0.9496636986732484
1629797555446,0.7629489302635193,0.0886377319693565,0.1515232920646667,0.9367629885673524
1629797555493,0.777130126953125,0.0583850778639316,0.1480975449085235,0.9298512935638428
1629797555540,0.7877654433250427,0.0209237653762102,0.144719198346138,0.9273736476898192
1629797555618,0.7938473224639893,-0.0098076956346631,0.1398461014032364,0.9280934929847716
1629797555758,0.7883466482162476,-0.0303626619279384,0.1315911710262298,0.9258142709732056
1629797555821,0.7522659301757812,-0.0445551499724388,0.1156831756234169,0.9122475385665894
1629797555993,0.723461925983429,-0.0663949772715568,0.08496805280447,0.8757723569869995
1629797556026,0.6983240246772766,-0.108534961938858,0.0328784920275211,0.8140837550163269
1629797556120,0.6766746640205383,-0.172682911157608,-0.0273222066462039,0.7446902990341187
1629797556245,0.6567510366439819,-0.2457150816917419,-0.0904352143406868,0.6848734021186829
1629797556339,0.6007448434829712,-0.3184521496295929,-0.1556159257888794,0.6339330077171326
1629797556448,0.5469686388969421,-0.3756973147392273,-0.2247609347105026,0.5718811750411987
1629797556526,0.4700472950935364,-0.4059920608997345,-0.2756538987159729,0.4797619879245758
1629797556645,0.3598919510841369,-0.4106250703334808,-0.3030240833759308,0.3552500903606415
1629797556770,0.2443798780441284,-0.3983544409275055,-0.3112640082836151,0.2331227958202362
1629797556848,0.1593051999807357,-0.3787480294704437,-0.3028620481491089,0.152715727686882
1629797556911,0.0981415137648582,-0.3615701496601105,-0.2849763333797455,0.1138070449233055
1629797557039,0.0524686649441719,-0.3447817265987396,-0.2686353325843811,0.0941870659589767
1629797557179,0.0137662254273891,-0.3171625733375549,-0.2577585577964782,0.0741030722856521
1629797557226,-0.0165979359298944,-0.2785380482673645,-0.250637948513031,0.0629256963729858
1629797557414,-0.0351196900010108,-0.2448344230651855,-0.238243356347084,0.0574941895902156
1629797557461,-0.036084696650505,-0.2252664566040039,-0.2176906764507293,0.055884588509798
1629797557632,-0.0291057918220758,-0.2233368456363678,-0.2001963257789611,0.0579198040068149
1629797557726,-0.0266207698732614,-0.2268111705780029,-0.1917418390512466,0.0680952593684196
1629797557742,-0.0332797393202781,-0.214897021651268,-0.193640798330307,0.0782523602247238
1629797557867,-0.0419126190245151,-0.1742778271436691,-0.1985863447189331,0.0833459720015525
1629797558007,-0.0395232029259204,-0.1272176951169967,-0.2031636983156204,0.0829518735408783
1629797558103,-0.0309013947844505,-0.094634898006916,-0.2072421312332153,0.0762784034013748
1629797558150,-0.0209424160420894,-0.0836008042097091,-0.2114285230636596,0.0644013732671737
1629797558275,-0.0125621743500232,-0.0932380035519599,-0.2154801338911056,0.0543237030506134
1629797558373,-0.008858248591423,-0.1117274984717369,-0.2159841656684875,0.0466294921934604
1629797558514,-0.0084694763645529,-0.1248637959361076,-0.2086751908063888,0.0440701059997081
1629797558608,0.0072134672664105,-0.1284154653549194,-0.1982951164245605,0.0688122361898422
1629797558701,0.0864685773849487,-0.1210065633058548,-0.1913513839244842,0.1739242970943451
1629797558732,0.2510177791118622,-0.1017523556947708,-0.1917640417814254,0.3682656288146972
1629797558920,0.4232558310031891,-0.0666555389761924,-0.1841743439435959,0.5627645254135132
1629797559029,0.56366366147995,-0.022582633420825,-0.1369826644659042,0.7116777300834656
1629797559076,0.6688050627708435,0.0170416496694087,-0.0431024171411991,0.8077091574668884
1629797559143,0.7446621060371399,0.0440064147114753,0.0651393011212349,0.8617801070213318
1629797559283,0.7972598075866699,0.0521682947874069,0.1506864428520202,0.889132559299469
1629797559346,0.8310545682907104,0.0430993884801864,0.1995694488286972,0.902765154838562
1629797559518,0.8488409519195557,0.028497751802206,0.2195119857788086,0.9100914597511292
1629797559643,0.8537446856498718,0.0199404302984476,0.2266870737075805,0.9123621582984924
1629797559689,0.8541579842567444,0.0250863339751958,0.225837841629982,0.9132927656173706
1629797559783,0.853262186050415,0.0437088757753372,0.2227678000926971,0.9150479435920716
1629797559861,0.8566863536834717,0.0666718482971191,0.2205071747303009,0.922374665737152
1629797560022,0.8690409660339355,0.0859402790665626,0.2204163372516632,0.9367220401763916
1629797560068,0.8876240849494934,0.0986139327287674,0.2283374965190887,0.953174650669098
1629797560242,0.8988022804260254,0.0990806221961975,0.2441463470458984,0.9579854011535645
1629797560289,0.8857316970825195,0.0845153853297233,0.2604374289512634,0.9329847097396852
1629797560555,0.8441938757896423,0.054677065461874,0.262918621301651,0.8729863166809082
1629797560851,0.7767278552055359,0.0108426194638013,0.2376420646905899,0.7819752097129822
1629797560976,0.6920272707939148,-0.0220905449241399,0.1808494925498962,0.6832658648490906
1629797561070,0.6002612709999084,-0.0217716172337532,0.095538705587387,0.6079740524291992
1629797561211,0.5115808248519897,0.0104079470038414,0.0022743188310414,0.5728090405464172
1629797561258,0.4367251098155975,0.047012235969305,-0.0634319931268692,0.5678950548171997
1629797561336,0.3847468793392181,0.0646456107497215,-0.0853664577007293,0.5776368379592896
1629797561367,0.361383318901062,0.059708371758461,-0.0878834426403045,0.5918110609054565
1629797561398,0.3480989336967468,0.0409876890480518,-0.0810852572321891,0.5996321439743042
1629797561492,0.3391298651695251,0.0211685337126255,-0.0766430720686912,0.5996583700180054
1629797561601,0.3196747004985809,0.0086919767782092,-0.079611912369728,0.5875113606452942
1629797561648,0.2699907422065735,0.0080399103462696,-0.0927281305193901,0.5562313795089722
1629797561773,0.174554094672203,0.0148500278592109,-0.1241121217608451,0.5042251348495483
1629797562023,0.0347450450062751,0.0261230878531932,-0.1742195636034011,0.4416136443614959
1629797562101,-0.1317281275987625,0.03627884760499,-0.23344486951828,0.382523626089096
1629797562179,-0.22259321808815,0.0398511067032814,-0.2825052142143249,0.3560656309127807
1629797562507,-0.0949707180261612,0.0388939753174781,-0.3056972920894623,0.4113909006118774
1629797562632,0.169064000248909,0.0269682500511407,-0.3106546401977539,0.5398424863815308
1629797562664,0.4187627732753753,-0.00708684977144,-0.3132421970367431,0.6790598034858704
1629797562710,0.5995136499404907,-0.0616444908082485,-0.3228299915790558,0.784136176109314
1629797562742,0.7105780243873596,-0.1148823499679565,-0.3391217887401581,0.8437659740447998
1629797562882,0.7373400926589966,0.9854723215103148,-0.3580378293991089,0.8550752401351929
1629797563069,0.7677772045135498,0.9859387874603271,-0.3698057830333709,0.872678816318512
1629797563150,0.8018412590026855,0.9895976185798644,-0.3660559952259063,0.8983370065689087
1629797563166,0.8057368993759155,0.996115267276764,-0.3594197332859039,0.9306226372718812
1629797563197,0.808631956577301,1.0044199228286743,-0.3671043217182159,0.9800739288330078
1629797563353,0.810116171836853,1.0125246047973633,-0.3888719975948334,1.0271859169006348
1629797563400,0.8113607168197632,1.0187381505966189,-0.4122311174869537,1.0670826435089111
1629797563510,0.8136959075927734,1.0222227573394775,-0.4249819815158844,1.111178636550903
1629797563619,0.8175325393676758,1.023952603340149,-0.4266431629657745,1.1605662107467651
1629797563713,0.8162710070610046,1.02494478225708,-0.4266242384910583,1.2107843160629272
1629797563760,0.7958192825317383,1.433806538581848,-0.4313345849514007,1.2490830421447754
1629797563791,0.7361244559288025,1.4340989589691162,-0.4360975623130798,1.2580257654190063
1629797564010,0.6149659156799316,1.43463134765625,-0.4398210346698761,1.2259670495986938
1629797564181,0.4215622544288635,1.4352723360061646,-0.434664636850357,1.1241271495819092
1629797564197,0.1796453446149826,1.4357221126556396,-0.4110918641090393,1.049111008644104
1629797564228,0.2593235969543457,1.2632397413253784,-0.3756117522716522,1.0398274660110474
1629797564306,0.3101609647274017,1.2630012035369873,-0.3434412181377411,1.2379072904586792
1629797564369,0.3280959725379944,1.2614367008209229,-0.3334742486476898,1.196692705154419
1629797564416,0.3405569195747375,1.2579748630523682,-0.3365544974803924,1.150326371192932
1629797564494,0.3385862708091736,1.253015160560608,-0.3340884447097778,1.1085352897644043
1629797564619,0.3332710862159729,1.247589349746704,-0.3187730312347412,1.0607860088348389
1629797564666,0.3263852596282959,1.2429581880569458,-0.3037265241146087,1.0167666673660278
1629797564744,0.3185775279998779,1.239826798439026,-0.2965816855430603,0.9761113524436952
1629797564918,0.3097999393939972,1.237778902053833,-0.2958265841007232,0.9375606775283812
1629797564981,0.3011430203914642,1.2364628314971924,-0.2956031262874603,0.9013332724571228
1629797565121,0.2944729626178741,-0.1763898581266403,-0.2950519025325775,0.8674179911613464
1629797565137,0.2826119661331177,-0.1821021288633346,-0.2943829298019409,0.8357757925987244
1629797565262,0.2595346570014953,-0.1733385324478149,-0.2871759831905365,0.8066437840461731
1629797565325,0.2192377746105194,-0.1457968354225158,-0.2671164274215698,0.7599142789840698
1629797565418,0.1539814323186874,-0.1008959487080574,-0.2470521777868271,0.7103109359741211
1629797565668,0.0539759211242198,-0.0456164442002773,-0.2264985889196396,0.6522725820541382
1629797565762,-0.070740520954132,0.0046858349815011,-0.202986866235733,0.0965971425175666
1629797565902,-0.1744639426469802,0.0400910042226314,-0.1732886433601379,-0.0722146183252334
1629797566000,-0.2146830707788467,0.0614342801272869,-0.1427134573459625,-0.1684089004993438
1629797566031,-0.1697288006544113,0.069340631365776,-0.1166134402155876,-0.1995852142572403
1629797566250,-0.050745852291584,0.0690635442733764,-0.0912173613905906,-0.1607412695884704
1629797566390,0.0955093652009964,0.0607621148228645,-0.0636163130402565,-0.0354831777513027
1629797566437,0.2182162702083587,0.0502466596662998,-0.030532956123352,0.0996700152754783
1629797566484,0.2979596853256225,0.0431419648230075,0.0013101804070174,0.2012199163436889
1629797566625,0.3424434661865234,0.0424588620662689,0.0262651331722736,0.2620472013950348
1629797566640,0.3652791678905487,0.0472346618771553,0.0442743562161922,0.2897447943687439
1629797566765,0.3797727525234222,0.0516613572835922,0.0537894703447818,0.3017467558383941
1629797566937,0.3946395218372345,0.0434191599488258,0.0660385265946388,0.325544536113739
1629797566986,0.419710099697113,0.01461414527148,0.104015439748764,0.3856916427612304
1629797567033,0.4773299694061279,-0.0354836694896221,0.1929100006818771,0.5054923892021179
1629797567127,0.5656900405883789,-0.1043170988559722,0.3138289749622345,0.6647120118141174
1629797567205,0.6557177305221558,-0.1798410564661026,0.4255458414554596,0.6924947500228882
1629797567252,0.721048891544342,-0.2490082830190658,0.5046091079711914,0.7227880358695984
1629797567471,0.7555726766586304,-0.3053765892982483,0.5476186275482178,0.8223229050636292
1629797567533,0.7641345262527466,-0.3403992652893066,0.5623417496681213,0.8609389066696167
1629797567580,0.7547808289527893,-0.3558253347873688,0.5617824792861938,0.8640611171722412
1629797567783,0.7348520159721375,-0.3501488864421844,0.5574457049369812,0.8496643900871277
1629797567814,0.7061693072319031,-0.3328293263912201,0.553593099117279,0.8302950859069824
1629797568033,0.6805942058563232,-0.3109345734119415,0.5511763095855713,0.8136701583862305
1629797568127,0.6705078482627869,-0.2861652672290802,0.5506700277328491,0.8098294138908386
1629797568236,0.686659038066864,-0.2578152120113373,0.5515053272247314,0.8239821791648865
1629797568252,0.7378600835800171,-0.2298953235149383,0.5533668398857117,0.8563045859336853
1629797568408,0.809291660785675,-0.2060104310512542,0.5520353317260742,0.8962749242782593
1629797568470,0.8720230460166931,-0.1939385831356048,0.5381397008895874,0.9248183369636536
1629797568580,0.9027712345123292,-0.196692943572998,0.4956037402153015,0.9165041446685792
1629797568705,0.895548939704895,-0.2122918218374252,0.4102093875408172,0.8465028405189514
1629797568892,0.8617749810218811,-0.2347204089164734,0.2793939411640167,0.826960563659668
1629797568955,0.8229807019233704,-0.2497188150882721,0.1206868141889572,0.8047623634338379
1629797569017,0.7956349849700928,-0.2486577928066253,-0.0190995633602142,0.7217798829078674
1629797569207,0.7831600904464722,-0.2426747679710388,-0.0906545966863632,0.6761608719825745
1629797569285,0.7793126702308655,-0.2378599643707275,-0.1078468784689903,0.6619893908500671
1629797569363,0.775808572769165,-0.2411621659994125,-0.1159181147813797,0.6574654579162598
1629797569582,0.7750769853591919,-0.2528028488159179,-0.1339684724807739,0.6505638360977173
1629797569597,0.774491548538208,-0.2715667486190796,-0.153331309556961,0.6429420113563538
1629797569644,0.7684151530265808,-0.3048352003097534,-0.1659076958894729,0.6323612332344055
1629797569675,0.7470632791519165,-0.3591931760311126,-0.1674142628908157,0.6148850321769714
1629797569832,0.6911696791648865,-0.4354782998561859,-0.1611606329679489,0.577839195728302
1629797569894,0.5838550329208374,-0.5235114097595215,-0.1589313447475433,0.5049023032188416
1629797570238,0.4218340218067169,-0.5921670794487,-0.1648414433002472,0.3947657644748688
1629797570285,0.2201946824789047,-0.618657112121582,-0.1682662665843963,0.2695513963699341
1629797570347,0.0238543823361396,-0.6066452264785767,-0.1586901545524597,0.1780346482992172
1629797570394,-0.1056296378374099,-0.5727278590202332,-0.1427143365144729,0.1395297348499298
1629797570582,-0.1387660354375839,-0.5329644680023193,-0.1292722821235656,0.1500662267208099
1629797570675,-0.038245566189289,-0.4872650504112243,-0.1178532242774963,0.2371527552604675
1629797570831,0.1530993282794952,-0.424343854188919,-0.1056734919548034,0.3911921977996826
1629797570847,0.3299174308776855,-0.3530681431293487,-0.0907154008746147,0.5500618815422058
1629797571003,0.4529777765274048,-0.2855481207370758,-0.0790611654520034,0.6705984473228455
1629797571100,0.473352700471878,-0.2291322648525238,-0.0754493474960327,0.7415755987167358
1629797571225,0.4970636963844299,-0.1872807145118713,-0.0823130682110786,0.7758809328079224
1629797571459,0.5250300168991089,-0.1534112989902496,-0.096411719918251,0.788302481174469
1629797571490,0.529421865940094,-0.1302841305732727,-0.1186760067939758,0.7912647724151611
1629797571568,0.527548611164093,-0.1126075014472007,-0.1464974135160446,0.7862306237220764
1629797571693,0.5250648856163025,-0.1023179143667221,-0.1690669506788253,0.7812768220901489
1629797571803,0.523573637008667,-0.0991730093955993,-0.1807774901390075,0.7792524099349976
1629797571868,0.5244039297103882,-0.0985238477587699,-0.1875836998224258,0.7795180678367615
1629797571993,0.527617871761322,-0.0951589569449424,-0.2044360786676406,0.7792319655418396
1629797572008,0.5264658331871033,-0.0897564515471458,-0.2305617481470108,0.7765957117080688
1629797572086,0.5232661366462708,-0.0883450806140899,-0.2506777346134186,0.7703856825828552
1629797572243,0.5246948003768921,-0.098488949239254,-0.2618632316589355,0.7573787569999695
1629797572258,0.5492729544639587,-0.1240208968520164,-0.2667035460472107,0.7383164167404175
1629797572383,0.6109578013420105,-0.1630762368440628,-0.2698924839496612,0.7246237993240356
1629797572430,0.6900425553321838,-0.2088275700807571,-0.2720108032226562,0.7271743416786194
1629797572602,0.7715147137641907,-0.2576017677783966,-0.2703991234302521,0.7467613220214844
1629797572617,0.7973393201828003,-0.3021476566791534,-0.2680963575839996,0.7641602158546448
1629797572789,0.7905735969543457,-0.3404150307178497,-0.26900315284729,0.7719749808311462
1629797572852,0.8158660531044006,-0.3651204705238342,-0.2721169590950012,0.7876842021942139
1629797572963,0.8458452820777893,-0.3475145101547241,-0.2720654904842376,0.8121413588523865
1629797572994,0.8790289163589478,-0.1342257112264633,-0.2274080067873001,0.8413816690444946
1629797573072,0.9152087569236756,0.203865110874176,-0.1084893122315406,0.8749815821647644
1629797573119,0.9546107649803162,0.5300825834274292,0.0703017339110374,0.91319078207016
1629797573150,0.9979796409606934,0.5558912754058838,0.269412100315094,0.9572069048881532
1629797573322,1.047042727470398,0.5825769901275635,0.4442719519138336,1.007116436958313
1629797573447,1.0993298292160034,0.61166912317276,0.5705652236938477,1.0601110458374023
1629797573541,1.144619703292847,0.6448751091957092,0.6490916609764099,1.1071380376815796
1629797573666,1.164583683013916,0.6830004453659058,0.6864116191864014,1.1341108083724976
1629797573713,1.138477802276611,0.7259907722473145,0.698703944683075,1.1223890781402588
1629797573918,1.138477802276611,0.7744930386543274,0.7255068421363831,1.1223890781402588
1629797573964,1.138477802276611,0.7991082668304443,0.7906628847122192,1.1223890781402588
1629797574121,1.138477802276611,0.8257591128349304,0.8685485124588013,1.1223890781402588
1629797574214,1.138477802276611,0.8527103066444397,0.9340642094612122,1.1223890781402588
1629797574261,1.138477802276611,0.8764790296554565,0.9785735011100768,1.1223890781402588
1629797574371,1.138477802276611,0.8919925093650818,1.0051674842834473,1.1223890781402588
1629797574480,1.138477802276611,0.8765665888786316,1.0187369585037231,1.1223890781402588
1629797574699,1.138477802276611,0.7857571244239807,1.0213631391525269,1.1223890781402588
1629797574777,1.138477802276611,0.4527025520801544,1.016552209854126,1.1223890781402588
1629797574808,1.138477802276611,0.4116316437721252,1.002108454704285,1.1223890781402588
1629797574980,1.138477802276611,0.3733903765678406,0.9752032160758972,1.1223890781402588
1629797575074,1.138477802276611,0.3413823544979095,0.9399309158325196,1.1223890781402588
1629797575121,1.138477802276611,0.3145671784877777,0.9055279493331908,1.1223890781402588
1629797575199,1.138477802276611,0.2927255928516388,0.8845693469047546,1.1223890781402588
1629797575215,1.138477802276611,0.2747180163860321,0.8780539631843567,1.2599107027053833
1629797575340,1.138477802276611,0.2602973282337188,0.8612081408500671,1.2133479118347168
1629797575449,1.138477802276611,0.2298658192157745,0.8085776567459106,1.1912391185760498
1629797575621,0.8186839818954468,0.1915994435548782,0.7197568416595459,1.177386999130249
1629797575668,0.7851120233535767,0.1388507634401321,0.6078195571899414,1.1600627899169922
1629797575730,0.7374244332313538,0.0763895809650421,0.4958148896694183,1.1366420984268188
1629797575793,0.6877763271331787,0.0150863798335194,0.4036610126495361,1.110150933265686
1629797575949,0.645379900932312,-0.0292501114308834,0.3370496928691864,1.0833138227462769
1629797576030,0.6104534864425659,-0.0566416196525096,0.2924220860004425,1.0559190511703491
1629797576218,0.5816490054130554,-0.0564580336213111,0.2382865995168686,0.8920090198516846
1629797576311,0.55597984790802,-0.0478049516677856,0.1620068103075027,0.865959882736206
1629797576452,0.5128166675567627,-0.0415271744132041,0.0242951810359954,0.8118624091148376
1629797576561,0.4965652227401733,-0.0469241105020046,-0.0020122756250202,0.7629098296165466
1629797576608,0.4812636375427246,-0.0572502166032791,-0.022411111742258,0.7244680523872375
1629797576905,0.4407214522361755,-0.0665149539709091,-0.0549729689955711,0.6859939098358154
1629797577033,0.3730147182941437,-0.0720104724168777,-0.0857145860791206,0.6365278959274292
1629797577064,0.2842440903186798,-0.0810726732015609,-0.1035636216402053,0.5598558783531189
1629797577205,0.1931668072938919,-0.0985473617911338,-0.1036455407738685,0.4586691558361053
1629797577314,0.1251819282770156,-0.1133448332548141,-0.0937397107481956,0.3552550375461578
1629797577486,0.0893334969878196,-0.1183062866330146,-0.0834710970520973,0.2779141366481781
1629797577517,0.0737467259168624,-0.119117259979248,-0.0799855664372444,0.2324158549308776
1629797577533,0.0571534112095832,-0.1337153911590576,-0.0926100835204124,0.2009234279394149
1629797577611,0.0367234796285629,-0.154999703168869,-0.1223860904574394,0.1803438812494278
1629797577658,0.0155608747154474,-0.1825982630252838,-0.1638260632753372,0.1588480621576309
1629797577767,0.006323680281639,-0.2026059776544571,-0.2086142003536224,0.1642613708972931
1629797577956,0.0108975796028971,-0.2087446451187133,-0.2429928481578827,0.2144225090742111
1629797578003,0.0240032095462083,-0.2013530433177948,-0.2432666718959808,0.2990308105945587
1629797578081,0.036658402532339,-0.1802317500114441,-0.2035202383995056,0.3917028903961181
1629797578159,0.0458002127707004,-0.1557025909423828,-0.1490336507558822,0.4660516083240509
1629797578300,0.0469575226306915,-0.1436792910099029,-0.1086782068014144,0.5105079412460327
1629797578456,0.0407878160476684,-0.1489350199699401,-0.0934041365981102,0.5298146605491638
1629797578550,0.0310405008494853,-0.1664353758096695,-0.1011422872543335,0.534507691860199
1629797578612,0.0314057730138301,-0.1832467317581176,-0.1217550188302993,0.5362385511398315
1629797578721,0.0487284511327743,-0.198575884103775,-0.1424525082111358,0.5362606644630432
1629797578925,0.0748695656657219,-0.2160584777593612,-0.1577294617891311,0.5309866666793823
1629797579129,0.1013820394873619,-0.2301274240016937,-0.1627600044012069,0.5218452215194702
1629797579161,0.1223556548357009,-0.2272768318653106,-0.1531246900558471,0.5128029584884644
1629797579270,0.1348002701997757,-0.2045546770095825,-0.1232048124074935,0.5035588145256042
1629797579379,0.1433930546045303,-0.171667218208313,-0.0774774476885795,0.4960288107395172
1629797579457,0.1561410129070282,-0.1446310877799987,-0.0343642048537731,0.4894733726978302
1629797579504,0.1872196793556213,-0.1330078840255737,-0.0118404757231473,0.4872141182422638
1629797579614,0.2562550008296966,-0.1381052732467651,-0.0173458736389875,0.4994373023509979
1629797579801,0.3579595386981964,-0.1563980281352996,-0.0473701059818267,0.5343385934829712
1629797579895,0.4612239599227905,-0.1773367524147033,-0.0841282457113266,0.5841183066368103
1629797580131,0.5408408045768738,-0.1889834105968475,-0.1021957024931907,0.632519543170929
1629797580225,0.597170889377594,-0.1893917322158813,-0.0993862301111221,0.6723765134811401
1629797580256,0.6342813968658447,-0.1825787276029586,-0.0793040916323661,0.701533317565918
1629797580303,0.6560674905776978,-0.1709513515233993,-0.0540090873837471,0.7177736759185791
1629797580459,0.6601934432983398,-0.1520897895097732,-0.0352136343717575,0.7216715216636658
1629797580694,0.6556591391563416,-0.1357589066028595,-0.0206366423517465,0.7205120325088501
1629797580741,0.6477612257003784,-0.129796102643013,-0.0080438572913408,0.7173095941543579
1629797580850,0.6396345496177673,-0.1359696388244629,0.0021847563330084,0.714527428150177
1629797580928,0.6328128576278687,-0.1484971493482589,0.0028443979099392,0.7143493294715881
1629797580990,0.6260375380516052,-0.1609977185726165,-0.0105696879327297,0.7148668169975281
1629797581040,0.6171128749847412,-0.1580384522676468,-0.0308366436511278,0.713459312915802
1629797581166,0.6247295141220093,-0.1274664252996444,-0.0438224636018276,0.709980845451355
1629797581291,0.6114950180053711,-0.0628858208656311,-0.0406572856009006,0.7076976299285889
1629797581338,0.5637806057929993,0.0204282458871603,-0.0185031294822692,0.7115638256072998
1629797581479,0.4759924709796905,0.1025477796792984,0.0113353375345468,0.7300321459770203
1629797581573,0.3584290742874145,0.1627402156591415,0.0383998528122901,0.7577046155929565
1629797581776,0.4452168345451355,0.1990361213684082,0.0586255714297294,0.7804206609725952
1629797581869,0.4695849120616913,0.2179221659898758,0.0646980628371238,0.7898736000061035
1629797582026,0.4540239870548248,0.2236846387386322,0.0571167208254337,0.7904757261276245
1629797582057,0.4417366981506347,0.221202865242958,0.0454904660582542,0.7923688888549805
1629797582123,0.4374359548091888,0.2151857614517212,0.0361307598650455,0.7938751578330994
1629797582263,0.4419620037078857,0.2125578969717025,0.0312330927699804,0.7945303916931152
1629797582341,0.4511383175849914,0.2117743641138076,0.0295926071703434,0.7937954664230347
1629797582357,0.462472528219223,0.2082323580980301,0.028491148725152,0.7922341823577881
1629797582529,0.4772444069385528,0.2033352106809616,0.0232675280421972,0.7944893836975098
1629797582576,0.5170012712478638,0.2086741030216217,0.0107577238231897,0.8187841176986694
1629797582623,0.5170012712478638,0.2460425049066543,-0.0085400603711605,0.8369970917701721
1629797582779,0.5170012712478638,0.3197769522666931,-0.0342820808291435,0.8369187116622925
1629797582810,0.5170012712478638,0.4053134024143219,-0.0665573552250862,0.8035185933113098
1629797582951,0.5170012712478638,0.4927357137203216,-0.0857434794306755,0.720981240272522
1629797583013,0.3127631545066833,0.6678877472877502,-0.0162240415811538,0.4105826616287231
1629797583029,0.5170012712478638,0.5807249546051025,-0.0702209174633026,0.5861509442329407
1629797583060,0.1036201640963554,0.7481478452682495,0.070235788822174,0.2407316267490387
1629797583138,-0.0202321391552686,0.8092322945594788,0.1705832630395889,0.134252443909645
1629797583373,-0.0486804209649562,0.8417143821716309,0.2630761861801147,0.0689673423767089
1629797583404,-0.033117763698101,0.8555553555488586,0.3346393406391144,0.0303367562592029
1629797583419,-0.033117763698101,0.8633854985237122,0.3915309309959411,0.0303367562592029
1629797583638,-0.033117763698101,0.8746002912521362,0.4477899074554443,0.0303367562592029
1629797583747,-0.033117763698101,0.8918212056159973,0.5298591256141663,0.0303367562592029
1629797583794,-0.033117763698101,0.9189773201942444,0.6628736853599548,0.0303367562592029
1629797583857,-0.033117763698101,0.960032045841217,0.6896119713783264,0.0303367562592029
1629797583982,-0.033117763698101,0.978059947490692,0.7192997932434082,0.0303367562592029
1629797584294,-0.033117763698101,0.9860162138938904,0.751350998878479,0.0303367562592029
1629797584372,-0.033117763698101,0.984707772731781,0.7853005528450012,0.0303367562592029
1629797584575,-0.033117763698101,0.9737824201583862,0.8186233639717102,0.0303367562592029
1629797584669,-0.033117763698101,0.9525818824768066,0.8488739132881165,0.0303367562592029
1629797584810,-0.033117763698101,0.9173234105110168,0.8767780065536499,0.0303367562592029
1629797584935,-0.033117763698101,0.8640387058258057,0.9024471640586852,0.0303367562592029
1629797585091,-0.033117763698101,0.8057588338851929,0.9268122911453248,0.0303367562592029
1629797585231,-0.033117763698101,0.7848520874977112,0.9543711543083192,0.0303367562592029
1629797585263,-0.033117763698101,0.8164296746253967,0.9961650371551514,0.0303367562592029
1629797585310,-0.033117763698101,0.8795064091682434,0.9961650371551514,0.0303367562592029
1629797585435,-0.033117763698101,0.8795064091682434,0.9961650371551514,0.0303367562592029
1629797585513,-0.033117763698101,0.8795064091682434,0.9961650371551514,0.0303367562592029
1629797585588,-0.033117763698101,0.8795064091682434,0.9961650371551514,1.3328008651733398
1629797585604,-0.033117763698101,0.8795064091682434,0.9961650371551514,1.292486548423767
1629797585643,-0.033117763698101,0.8795064091682434,0.8040327429771423,1.280227541923523
1629797585720,-0.033117763698101,0.6953808069229126,0.7593865394592285,1.279574275016785
1629797585751,1.0737261772155762,0.6827630996704102,0.7357590794563293,1.271206617355347
1629797585783,1.1694598197937012,0.6550976634025574,0.7660805583000183,1.2473140954971311
1629797585877,1.1694598197937012,0.6674898862838745,0.8295621871948242,1.2473140954971311
1629797585972,1.1694598197937012,0.6674898862838745,0.8295621871948242,1.2473140954971311
1629797586086,1.1694598197937012,0.6674898862838745,0.8295621871948242,1.2473140954971311
1629797586196,1.1694598197937012,0.6674898862838745,0.8295621871948242,1.2473140954971311
1629797586322,1.1694598197937012,0.6674898862838745,0.8295621871948242,1.2473140954971311
1629797586400,1.2546712160110474,0.6674898862838745,0.8295621871948242,1.2473140954971311
1629797586496,1.2546712160110474,0.6674898862838745,0.8295621871948242,1.193247675895691
1629797586574,1.2546712160110474,0.6674898862838745,0.8295621871948242,1.1653432846069336
1629797586685,1.2546712160110474,0.6674898862838745,0.8034175038337708,1.140494704246521
1629797586796,1.2546712160110474,0.6697306632995605,0.8133659362792969,1.1642732620239258
1629797586936,1.2546712160110474,0.6625155806541443,0.8244355916976929,1.183315396308899
1629797587018,1.2546712160110474,0.6484818458557129,0.8536738753318787,1.183315396308899
1629797587142,1.2546712160110474,0.6484818458557129,0.8722455501556396,1.183315396308899
1629797587187,1.2546712160110474,0.6484818458557129,0.8506888151168823,1.183315396308899
1629797587298,1.2546712160110474,0.6484818458557129,0.7418262362480164,1.183315396308899
1629797587408,1.2546712160110474,0.6484818458557129,0.4185884892940521,1.183315396308899
1629797587499,1.2546712160110474,0.6484818458557129,0.3825072050094604,1.183315396308899
1629797587594,0.5523287057876587,0.3268854916095733,0.3583474457263946,1.183315396308899
1629797587702,0.5613449215888977,0.3027073442935943,0.3405930697917938,0.0715798884630203
1629797587842,0.5490729808807373,0.2700745463371277,0.3154405057430267,0.0785581097006797
1629797587985,0.5348000526428223,0.2388747185468673,0.289908766746521,0.0826975330710411
1629797588094,0.5382457375526428,0.2149923592805862,0.2770596444606781,0.0876843705773353
1629797588172,0.5544519424438477,0.1933025866746902,0.2827826738357544,0.0834022164344787
1629797588560,0.5647383332252502,0.1671609580516815,0.2894800305366516,0.0622725263237953
1629797588623,0.5611991882324219,0.1365145146846771,0.2943410873413086,0.0304846409708261
1629797588670,0.5449272990226746,0.1052170991897583,0.293851226568222,-0.0001396400039084
1629797588685,0.5209256410598755,0.0811078622937202,0.2922366559505462,-0.0182914286851882
1629797588748,0.4940683841705322,0.0687454491853714,0.2533310055732727,-0.0122227994725108
1629797588779,0.4670290946960449,0.0649051070213317,0.2453646510839462,0.0152516495436429
1629797588810,0.4348039329051971,0.038926612585783,0.2429726123809814,0.041118461638689
1629797588920,0.4033273160457611,0.0077454750426113,0.2399864047765731,0.0455783121287822
1629797589013,0.3655180335044861,-0.0279723349958658,0.2341155707836151,0.0468838661909103
1629797589090,0.318522572517395,-0.0632570758461952,0.2270237952470779,0.0405101142823696
1629797589238,0.2659092247486114,-0.0983799174427986,0.2184502184391021,0.0222724117338657
1629797589363,0.2250329405069351,-0.0890941172838211,0.2341279238462448,0.0060036834329366
1629797589498,0.1908255666494369,-0.0066529456526041,0.2467768341302871,0.0308270119130611
1629797589559,0.1434517055749893,0.171125903725624,0.2539845705032348,0.1423304080963134
1629797589621,0.0760481208562851,0.4130043387413025,0.2463743388652801,0.340284526348114
1629797589699,0.0442996583878994,0.4356467723846435,0.2347612082958221,0.5515571236610413
1629797589824,0.1446276754140854,0.4636229574680328,0.221521720290184,0.7312424778938293
1629797589996,0.3374797403812408,0.495771586894989,0.2135405093431472,0.8511847853660583
1629797590059,0.5361839532852173,0.5291500091552734,0.2060853391885757,0.9209734201431274
1629797590262,0.5616387128829956,0.5619145631790161,0.1912035346031189,0.9469797015190125
1629797590277,0.5913050174713135,0.595391035079956,0.1704111248254776,0.9725916981697084
1629797590293,0.6229810118675232,0.6315992474555969,0.1535000801086425,1.0002171993255615
1629797590418,0.6570945978164673,0.674153745174408,0.1540901660919189,1.0324586629867554
1629797590548,0.6949483156204224,0.7280665636062622,0.1540901660919189,1.0717480182647705
1629797590673,0.7915892601013184,0.798122227191925,0.1540901660919189,1.1120758056640625
1629797590751,0.8520745038986206,0.8874933123588562,0.1540901660919189,1.1514824628829956
1629797590970,0.8850294947624207,0.8874933123588562,0.1540901660919189,1.1951078176498413
1629797591016,0.9030669927597046,0.8874933123588562,0.1540901660919189,1.23955237865448
1629797591066,0.9163986444473268,0.8874933123588562,0.1540901660919189,1.278294801712036
1629797591275,0.9376068711280824,0.8874933123588562,0.4793681800365448,1.2350962162017822
1629797591322,0.967098832130432,0.8874933123588562,0.4793681800365448,1.2175328731536863
1629797591369,0.9764302372932434,0.8874933123588562,0.4793681800365448,1.1541147232055664
1629797591463,0.9475799202919006,0.8874933123588562,0.4793681800365448,1.0543593168258667
1629797591604,0.8456785082817078,0.8874933123588562,0.4793681800365448,1.0543593168258667
1629797591697,0.8456785082817078,0.8874933123588562,0.4793681800365448,1.0543593168258667
1629797591791,0.8456785082817078,0.8874933123588562,0.4793681800365448,1.0543593168258667
1629797591916,0.8456785082817078,0.8874933123588562,0.4793681800365448,1.0543593168258667
1629797592025,0.8456785082817078,0.8874933123588562,0.4793681800365448,1.0543593168258667
1629797592041,0.8456785082817078,0.8874933123588562,0.4793681800365448,1.0543593168258667
1629797592166,0.7688332796096802,0.8874933123588562,0.4793681800365448,1.0543593168258667
1629797592260,0.6932295560836792,0.8874933123588562,0.4793681800365448,1.0543593168258667
1629797592463,0.6932295560836792,0.8874933123588562,0.4793681800365448,1.0543593168258667
1629797592591,0.6932295560836792,0.8874933123588562,0.4793681800365448,1.0543593168258667
1629797592637,0.6932295560836792,0.8874933123588562,0.4793681800365448,1.0543593168258667
1629797592731,0.6932295560836792,0.8874933123588562,0.4793681800365448,1.0543593168258667
1629797592778,0.6932295560836792,0.8874933123588562,0.4793681800365448,1.0543593168258667
1629797592903,0.6932295560836792,0.8874933123588562,0.4793681800365448,1.0543593168258667
1629797593061,0.6932295560836792,0.8874933123588562,0.4793681800365448,1.0543593168258667
1629797593108,0.6932295560836792,0.8874933123588562,0.4793681800365448,1.0543593168258667
1629797593217,0.6932295560836792,0.8874933123588562,0.4793681800365448,1.0543593168258667
1629797593311,0.6932295560836792,0.8874933123588562,0.4793681800365448,1.0543593168258667
1629797593389,0.6932295560836792,0.8874933123588562,0.4793681800365448,1.0543593168258667
1629797593483,0.6932295560836792,0.8874933123588562,0.4793681800365448,1.0543593168258667
1629797593654,0.6932295560836792,0.8874933123588562,0.4793681800365448,1.0543593168258667
1629797593764,0.6932295560836792,0.8874933123588562,0.4793681800365448,1.0543593168258667
1629797593842,0.6932295560836792,0.8874933123588562,0.4793681800365448,1.0543593168258667
1629797593936,0.6932295560836792,0.8874933123588562,0.4793681800365448,1.0543593168258667
1629797594092,0.6932295560836792,0.8874933123588562,0.4793681800365448,1.0543593168258667
1629797594155,0.6932295560836792,0.8874933123588562,0.4793681800365448,1.0543593168258667
1629797594311,0.6932295560836792,0.8874933123588562,0.4793681800365448,1.0543593168258667
1629797594373,0.6932295560836792,0.8874933123588562,0.4793681800365448,1.0543593168258667
1629797594482,0.6932295560836792,0.8874933123588562,0.4793681800365448,1.0543593168258667
1629797594576,0.6932295560836792,0.8874933123588562,0.4793681800365448,1.0543593168258667
1629797594639,0.6932295560836792,0.8874933123588562,0.4793681800365448,1.0543593168258667
1629797594701,0.6932295560836792,0.8874933123588562,0.4793681800365448,1.0543593168258667
1629797594810,0.6932295560836792,0.8874933123588562,0.4793681800365448,1.0543593168258667
1629797594920,0.6932295560836792,0.8874933123588562,0.4793681800365448,1.0543593168258667
1629797594998,0.6932295560836792,0.8874933123588562,0.4793681800365448,1.0543593168258667
1629797595157,0.6932295560836792,0.8874933123588562,0.4793681800365448,1.0543593168258667
1629797595250,0.6932295560836792,0.8874933123588562,0.4793681800365448,1.0543593168258667
1629797595282,0.6932295560836792,0.8874933123588562,0.4793681800365448,1.0543593168258667
1629797595421,0.6932295560836792,0.8874933123588562,0.4793681800365448,1.0543593168258667
1629797595561,0.6932295560836792,0.8874933123588562,0.4793681800365448,1.0543593168258667
1629797595671,0.6932295560836792,0.8874933123588562,0.4793681800365448,1.0543593168258667
1629797595702,0.6932295560836792,0.8874933123588562,0.4793681800365448,1.0543593168258667
1629797595811,0.8042066693305969,0.8874933123588562,0.4793681800365448,1.0543593168258667
1629797595967,0.7386170625686646,0.8874933123588562,0.4793681800365448,1.0543593168258667
1629797596061,0.7386170625686646,0.8874933123588562,0.4793681800365448,1.0543593168258667
1629797596217,0.7386170625686646,0.8874933123588562,0.4793681800365448,1.0543593168258667
1629797596264,0.7386170625686646,0.8874933123588562,0.4793681800365448,1.0543593168258667
1629797596358,0.7386170625686646,0.8874933123588562,0.4793681800365448,1.0543593168258667
1629797596467,0.669695258140564,0.8874933123588562,0.4793681800365448,1.0543593168258667
1629797596530,0.6152540445327759,0.8874933123588562,0.1322241574525833,0.1485124081373214
1629797596686,0.5748974680900574,0.2312761396169662,0.1322241574525833,0.2328411191701889
1629797596874,0.5425223112106323,0.3042913675308227,0.1322241574525833,0.2328411191701889
1629797596924,0.515450119972229,0.3274130523204803,0.1322241574525833,0.2328411191701889
1629797597080,0.3041074275970459,0.3273480534553528,0.1322241574525833,0.2328411191701889
1629797597221,0.1596485823392868,0.3189646899700165,0.1322241574525833,0.2328411191701889
1629797597361,0.1076672375202179,0.3032768368721008,0.1322241574525833,0.2328411191701889
1629797597455,0.0890065506100654,0.2767021059989929,0.1322241574525833,0.2328411191701889
1629797597470,0.035796508193016,0.2454360723495483,0.1141128540039062,0.2328411191701889
1629797597517,-0.0226561427116394,0.2149100303649902,0.0822113156318664,0.2328411191701889
1629797597564,-0.0448750331997871,0.1883904188871383,0.0600431859493255,0.2328411191701889
1629797597783,-0.0637321770191192,0.1679517179727554,0.0510561130940914,0.2328411191701889
1629797597861,-0.0801648795604705,0.1558570861816406,0.0015510531375184,0.2127399742603302
1629797597960,-0.0929935798048973,0.1612766087055206,-0.0231499597430229,0.2127399742603302
1629797598022,-0.0955127626657486,0.1773350834846496,0.0086672641336917,0.2127399742603302
1629797598116,-0.0952094942331314,0.1758260577917099,0.0374024398624897,0.2127399742603302
1629797598241,-0.103417307138443,0.1395605951547622,0.0817500129342079,0.2127399742603302
1629797598350,-0.1186511814594268,0.0868389755487442,0.0979254469275474,0.2127399742603302
1629797598475,-0.1423046290874481,0.048509381711483,0.101706676185131,0.8211798667907715
1629797598569,-0.166272759437561,0.0244630463421344,0.1015318930149078,0.796429455280304
1629797598663,-0.1866902112960815,0.0039891405031085,0.0921763479709625,0.7581185102462769
1629797598694,-0.1987299174070358,-0.0143028516322374,0.0724116936326026,0.71294105052948
1629797598850,-0.1990306824445724,-0.018341165035963,0.0463297702372074,0.66607666015625
1629797599022,-0.1970211565494537,-0.0080402549356222,0.024458022788167,0.6261130571365356
1629797599085,-0.2003433853387832,0.0059984326362609,0.0209217816591262,0.5913691520690918
1629797599178,-0.2013316452503204,0.018757339566946,0.0298881977796554,0.5647246837615967
1629797599194,-0.1876178085803985,0.0304994471371173,0.0466581024229526,0.5477122068405151
1629797599370,-0.1537632048130035,0.0348768234252929,0.0742396041750907,0.5368242859840393
1629797599433,-0.1182683408260345,0.0173512436449527,0.0983412861824035,0.5246707797050476
1629797599572,-0.0816783532500267,-0.0152094559744,0.0981586426496505,0.5111244916915894
1629797599619,-0.0505245365202426,-0.0464433394372463,0.0694444701075553,0.4605341255664825
1629797599713,-0.022062350064516,-0.0612387359142303,0.0254608616232872,0.413201630115509
1629797599791,0.009863045066595,-0.0675166696310043,-0.0112585257738828,0.3612311780452728
1629797599994,0.0455899089574813,-0.0801950320601463,-0.0277921874076128,0.3082977533340454
1629797600088,0.0716360881924629,-0.0979866683483123,-0.018827736377716,0.2703936100006103
1629797600134,0.0886163562536239,-0.1189701035618782,0.0101406257599592,0.2494276463985443
1629797600228,0.1064834892749786,-0.1297693103551864,0.0463916696608066,0.2428222447633743
1629797600322,0.1258656978607177,-0.1225574389100074,0.0846141725778579,0.2498751282691955
1629797600431,0.1422212719917297,-0.1070910841226577,0.1182708144187927,0.251733660697937
1629797600525,0.1568664908409118,-0.0889606699347496,0.1390193253755569,0.2525941729545593
1629797600634,0.1648085713386535,-0.0740505382418632,0.1369583755731582,0.2503848075866699
1629797600681,0.1615177541971206,-0.0700727552175521,0.1142610609531402,0.2483403235673904
1629797600806,0.1454193741083145,-0.079450711607933,0.0749713703989982,0.2628286480903625
1629797600916,0.1249290034174919,-0.0948498249053955,0.0330166965723037,0.303340345621109
1629797601076,0.1037942245602607,-0.1096502542495727,0.0066977296955883,0.3484214544296264
1629797601232,0.0847803056240081,-0.1261613517999649,0.0083198379725217,0.3820872604846954
1629797601279,0.0645565465092659,-0.1441207826137542,0.0360093750059604,0.4011935889720917
1629797601326,0.0350314602255821,-0.1557410806417465,0.0620166361331939,0.4071495831012726
1629797601404,-0.0051490901969373,-0.1621128171682357,0.0622445046901702,0.4015004932880401
1629797601529,-0.042332574725151,-0.1621266007423401,0.0321819670498371,0.3932438790798187
1629797601685,-0.0720352157950401,-0.1491673588752746,-0.0121423657983541,0.3918312489986419
1629797601825,-0.1082721352577209,-0.1305926740169525,-0.0555185712873935,0.4012633264064789
1629797601872,-0.1503840684890747,-0.1149505525827407,-0.099639892578125,0.4161820411682129
1629797601982,-0.1801568865776062,-0.1070849895477294,-0.1530858278274536,0.4323411881923675
1629797602013,-0.1857915520668029,-0.1118961349129676,-0.2067303210496902,0.443888783454895
1629797602141,-0.1502865850925445,-0.1319022625684738,-0.2324326336383819,0.4513410329818725
1629797602266,-0.0586732812225818,-0.1603417992591858,-0.2310433536767959,0.4532213509082794
1629797602375,-0.0425963178277015,-0.181203231215477,-0.2153123468160629,0.4407745599746704
1629797602485,-0.0242759436368942,-0.1811104714870453,-0.1977259367704391,0.4087210595607757
1629797602594,-0.012693996541202,-0.1747528165578842,-0.1897953450679779,0.3626276850700378
1629797602610,-0.0112642627209424,-0.1632340997457504,-0.2071611881256103,0.3141104578971863
1629797602828,-0.0144417593255639,-0.14779132604599,-0.2547006905078888,0.2720127403736114
1629797602969,-0.0093377316370606,-0.1342188268899917,-0.3103516697883606,0.2429404258728027
1629797603063,0.0083260778337717,-0.1237048953771591,-0.3304637372493744,0.2304055541753769
1629797603144,0.1351189017295837,-0.1212992370128631,-0.3087238073348999,0.2281349450349807
1629797603160,0.1518643945455551,-0.1322453469038009,-0.2807972729206085,0.2205144762992859
1629797603253,0.1488302946090698,-0.1608409881591797,-0.261944442987442,0.1961054056882858
1629797603394,0.1371680647134781,-0.2111316919326782,-0.2464328408241272,0.1538767516613006
1629797603519,0.1147726699709892,-0.2757324576377868,-0.2309843152761459,0.107794389128685
1629797603628,0.0767921060323715,-0.3321424126625061,-0.2234379053115844,0.0717992037534713
1629797603675,0.0003400241257622,-0.3646617829799652,-0.2333613783121109,0.0458506718277931
1629797603785,-0.1971359103918075,-0.3757238090038299,-0.2539459764957428,0.0235128365457057
1629797603958,-0.2216744720935821,-0.3799889683723449,-0.273206502199173,0.0033137041609734
1629797604036,-0.2209536284208297,-0.3938685059547424,-0.2868113219738006,-0.0133040873333811
1629797604130,-0.2209536284208297,-0.4067473411560058,-0.2837226390838623,-0.0218117050826549
1629797604177,-0.2209536284208297,-0.4114636778831482,-0.2315287590026855,-0.0148055860772728
1629797604255,-0.2209536284208297,-0.381720095872879,-0.0883885622024536,-0.0045354547910392
1629797604349,-0.2209536284208297,-0.2870030999183655,0.1049708425998687,-0.0024130579549819
1629797604474,-0.2209536284208297,-0.164481371641159,0.2758466899394989,-0.0133351255208253
1629797604599,-0.5199527144432068,-0.050582967698574,0.3964501023292541,-0.0350447706878185
1629797604677,-0.6582130193710327,0.035109244287014,0.4637722373008728,-0.0522029027342796
1629797604755,-0.7109546065330505,0.0956277325749397,0.4926434457302093,-0.0471904017031192
1629797604864,-0.7047916650772095,0.1365246325731277,0.5001416206359863,-0.0166667178273201
1629797604974,-0.6456798315048218,0.1646740436553955,0.4997554421424866,0.030323876067996
1629797605083,-0.5653879642486572,0.1833755373954773,0.4993234276771545,0.0761539936065673
1629797605223,-0.5653879642486572,0.1921771019697189,0.5003473162651062,0.0761539936065673
1629797605286,-0.5653879642486572,0.1978792250156402,0.5014280676841736,0.0761539936065673
1629797605395,-0.5653879642486572,0.2032652050256729,0.5025672912597656,0.0761539936065673
1629797605567,-0.5653879642486572,0.2080735713243484,0.5060980916023254,0.0761539936065673
1629797605599,-0.9122151136398317,0.2129259407520294,0.5128321051597595,-0.4077028930187225
1629797605817,-0.9174866676330566,0.2152950316667556,0.5159791111946106,-0.4785942137241363
1629797605880,-0.8434170484542847,0.2086240500211715,0.4985006153583526,-0.4985471963882446
1629797605926,-0.6921523809432983,0.1813737154006958,0.4422401785850525,-0.421691745519638
1629797606051,-0.5473525524139404,0.1344477832317352,0.33766770362854,-0.2681909799575805
1629797606099,-0.4395433664321899,0.0767574161291122,0.1889310628175735,-0.1099078729748725
1629797606273,-0.3725608885288238,0.0230517480522394,0.0340904258191585,0.0131186889484524
1629797606335,-0.3418510854244232,-0.022645253688097,-0.0769548639655113,0.0827221348881721
1629797606428,-0.3303331434726715,-0.058457039296627,-0.1283698081970214,0.1131864339113235
1629797606553,-0.3269304931163788,-0.0842973738908767,-0.1467472910881042,0.1214605867862701
1629797606600,-0.323769748210907,-0.1012797504663467,-0.1543578952550888,0.1211451366543769
1629797606725,-0.3255310654640198,-0.1045625284314155,-0.1471545696258545,0.1167896762490272
1629797606944,-0.3124053180217743,-0.1066735610365867,-0.1178755462169647,0.1215531826019287
1629797606994,-0.2908338010311126,-0.1152791380882263,-0.0755380392074585,0.1298701614141464
1629797607072,-0.2722891867160797,-0.1243769526481628,-0.0456461384892463,0.1389326155185699
1629797607103,-0.2562334239482879,-0.131406083703041,-0.0476134046912193,0.1513725370168686
1629797607228,-0.228694885969162,-0.1391393989324569,-0.0823546051979065,0.1642807126045227
1629797607432,-0.1756847500801086,-0.1484855413436889,-0.1300319284200668,0.1736370772123336
1629797607509,-0.1046202778816223,-0.1616933941841125,-0.1552311033010482,0.1753080487251281
1629797607572,-0.0243350248783826,-0.1847167760133743,-0.1432353109121322,0.1593937873840332
1629797607665,0.0476904585957527,-0.2218469083309173,-0.1153006926178932,0.1190766766667366
1629797607759,0.0988006293773651,-0.2703967690467834,-0.0901027247309684,0.0549564436078071
1629797607837,0.1273150295019149,-0.3179427087306976,-0.0713468044996261,-0.0151116363704204
1629797607915,0.1388436555862426,-0.3606264591217041,-0.0581342466175556,-0.074404664337635
1629797608044,0.1496719866991043,-0.4030844867229461,-0.0500150322914123,-0.1229127198457717
1629797608075,0.1645054370164871,-0.4404269158840179,-0.046010598540306,-0.1529377400875091
1629797608387,0.1970527172088623,-0.4589407742023468,-0.052214466035366,-0.1531631499528885
1629797608450,0.2403262257575988,-0.4540061056613922,-0.0723069757223129,-0.1297273784875869
1629797608481,0.2799955904483795,-0.4271697700023651,-0.1063000783324241,-0.0940021723508834
1629797608512,0.3063383400440216,-0.3994503915309906,-0.1383532285690307,-0.051090333610773
1629797608653,0.324516087770462,-0.3795760571956634,-0.1489253342151641,-0.0088659906759858
1629797608796,0.3374007940292358,-0.3602097928524017,-0.1317545175552368,0.0270922034978866
1629797608890,0.348230242729187,-0.3413889110088348,-0.1047088429331779,0.037027433514595
1629797609015,0.3465557694435119,-0.3214193880558014,-0.1080830246210098,0.0447954013943672
1629797609127,0.3296243250370025,-0.3039113283157348,-0.1229321882128715,0.0529945194721221
1629797609158,0.302455186843872,-0.2896285057067871,-0.1382057815790176,0.0659312084317207
1629797609205,0.2790266573429107,-0.2836159467697143,-0.1437714248895645,0.0861030220985412
1629797609393,0.2753919661045074,-0.2691731750965118,-0.1391908228397369,0.1149747669696807
1629797609471,0.2962603867053985,-0.2462168633937835,-0.1250680983066558,0.1504434794187545
1629797609580,0.324832409620285,-0.2152383625507354,-0.1003273129463195,0.1972902566194534
1629797609674,0.3532705307006836,-0.2023840248584747,-0.0708191469311714,0.2418369948863983
1629797609783,0.357296735048294,-0.1989102363586425,-0.0322530306875705,0.2719612419605255
1629797609894,0.3241464793682098,-0.1902387887239456,0.0119903562590479,0.2864727675914764
1629797609941,0.3241464793682098,-0.1741485744714737,0.0596669949591159,0.2864727675914764
1629797610082,0.3241464793682098,-0.1517553627490997,0.0596669949591159,0.2864727675914764
1629797610160,0.3241464793682098,-0.1247554793953895,0.0596669949591159,0.2864727675914764
1629797610254,0.3241464793682098,-0.0987293794751167,0.0596669949591159,0.2864727675914764
1629797610347,0.3241464793682098,-0.0559012070298194,0.0596669949591159,0.2864727675914764
1629797610535,0.3241464793682098,0.0016285051824524,0.0596669949591159,0.2864727675914764
1629797610676,0.3241464793682098,0.0632811114192009,0.0596669949591159,0.2864727675914764
1629797610738,0.3241464793682098,0.1201909705996513,0.0596669949591159,0.2864727675914764
1629797610800,0.3241464793682098,0.1452606618404388,0.0596669949591159,0.2864727675914764
1629797610925,0.3241464793682098,0.1516496986150741,0.0596669949591159,0.2864727675914764
1629797610988,0.3241464793682098,0.1417858004570007,0.0596669949591159,0.2864727675914764
1629797611144,0.3241464793682098,0.1375208646059036,0.0596669949591159,0.2864727675914764
1629797611238,0.3241464793682098,0.1346538513898849,0.0596669949591159,0.2864727675914764
1629797611300,0.3241464793682098,0.1331878751516342,0.0596669949591159,0.2864727675914764
1629797611441,0.3241464793682098,0.1302946358919143,0.0596669949591159,0.2864727675914764
1629797611566,0.3241464793682098,0.1319583058357238,0.0596669949591159,0.2864727675914764
1629797611675,0.3241464793682098,0.1419914960861206,0.0596669949591159,0.2864727675914764
1629797611722,0.3241464793682098,0.1602379232645034,0.0596669949591159,0.2864727675914764
1629797611753,0.3241464793682098,0.1797886192798614,0.0596669949591159,0.2864727675914764
1629797611973,0.3241464793682098,0.1842139810323715,0.0596669949591159,0.2864727675914764
1629797612036,0.3241464793682098,0.166610300540924,0.0596669949591159,0.2864727675914764
1629797612114,0.3241464793682098,0.1335366368293762,0.0596669949591159,0.2864727675914764
1629797612271,0.3241464793682098,0.0928622037172317,0.0596669949591159,0.2864727675914764
1629797612317,0.3241464793682098,0.0552699156105518,0.0596669949591159,0.2864727675914764
1629797612349,0.3241464793682098,0.0307961422950029,0.0596669949591159,0.2864727675914764
1629797612505,0.3241464793682098,0.023748729377985,0.0596669949591159,0.2864727675914764
1629797612599,0.3241464793682098,0.0338255986571311,0.0596669949591159,0.2864727675914764
1629797612677,0.3241464793682098,0.0565773956477642,0.0596669949591159,0.2864727675914764
1629797612770,0.3241464793682098,0.0840012282133102,0.0596669949591159,0.2864727675914764
1629797612880,0.3241464793682098,0.1035120114684104,0.0596669949591159,0.2864727675914764
1629797613024,0.3241464793682098,0.1041351333260536,0.0596669949591159,0.2864727675914764
1629797613133,0.3241464793682098,0.0825917050242424,0.0596669949591159,0.2864727675914764
1629797613211,0.3241464793682098,0.0411846153438091,0.0596669949591159,0.2864727675914764
1629797613367,0.3241464793682098,-0.0126743679866194,0.0596669949591159,0.2864727675914764
1629797613445,0.3241464793682098,-0.0644338950514793,0.0596669949591159,0.2864727675914764
1629797613508,0.3241464793682098,-0.1011484935879707,0.0596669949591159,0.2864727675914764
1629797613570,0.260383278131485,-0.1235110759735107,0.0596669949591159,0.2864727675914764
1629797613742,0.2324612885713577,-0.137758582830429,0.0596669949591159,0.2864727675914764
1629797613805,0.1911544054746627,-0.1514105796813964,0.0596669949591159,0.2864727675914764
1629797613930,0.1562480032444,-0.1695099174976349,0.0596669949591159,-0.0426514223217964
1629797614042,0.1399544179439544,-0.1897932738065719,0.0596669949591159,-0.0585855543613433
1629797614167,0.1221940144896507,-0.2202358245849609,0.0596669949591159,-0.0624410733580589
1629797614261,0.116104170680046,-0.272712230682373,0.0596669949591159,-0.066591165959835
1629797614324,0.1243234872817993,-0.3520287871360779,0.1335383355617523,-0.0724425539374351
1629797614464,0.1227341666817665,-0.4415595829486847,0.0901534110307693,-0.0750466585159301
1629797614558,0.1091804504394531,-0.5180962085723877,0.046905543655157,-0.0791889354586601
1629797614652,0.0859097093343734,-0.5554376840591431,0.0061998064629733,-0.0870700404047966
1629797614746,0.0583969913423061,-0.5596492886543274,-0.0338273309171199,-0.098203919827938
1629797614807,0.0307779014110565,-0.545368492603302,-0.0696840360760688,-0.1101534441113472
1629797614948,0.0032180319540202,-0.5324268937110901,-0.0996634513139724,-0.1131355687975883
1629797615107,-0.0615733228623867,-0.5296615958213806,-0.115035593509674,-0.0858261808753013
1629797615137,-0.124220535159111,-0.5389811992645264,-0.1117847263813018,-3.7878626244491898e-06
1629797615247,-0.1673381626605987,-0.5561231970787048,-0.0995112806558609,0.0007221928681246
1629797615324,-0.1559870243072509,-0.5727073550224304,-0.0826561972498893,0.0118441944941878
1629797615401,-0.156660795211792,-0.5824384689331055,-0.0566086657345294,0.0262156873941421
1629797615560,-0.1719592064619064,-0.581464409828186,-0.0446653552353382,0.0379148796200752
1629797615659,-0.2047172486782074,-0.5723555088043213,-0.0320396944880485,0.0482873283326625
1629797615800,-0.2635435163974762,-0.5649781227111816,-0.0210077352821826,0.0614357180893421
1629797615847,-0.3502087295055389,-0.5668540596961975,-0.0205526575446128,0.079253576695919
1629797615923,-0.451558768749237,-0.575767457485199,-0.0277191847562789,0.0994227454066276
1629797616072,-0.5406692028045654,-0.5864169001579285,-0.0369672626256942,0.1270685642957687
1629797616271,-0.5843430161476135,-0.60686194896698,-0.044316366314888,0.1685478240251541
1629797616458,-0.5804033279418945,-0.6441285014152527,-0.0488823130726814,0.2305175215005874
1629797616491,-0.33079993724823,-0.6917580962181091,-0.0523650087416172,0.2305175215005874
1629797616624,-0.2097342610359192,-0.746984601020813,-0.0530641116201877,0.2305175215005874
1629797616765,-0.0715924054384231,-0.7981882095336914,-0.0541143976151943,0.2305175215005874
1629797616827,0.0723777562379837,-0.8322612047195435,-0.0568652525544166,0.2305175215005874
1629797616907,0.1862484514713287,-0.832464337348938,-0.0604179948568344,0.2305175215005874
1629797616922,0.2305615693330764,-0.7898170351982117,-0.0722249671816825,0.2305175215005874
1629797616983,0.2305113673210144,-0.7265100479125977,-0.1058197543025016,0.2305175215005874
1629797617142,0.2205711007118225,-0.6791024208068848,-0.1623068451881408,0.2305175215005874
1629797617267,0.2078585624694824,-0.6523289084434509,-0.234877273440361,0.2305175215005874
1629797617313,0.1893613487482071,-0.6377251148223877,-0.2978306114673614,0.2305175215005874
1629797617391,0.1893613487482071,-0.625460147857666,-0.3146029114723205,0.2305175215005874
1629797617470,0.1893613487482071,-0.4413088262081146,-0.3142679035663605,0.2305175215005874
1629797617579,0.1893613487482071,-0.0670424997806549,-0.2973340451717376,0.2305175215005874
1629797617723,0.1893613487482071,0.3408623337745666,-0.275016188621521,0.2305175215005874
1629797617900,0.1893613487482071,0.3704845607280731,-0.2481506019830703,0.2305175215005874
1629797617931,0.1944741755723953,0.4021047055721283,-0.2179636657238006,0.2305175215005874
1629797618138,0.2141718417406082,0.4361876547336578,-0.1914380639791488,0.2305175215005874
1629797618153,0.221595287322998,0.4729711413383484,-0.1761266589164734,0.2305175215005874
1629797618216,0.2047936767339706,0.5119442939758301,-0.18422931432724,0.2305175215005874
1629797618294,0.1644004136323928,0.5529881119728088,-0.2187098860740661,0.2305175215005874
1629797618419,0.1191536113619804,0.596911609172821,-0.261160284280777,0.2305175215005874
1629797618466,0.1191536113619804,0.6463797688484192,-0.2813532650470733,0.2305175215005874
1629797618715,0.1191536113619804,0.7055342197418213,-0.2813532650470733,0.2305175215005874
1629797618731,0.1191536113619804,0.7783224582672119,-0.2813532650470733,0.2305175215005874
1629797618793,0.1191536113619804,0.8704948425292969,-0.2813532650470733,0.2305175215005874
1629797618907,0.1191536113619804,0.8704948425292969,-0.2813532650470733,0.2305175215005874
1629797618969,0.1191536113619804,0.8704948425292969,0.4217325150966644,0.2305175215005874
1629797619078,0.1191536113619804,0.8704948425292969,0.4009759128093719,0.2305175215005874
1629797619235,0.1191536113619804,0.8704948425292969,0.3764798939228058,0.2305175215005874
1629797619290,0.1191536113619804,0.8704948425292969,0.3440456986427307,0.2305175215005874
1629797619384,0.1191536113619804,0.8223860859870911,0.3104164004325866,0.2305175215005874
1629797619493,0.1191536113619804,0.7917120456695557,0.2805331945419311,0.2305175215005874
1629797619571,0.1191536113619804,0.7583416104316711,0.2549999058246612,0.2305175215005874
1629797619696,0.1191536113619804,0.7197040319442749,0.234235018491745,0.2305175215005874
1629797619805,0.1191536113619804,0.6750990152359009,0.2188414335250854,0.2305175215005874
1629797619933,0.1191536113619804,0.6330967545509338,0.2070627808570861,0.2305175215005874
1629797620011,0.1191536113619804,0.5960005521774292,0.2020314484834671,0.2305175215005874
1629797620136,0.1191536113619804,0.5628848075866699,0.199340358376503,0.2305175215005874
1629797620199,0.1191536113619804,0.5331702828407288,0.1894386112689972,0.2305175215005874
1629797620277,0.1191536113619804,0.5117210149765015,0.1777762472629547,0.2305175215005874
1629797620464,0.6039161682128906,0.5066227316856384,0.2028908133506775,0.2305175215005874
1629797620712,0.6552037000656128,0.5188578367233276,0.291658878326416,0.4648788869380951
1629797620745,0.7042813897132874,0.4982309639453888,0.4155676066875458,0.6157121062278748
1629797620792,0.7265713810920715,0.4752296805381775,0.5272851586341858,0.6958423852920532
1629797620838,0.7185638546943665,0.4496829509735107,0.6036706566810608,0.7203222513198853
1629797620979,0.6906285285949707,0.4264520406723022,0.6428783535957336,0.7088168263435364
1629797621169,0.6590932607650757,0.4130180776119232,0.655409038066864,0.6811325550079346
1629797621278,0.6345857977867126,0.4189159572124481,0.6571083664894104,0.6514507532119751
1629797621309,0.6155739426612854,0.4333202540874481,0.6574838757514954,0.6216899752616882
1629797621325,0.5992844104766846,0.4512539207935333,0.6609407663345337,0.5940005779266357
1629797621419,0.5848286747932434,0.464122861623764,0.6666373014450073,0.5699833631515503
1629797621559,0.5733050107955933,0.4741275310516357,0.6700302958488464,0.5536538362503052
1629797621637,0.5458609461784363,0.4819882810115814,0.6688947081565857,0.5497817993164062
1629797621872,0.5411243438720703,0.4879239201545715,0.6611147522926331,0.5754079222679138
1629797621918,0.5449866652488708,0.4888391494750976,0.6499840021133423,0.6037986278533936
1629797621981,0.5330154895782471,0.475578635931015,0.628760576248169,0.610569417476654
1629797622046,0.4936593174934387,0.4440195560455322,0.5806495547294617,0.5933735370635986
1629797622140,0.4338518977165222,0.4029506146907806,0.4907513856887817,0.5607888698577881
1629797622280,0.3689547479152679,0.3597081005573272,0.3539000749588012,0.5283612012863159
1629797622343,0.3199398517608642,0.3249119520187378,0.190026581287384,0.5090991258621216
1629797622468,0.2971278429031372,0.2946225106716156,0.048911165446043,0.5074636340141296
1629797622577,0.2858490645885467,0.2533709704875946,-0.0230780337005853,0.5111231803894043
1629797622702,0.2666810154914856,0.1913918107748031,-0.0493510216474533,0.5091540217399597
1629797622733,0.2392325550317764,0.130469873547554,-0.0705484002828598,0.5051531791687012
1629797622937,0.2099320590496063,0.085023395717144,-0.1127579435706138,0.5035331845283508
1629797622968,0.1842962354421615,0.0543561019003391,-0.178205668926239,0.5012576580047607
1629797623048,0.1613345444202423,0.0267908927053213,-0.2512954771518707,0.4948595464229584
1629797623157,0.130137950181961,0.0093715563416481,-0.3054697811603546,0.4771254956722259
1629797623251,0.0851836577057838,0.0176091492176055,-0.3390758335590362,0.4477691948413849
1629797623388,0.0231773387640714,0.0517758429050445,-0.3722773790359497,0.4040271043777466
1629797623513,-0.0344333164393901,0.0985430851578712,-0.4319863319396972,0.361807107925415
1629797623544,-0.0781053453683853,0.1318095922470092,-0.5304490923881531,0.3150568902492523
1629797623685,-0.1038857474923133,0.1404419541358947,-0.6404730677604675,0.2553424537181854
1629797623754,-0.1091835796833038,0.1326863020658493,-0.7110394239425659,0.1839408874511718
1629797623864,-0.1029017493128776,0.1217260882258415,-0.732496976852417,0.1164755076169967
1629797624021,-0.1052305325865745,0.1130739822983741,-0.7289106249809265,0.0603719502687454
1629797624115,-0.1142724230885505,0.1099380254745483,-0.7199640870094299,0.0308975502848625
1629797624188,-0.1172288209199905,0.1087688654661178,-0.7097989320755005,0.0294611621648073
1629797624251,-0.116149865090847,0.1028546914458274,-0.711363673210144,0.0428463295102119
1629797624376,-0.1230040341615676,0.0905642509460449,-0.7327066659927368,0.0568099208176136
1629797624454,-0.146256685256958,0.0782285779714584,-0.7686580419540405,0.0748012512922287
1629797624563,-0.1908842921257019,0.0666498914361,-0.8139023184776306,0.0910644084215164
1629797624719,-0.242971271276474,0.0493722036480903,-0.8498837947845459,0.1022120714187622
1629797624813,-0.278036892414093,0.0116499699652194,-0.854925274848938,0.1087285056710243
1629797624925,-0.2809197902679443,-0.0596058741211891,-0.8228511810302734,0.1239949390292167
1629797624988,-0.2394518405199051,-0.1711238771677017,-0.7549625039100647,0.1605037003755569
1629797625066,-0.1546210348606109,-0.2970817685127258,-0.6738541126251221,0.2152034938335418
1629797625161,-0.0645856484770774,-0.3852528929710388,-0.6126291155815125,0.2696219384670257
1629797625301,-0.000314088363666,-0.4092531204223633,-0.5699334144592285,0.301558256149292
1629797625395,0.0301292389631271,-0.3744551837444305,-0.5355485081672668,0.3077374994754791
1629797625520,0.0415910705924034,-0.30941241979599,-0.4934364557266235,0.3013786673545837
1629797625614,0.0591506361961364,-0.2204023897647857,-0.4366370141506195,0.308333545923233
1629797625692,0.0781610384583473,-0.1058272048830986,-0.2401096373796463,0.3193393051624298
1629797625755,0.1008682548999786,0.0649347379803657,-0.2247643023729324,0.3331909477710724
1629797625942,0.1307170093059539,0.3023102879524231,-0.2043034434318542,0.3459878265857696
1629797626052,0.1671269685029983,0.5274348258972168,-0.1775041073560714,0.3569051325321197
1629797626114,0.2096925526857376,0.6934887170791626,-0.1453576236963272,0.36727175116539
1629797626223,0.2568188607692718,0.7955178022384644,-0.1090821474790573,0.3815395534038543
1629797626333,0.3083200454711914,0.8462830185890198,-0.0704195499420166,0.4051202237606048
1629797626426,0.3601227700710296,0.8659206032752991,-0.0326564386487007,0.433712750673294
1629797626583,0.394695907831192,0.8737890124320984,-0.0007393026608042,0.4423874020576477
1629797626708,0.3877259194850921,0.877926766872406,0.1313201338052749,0.4129391312599182
1629797626786,0.3877259194850921,0.8809314966201782,0.143402948975563,0.4129391312599182
1629797626801,0.3877259194850921,0.8846760392189026,0.1890514940023422,0.4129391312599182
1629797626958,0.3877259194850921,0.888774573802948,0.2582810223102569,0.4129391312599182
1629797627067,0.3877259194850921,0.8911400437355042,0.3243164420127868,0.4129391312599182
1629797627148,0.3877259194850921,0.8905113339424133,0.3688119351863861,0.4129391312599182
1629797627226,0.3877259194850921,0.8839851021766663,0.327663391828537,0.4129391312599182
1629797627367,0.3877259194850921,0.8646934628486633,0.3079436123371124,0.4129391312599182
1629797627429,0.3877259194850921,0.8145697712898254,0.2771574854850769,0.4129391312599182
1629797627517,0.3877259194850921,0.7166706919670105,0.2444435358047485,0.4129391312599182
1629797627689,0.3877259194850921,0.5658551454544067,0.2146576344966888,0.4129391312599182
1629797627736,0.3877259194850921,0.3807580769062042,0.189923420548439,0.4129391312599182
1629797627923,0.3877259194850921,0.220395803451538,0.1717118620872497,0.4129391312599182
1629797627970,0.3877259194850921,0.1351976245641708,0.1602581143379211,0.4129391312599182
1629797628095,0.3877259194850921,0.1041248515248298,0.1533690989017486,0.4129391312599182
1629797628173,0.3877259194850921,0.091896466910839,0.1099659204483032,0.4129391312599182
1629797628204,-0.38362917304039,0.0837744548916816,0.1123991981148719,-0.2502897977828979
1629797628376,-0.3491588234901428,0.0754499584436416,0.0996692180633544,-0.1434201449155807
1629797628548,-0.2918717265129089,0.0679980367422103,0.0730454549193382,-0.0134611232206225
1629797628626,-0.2244889140129089,0.0676619485020637,0.032099924981594,0.0748213753104209
1629797628657,-0.171641394495964,0.0642393752932548,-0.0195949077606201,0.1104050800204277
1629797628798,-0.1251277476549148,0.0586760081350803,-0.0704456344246864,0.1212093010544776
1629797628860,-0.0595782063901424,0.0488713979721069,-0.1073125526309013,0.1346549540758133
1629797629038,0.0353227034211158,0.0333051122725009,-0.117579810321331,0.1665385514497757
1629797629102,0.1185078397393226,0.0159964449703693,-0.1023009270429611,0.2226492911577224
1629797629165,0.1725478917360305,0.0005627099890261,-0.0691897422075271,0.2904979884624481
1629797629274,0.1955814957618713,-0.0110706854611635,-0.0332105681300163,0.3410712480545044
1629797629383,0.1987921595573425,-0.0252590831369161,-0.0092868003994226,0.3666579127311706
1629797629446,0.2166131138801574,-0.041191354393959,-0.0046419254504144,0.3939385712146759
1629797629588,0.227927953004837,-0.0639472305774688,-0.0153135256841778,0.4096322953701019
1629797629797,0.2433275133371353,-0.0914269015192985,-0.0297867786139249,0.4282998740673065
1629797629857,0.2623847723007202,-0.1246089339256286,-0.0444630123674869,0.4521093368530273
1629797629935,0.2797937989234924,-0.1744559407234192,-0.0609874539077281,0.4671659171581268
1629797629997,0.2905314266681671,-0.2531303763389587,-0.082515075802803,0.4671148657798767
1629797630125,0.2937634289264679,-0.3510531187057495,-0.1028511896729469,0.4594918191432953
1629797630289,0.2895873785018921,-0.4411229491233825,-0.1159167066216468,0.4548352360725403
1629797630289,0.2779993414878845,-0.4782848358154297,-0.1205924674868583,0.4564185738563537
1629797630352,0.2515729367733001,-0.4540948271751404,-0.121935449540615,0.4568550586700439
1629797630459,0.1984689533710479,-0.3863441050052643,-0.1235522702336311,0.4464632272720337
1629797630558,0.1246475875377655,-0.303081750869751,-0.1324537694454193,0.4164268970489502
1629797630745,0.0445114374160766,-0.2063612043857574,-0.1555305868387222,0.3628883361816406
1629797630824,-0.0203002877533435,-0.1049873903393745,-0.1926307827234268,0.3013908863067627
1629797630902,-0.0580082461237907,-0.0186246763914823,-0.2310544103384018,0.2512653768062591
1629797630967,-0.071055494248867,0.0359577275812625,-0.2490603774785995,0.2255723029375076
1629797631170,-0.0617925226688385,0.0628253072500228,-0.2396558374166488,0.2211401313543319
1629797631295,-0.0586063154041767,0.0731184780597686,-0.2221862822771072,0.2121014446020126
1629797631342,-0.0705872550606727,0.0769353508949279,-0.2087129652500152,0.1824349611997604
1629797631501,-0.101177729666233,0.0803268402814865,-0.2107902020215988,0.1399042606353759
1629797631595,-0.1400175392627716,0.0846938341856002,-0.220385655760765,0.0968852639198303
1629797631845,-0.1667275130748748,0.0881560742855072,-0.1964256316423416,0.0847004726529121
1629797631861,-0.1791742444038391,0.1001888886094093,-0.109851099550724,0.0757202878594398
1629797631876,-0.1752285808324813,0.1700601577758789,0.0550534315407276,0.0587504506111145
1629797631924,-0.1535255759954452,0.3404108583927154,0.0773425325751304,0.0362482070922851
1629797632098,-0.1196597218513488,0.5568151473999023,0.0972926840186119,0.0198202598839998
1629797632160,-0.0813816115260124,0.5731052160263062,0.1129433736205101,0.0176450405269861
1629797632285,-0.0425692349672317,0.5865675806999207,0.1265689730644226,0.0299651138484478
1629797632410,-0.0040750331245362,0.5965949296951294,0.1438033580780029,0.0476417727768421
1629797632426,0.0267808269709348,0.607124388217926,0.1673691421747207,0.0603795759379863
1629797632535,0.0335704423487186,0.6268578171730042,0.1933929026126861,0.057365670800209
1629797632644,0.0081127770245075,0.6598011255264282,0.2177845388650894,0.0127879045903682
1629797632832,0.0081127770245075,0.7621976137161255,0.5401296019554138,0.0127879045903682
1629797632879,0.0081127770245075,0.8680853843688965,0.7937098145484924,0.0127879045903682
1629797633006,0.0081127770245075,0.952258825302124,0.8563832640647888,0.0127879045903682
1629797633021,0.0081127770245075,1.0013781785964966,0.932011067867279,0.0127879045903682
1629797633084,0.0081127770245075,1.0219966173171997,1.0182698965072632,0.0127879045903682
1629797633459,0.0081127770245075,1.025133728981018,1.0182698965072632,0.0127879045903682
1629797633522,0.1446635872125625,1.0093265771865845,1.0182698965072632,0.0127879045903682
1629797633568,0.0952469930052757,0.9519970417022704,0.9597343802452089,0.0127879045903682
1629797633647,0.038782924413681,0.811206042766571,0.8659442663192749,0.0127879045903682
1629797633662,-0.0101222367957234,0.7670289874076843,0.7884564995765686,0.0127879045903682
1629797633709,-0.0493862032890319,0.7273562550544739,0.7225289940834045,1.1303157806396484
1629797633959,-0.0782969444990158,0.691359281539917,0.6651299595832825,1.042564034461975
1629797634022,-0.0949195548892021,0.658735990524292,0.6144960522651672,0.9694108963012696
1629797634087,-0.0968285351991653,0.6311107277870178,0.5699301958084106,0.905830979347229
1629797634102,-0.0860965549945831,0.6090150475502014,0.5304775834083557,0.8503182530403137
1629797634243,-0.0699754729866981,0.5314517021179199,0.3361589014530182,0.8033665418624878
1629797634337,-0.0562811717391014,0.4040461182594299,-0.4378001987934112,0.7651525735855103
1629797634602,-0.0489167124032974,0.2227000594139099,-0.4674518704414367,0.4921715259552002
1629797634649,-0.0744814276695251,0.0316827185451984,-0.4959269762039184,-0.0204621199518442
1629797634665,-0.1008057072758674,-0.0970414504408836,-0.5192713737487793,-0.0040685385465621
1629797634774,-0.1261922717094421,-0.1440347731113433,-0.5320122241973877,-0.0005128352204337
1629797634868,-0.1515340954065323,-0.1563569754362106,-0.7527416944503784,0.0028211656026542
1629797634946,-0.1657872796058654,-0.1580500453710556,-0.7756965160369873,0.0063021699897944
1629797635198,-0.1725233495235443,-0.1640214771032333,-0.694340169429779,0.0098271509632468
1629797635214,-0.1760991960763931,-0.1707000285387039,-0.6086855530738831,0.0190423242747783
1629797635276,-0.1771514415740966,-0.1768656522035598,-0.5439220070838928,0.036622479557991
1629797635433,-0.1795839220285415,-0.1801306903362274,-0.5030300617218018,0.0589538253843784
1629797635464,-0.189884603023529,-0.182437002658844,-0.4763676524162292,0.0827925354242324
1629797635558,-0.2148755490779876,-0.1979607492685318,-0.4612438678741455,0.1091026067733764
1629797635745,-0.2575856745243072,-0.2362322062253952,-0.451050341129303,0.1388249844312667
1629797635823,-0.3148805797100067,-0.3021306097507477,-0.438340812921524,0.1671170890331268
1629797635839,-0.3716762363910675,-0.3937453329563141,-0.4212900996208191,0.1871349066495895
1629797635995,-0.4136947393417358,-0.4974429309368133,-0.4036298096179962,0.204051986336708
1629797636050,-0.439297616481781,-0.5895048379898071,-0.3940352499485016,0.221703365445137
1629797636233,-0.4452639520168304,-0.6537899374961853,-0.3909019827842712,0.2419599145650863
1629797636280,-0.4402212500572204,-0.6873930096626282,-0.3903208673000335,0.2623639702796936
1629797636389,-0.411886602640152,-0.7003899812698364,-0.3848584294319153,0.2758038341999054
1629797636499,-0.3601296842098236,-0.6842054128646851,-0.370702862739563,0.2856272757053375
1629797636577,-0.2917913198471069,-0.630530834197998,-0.3421559035778045,0.3001529574394226
1629797636733,-0.231986865401268,-0.5490978956222534,-0.3118527829647064,0.3188232779502868
1629797636795,-0.1932580173015594,-0.4542006850242615,-0.289663016796112,0.328827828168869
1629797636842,-0.175053209066391,-0.3648095726966858,-0.271764725446701,0.3298424482345581
1629797637062,-0.1699037849903106,-0.2907402515411377,-0.2542982101440429,0.3259771168231964
1629797637126,-0.1662714332342147,-0.2340181618928909,-0.2418804615736007,0.3176382184028625
1629797637251,-0.1579471230506897,-0.1951005756855011,-0.2300838232040405,0.3041529953479767
1629797637423,-0.1495386809110641,-0.1735613346099853,-0.221563771367073,0.2842631638050079
1629797637439,-0.1457455307245254,-0.1675817817449569,-0.2175160199403762,0.2573228478431701
1629797637548,-0.1469168215990066,-0.1669129282236099,-0.2116646319627761,0.2225885838270187
1629797637595,-0.1500846147537231,-0.1612739115953445,-0.2000887840986251,0.1826123744249344
1629797637720,-0.155417263507843,-0.144157588481903,-0.1883891522884369,0.1425715088844299
1629797637927,-0.1605356335639953,-0.1200961098074913,-0.1834436058998108,0.1095207557082176
1629797637958,-0.1699607968330383,-0.0938994362950325,-0.1928450614213943,0.0894806832075119
1629797638083,-0.1899094134569168,-0.0765348151326179,-0.2218985855579376,0.0763814225792884
1629797638193,-0.2221270948648452,-0.0695767030119896,-0.2438162118196487,0.0514521673321723
1629797638255,-0.2646509110927582,-0.0380591340363025,-0.1939966529607772,-0.0010318071581423
1629797638380,-0.3031572103500366,0.0949149802327156,-0.215074360370636,-0.0665133371949195
1629797638474,-0.3220857679843902,0.3442817628383636,-0.225518062710762,-0.1270868629217147
1629797638661,-0.3159453570842743,0.5949395895004272,-0.2302117794752121,-0.1704965382814407
1629797638677,-0.2988338470458984,0.6148486733436584,-0.2257390022277832,-0.1916677206754684
1629797638771,-0.2859748899936676,0.6385712027549744,-0.2207633852958679,-0.1995413303375244
1629797638833,-0.2724181711673736,0.6672658324241638,-0.2134649157524109,-0.1953015774488449
1629797638976,-0.2592816054821014,0.701645016670227,-0.1986262649297714,-0.1592175364494323
1629797639023,-0.2494010180234909,0.7406794428825378,-0.1796625852584839,-0.1004007756710052
1629797639117,-0.2432690411806106,0.7835425734519958,-0.1561817973852157,-0.037176638841629
1629797639226,-0.2432690411806106,0.8299396634101868,-0.1191757172346115,-0.037176638841629
1629797639398,-0.2432690411806106,0.8815207481384277,-0.0568418502807617,-0.037176638841629
1629797639681,-0.2432690411806106,0.9413022994995116,0.4021474719047546,-0.037176638841629
1629797639759,-0.2432690411806106,1.014133334159851,0.5237716436386108,-0.037176638841629
1629797639774,-0.2432690411806106,1.1052032709121704,0.5389586687088013,-0.037176638841629
1629797639836,-0.2432690411806106,1.1052032709121704,0.4717776775360107,-0.037176638841629
1629797639930,-0.2432690411806106,1.1052032709121704,0.3861337602138519,-0.037176638841629
1629797640180,-0.2432690411806106,1.1052032709121704,0.3225153088569641,-0.037176638841629
1629797640274,-0.2432690411806106,1.1052032709121704,0.2694411873817444,-0.037176638841629
1629797640321,-0.2432690411806106,1.1052032709121704,0.2198350876569748,-0.037176638841629
1629797640352,-0.2432690411806106,0.0874494612216949,0.1748028695583343,-0.037176638841629
1629797640430,-0.2432690411806106,0.0208237525075674,0.1426194459199905,-0.037176638841629
1629797640508,-0.2432690411806106,-0.0256737060844898,0.1278196722269058,0.684702455997467
1629797640555,0.8884528279304504,-0.0342420004308223,0.1317722350358963,0.8826806545257568
1629797640633,0.9997543692588806,-0.0090452767908573,0.159601092338562,1.0316730737686155
1629797640758,1.070033311843872,0.0458905845880508,0.2002640962600708,1.1252107620239258
1629797640883,1.1044315099716189,0.09977787733078,0.2421119660139084,1.17274272441864
1629797640930,1.107364296913147,0.1396394371986389,0.1891776621341705,1.180942416191101
1629797641183,1.096116542816162,0.1633914560079574,0.1799080222845077,1.1656785011291504
1629797641324,1.081507921218872,0.175148919224739,0.1914640665054321,1.1392484903335571
1629797641371,1.0616750717163086,0.1735610365867614,0.2000746428966522,1.1078951358795166
1629797641418,1.0354948043823242,0.1605919748544693,0.1996030658483505,1.0763298273086548
1629797641465,1.0057287216186523,0.1360693126916885,0.1932988315820694,1.0459762811660769
1629797641574,0.975375473499298,0.1070041432976722,0.1880768835544586,1.017204523086548
1629797641652,0.9459227919578552,0.0908647179603576,0.1887380927801132,1.013905644416809
1629797641793,0.9366486072540284,0.0903630405664444,0.1942948698997497,1.008324146270752
1629797641886,0.9231420159339904,0.1018732041120529,0.1989449560642242,0.9943560361862184
1629797641980,0.8967137932777405,0.1145862787961959,0.1975753009319305,0.9628304243087769
1629797642045,0.8472970128059387,0.1148594096302986,0.186316043138504,0.900832176208496
1629797642186,0.7687898874282837,0.0983502492308616,0.1550959944725036,0.79718017578125
1629797642264,0.6606615781784058,0.0591163784265518,0.1004340276122093,0.6480955481529236
1629797642358,0.5299290418624878,0.0040968116372823,0.0174150578677654,0.4550159573554992
1629797642561,0.4013803601264953,-0.0592436231672763,-0.0853367149829864,0.2540068328380584
1629797642576,0.2742687463760376,-0.1217215582728385,-0.1880854666233062,0.085963487625122
1629797642811,0.1273891031742096,-0.1773131936788559,-0.2620776295661926,-0.0224719904363155
1629797642858,-0.0205141101032495,-0.2133667469024658,-0.2893744111061096,-0.0612072199583053
1629797643076,-0.1211009323596954,-0.2268442213535308,-0.2890155613422394,-0.0608679316937923
1629797643092,-0.1568289697170257,-0.2257782220840454,-0.2821798026561737,-0.042304653674364
1629797643201,-0.1496297121047973,-0.2078365385532379,-0.279336541891098,-0.010546451434493
1629797643279,-0.1227257996797561,-0.1800431609153747,-0.285278171300888,0.0298874676227569
1629797643374,-0.0984999164938926,-0.1543149203062057,-0.3000531494617462,0.0733628049492836
1629797643498,-0.0980028361082077,-0.1423806250095367,-0.3202961683273315,0.1087435558438301
1629797643529,-0.1290165781974792,-0.1452145725488662,-0.327492743730545,0.1322279125452041
1629797643639,-0.1860932558774948,-0.1580224633216858,-0.3148101270198822,0.1411794573068618
1629797643732,-0.2485580444335937,-0.1725412011146545,-0.2968244850635528,0.1364190876483917
1629797643811,-0.2949835360050201,-0.1819692105054855,-0.2907644510269165,0.1260226517915725
1629797644029,-0.3217331171035766,-0.1823928952217102,-0.2915701270103454,0.1181417405605316
1629797644126,-0.3353253602981567,-0.1718771606683731,-0.2893403768539428,0.1172721311450004
1629797644173,-0.3439167141914367,-0.160240352153778,-0.2740265130996704,0.1222707331180572
1629797644266,-0.3224291205406189,-0.1570783853530883,-0.2370751798152923,0.1436841636896133
1629797644298,-0.3133475184440613,-0.1568815410137176,-0.1639152318239212,0.1512994319200515
1629797644454,-0.3126892745494842,-0.1431775689125061,-0.065318077802658,0.1576198488473892
1629797644681,-0.321975827217102,-0.1068081483244896,0.0540489107370376,0.1629569977521896
1629797644759,-0.3436318933963775,-0.0650010183453559,0.168822556734085,0.162832424044609
1629797644790,-0.3818199932575226,-0.0377415344119071,0.2581826448440552,0.1540002077817917
1629797644837,-0.4390329420566559,-0.0366873033344745,0.3141886293888092,0.1361690312623977
1629797644918,-0.4999613463878631,-0.049718290567398,0.3412889838218689,0.1228451430797576
1629797645090,-0.5447152256965637,-0.0546909421682357,0.3488301336765289,0.1241889148950576
1629797645152,-0.5600407123565674,-0.0325108133256435,0.3492302596569061,0.1462285369634628
1629797645184,-0.5586229562759399,0.0001764265907695,0.3486581444740295,0.1818067729473114
1629797645262,-0.550897479057312,0.030345931649208,0.3465397655963897,0.1812480837106704
1629797645465,-0.550897479057312,0.0492856539785862,0.3446295857429504,0.1498514711856842
1629797645543,-0.550897479057312,0.0514699816703796,0.3416411280632019,0.0752285867929458
1629797645746,-0.550897479057312,0.0466342233121395,0.3378995656967163,-0.0320872291922569
1629797645825,-0.550897479057312,0.0452430844306945,0.329360693693161,-0.2515514194965362
1629797645873,-0.4311308860778808,0.0470108725130558,0.3090014159679413,-0.2416142970323562
1629797645968,-0.3780248165130615,0.0365403108298778,0.2747045457363128,-0.1513571590185165
1629797646030,-0.3583146929740906,0.0061741261743009,0.2161541581153869,-0.0470724999904632
1629797646218,-0.3439309000968933,-0.0368915945291519,0.1289423406124115,0.0284203365445137
1629797646296,-0.3016157150268554,-0.0769865587353706,0.0184606611728668,0.0637285709381103
1629797646359,-0.2302609086036682,-0.0975759178400039,-0.090181328356266,0.0748200416564941
1629797646421,-0.1626955419778823,-0.1012277081608772,-0.1648135334253311,0.0819117650389671
1629797646483,-0.1201665177941322,-0.1107655838131904,-0.2028822749853134,0.0954566374421119
1629797646656,-0.1055744737386703,-0.1368728876113891,-0.2389869540929794,0.1054166406393051
1629797646843,-0.1057947278022766,-0.1616522967815399,-0.2844534814357757,0.1064459085464477
1629797646843,-0.1107257306575775,-0.1752819120883941,-0.3165321946144104,0.1038801446557045
1629797646968,-0.1170235425233841,-0.1749822497367859,-0.3329285681247711,0.0990560352802276
1629797647077,-0.1046249419450759,-0.1617052406072616,-0.3359285295009613,0.1011858060956001
1629797647124,-0.0878176614642143,-0.1511936038732528,-0.3375017344951629,0.1095523238182067
1629797647421,-0.0729741901159286,-0.1530674546957016,-0.3379520773887634,0.120866023004055
1629797647436,-0.0668599084019661,-0.1629841774702072,-0.3361845016479492,0.132125899195671
1629797647499,-0.066986434161663,-0.1669491976499557,-0.3453786671161651,0.1299204379320144
1629797647530,-0.0691068992018699,-0.1668375730514526,-0.3719930052757263,0.1089957654476165
1629797647702,-0.075412593781948,-0.1695560663938522,-0.4143713414669037,0.0774264335632324
1629797647796,-0.0947755947709083,-0.1806660443544387,-0.4570456445217132,0.0515984520316123
1629797647971,-0.1301227957010269,-0.1975867003202438,-0.4890095293521881,0.0399000197649002
1629797647986,-0.163991704583168,-0.2184011042118072,-0.5148600339889526,0.042843785136938
1629797648049,-0.1671755760908126,-0.2354632019996643,-0.5434899926185608,0.0543342567980289
1629797648189,-0.1305105984210968,-0.2550663352012634,-0.5698621273040771,0.0796916037797927
1629797648392,-0.0835529789328575,-0.2868894040584564,-0.5906542539596558,0.1062304601073265
1629797648580,-0.0515265278518199,-0.336157888174057,-0.6093140840530396,0.1247448474168777
1629797648611,-0.0293620638549327,-0.3968222439289093,-0.6280580759048462,0.129700094461441
1629797648720,-0.0028049072716385,-0.4563355147838592,-0.6444282531738281,0.1276717185974121
1629797648767,0.0250544212758541,-0.4985315203666687,-0.6646081805229187,0.1299834698438644
1629797648798,0.0482958108186721,-0.519497811794281,-0.6925684809684753,0.1479511111974716
1629797648861,0.0967011526226997,-0.5166856646537781,-0.726652979850769,0.1867289543151855
1629797649205,0.2252966314554214,-0.4776442348957062,-0.7215895652770996,0.280875414609909
1629797649251,0.2470337748527526,-0.4030808508396148,-0.6518730521202087,0.4342960715293884
1629797649314,0.272900640964508,-0.3201571106910705,-0.558638870716095,0.5907294154167175
1629797649345,0.3027520477771759,-0.2545831203460693,-0.479690283536911,0.7084959149360657
1629797649361,0.3340178430080414,-0.2180270552635193,-0.4250882267951965,0.7811968922615051
1629797649579,0.3615590035915375,-0.2035060226917266,-0.3872495889663696,0.8181150555610657
1629797649626,0.3802216053009033,-0.1966266185045242,-0.3532504439353943,0.8305930495262146
1629797649704,0.3728391528129577,-0.191642165184021,-0.3275316655635834,0.8304651975631714
1629797649767,0.3473684787750244,-0.1816954016685485,-0.3101296126842499,0.8253796696662903
1629797649970,0.3330891728401184,-0.1642367988824844,-0.2922096252441406,0.8239023685455322
1629797650145,0.3275047838687897,-0.1451517939567566,-0.2721540331840515,0.8277109265327454
1629797650192,0.3106454610824585,-0.1301063895225525,-0.2561897337436676,0.83287513256073
1629797650286,0.3188385665416717,-0.1074884459376335,-0.2258024364709854,0.8598791360855103
1629797650426,0.3309335112571716,-0.0403948277235031,-0.1748035550117492,0.8850675821304321
1629797650629,0.3126203119754791,0.1319875419139862,-0.0201879702508449,0.9059953093528748
1629797650755,0.0218883343040943,0.3749581277370453,0.2327074557542801,0.9112321138381958
1629797650770,0.0218883343040943,0.5941040515899658,0.4838611781597137,0.8822064995765686
1629797650864,0.0218883343040943,0.7568711638450623,0.5038378238677979,0.8053114414215088
1629797650879,0.0218883343040943,0.8646363615989685,0.5263025164604187,0.6805593967437744
1629797650942,0.0218883343040943,0.9299857020378112,0.5530540943145752,0.5228351354598999
1629797650989,0.0218883343040943,0.9582520127296448,0.5843488574028015,0.3603095412254333
1629797651160,0.0218883343040943,0.989434540271759,0.6194465160369873,0.2420466989278793
1629797651223,-0.0392743572592735,1.0000120401382446,0.6596684455871582,0.1823721379041671
1629797651379,-0.0392743572592735,1.0021623373031616,0.6766624450683594,0.1823721379041671
1629797651426,-0.0392743572592735,1.0026042461395264,0.6899016499519348,0.1823721379041671
1629797651504,-0.0392743572592735,1.0041711330413818,0.6985841989517212,0.1823721379041671
1629797651582,-0.0392743572592735,1.0072838068008425,0.7063111066818237,0.1823721379041671
1629797651723,-0.0392743572592735,1.0120275020599363,0.7327806949615479,0.1823721379041671
1629797651832,-0.0392743572592735,1.0187158584594729,0.7942751049995422,0.1823721379041671
1629797651957,-0.0392743572592735,1.0215598344802856,0.8751367330551147,0.1823721379041671
1629797652051,-0.0392743572592735,1.0112593173980713,0.8428927659988403,0.1823721379041671
1629797652163,-0.0392743572592735,0.9574722647666932,0.6965688467025757,0.1823721379041671
1629797652366,-0.0392743572592735,0.8641630411148071,0.6965688467025757,0.1823721379041671
1629797652397,-0.0392743572592735,0.7390561103820801,0.6965688467025757,0.1823721379041671
1629797652444,-0.0392743572592735,0.6019985675811768,0.6965688467025757,0.1823721379041671
1629797652554,-0.0392743572592735,0.6019985675811768,0.6965688467025757,0.1823721379041671
1629797652647,-0.0392743572592735,0.6019985675811768,0.6965688467025757,0.1823721379041671
1629797652772,-0.0392743572592735,0.610299289226532,0.6576539278030396,0.1823721379041671
1629797652929,-0.0392743572592735,0.7268109321594238,0.6565977334976196,0.1823721379041671
1629797652960,-0.0392743572592735,0.7766463756561279,0.6696487665176392,0.1823721379041671
1629797653116,-0.0392743572592735,0.8300878405570984,0.6948543190956116,0.1823721379041671
1629797653194,-0.0392743572592735,0.8904152512550354,0.7205939292907715,0.1823721379041671
1629797653288,-0.0392743572592735,0.958950698375702,0.7152509689331055,0.1823721379041671
1629797653397,-0.0392743572592735,0.958950698375702,0.6489881873130798,0.1823721379041671
1629797653491,-0.0392743572592735,0.958950698375702,0.4513881504535675,0.1823721379041671
1629797653616,-0.0392743572592735,0.958950698375702,0.494920551776886,0.1823721379041671
1629797653757,-0.0392743572592735,0.958950698375702,0.5893810391426086,0.1823721379041671
1629797653913,-0.0392743572592735,0.958950698375702,0.6925338506698608,0.1823721379041671
1629797653991,-0.0392743572592735,0.958950698375702,0.768696665763855,0.1823721379041671
1629797654022,-0.0392743572592735,0.958950698375702,0.8058089017868042,0.1823721379041671
1629797654100,-0.0392743572592735,0.958950698375702,0.811615526676178,0.1823721379041671
1629797654146,-0.0392743572592735,0.958950698375702,0.7984620332717896,0.1823721379041671
1629797654228,-0.0392743572592735,0.958950698375702,0.8019337058067322,0.1823721379041671
1629797654352,-0.0392743572592735,0.958950698375702,0.8040242195129395,0.1823721379041671
1629797654446,-0.0392743572592735,0.958950698375702,0.8064798712730408,0.1823721379041671
1629797654602,-0.0392743572592735,0.958950698375702,0.8131248950958252,0.1823721379041671
1629797654696,-0.0392743572592735,0.958950698375702,0.820228099822998,0.1823721379041671
1629797654806,-0.0392743572592735,0.958950698375702,0.8244659304618835,0.1823721379041671
1629797654837,-0.0392743572592735,0.3162917792797088,0.8216217756271362,0.1823721379041671
1629797654930,0.7247862219810486,0.2480201721191406,0.8141324520111084,0.1823721379041671
1629797655024,0.7359753251075745,0.1831645518541336,0.7929178476333618,0.1823721379041671
1629797655196,0.7657009363174438,0.1226898580789566,0.7445516586303711,0.1823721379041671
1629797655305,0.7984386086463928,0.0716972053050994,0.664124071598053,0.1823721379041671
1629797655368,0.8223394155502319,0.0300013795495033,0.55849689245224,0.7689838409423828
1629797655477,0.828888475894928,-0.006772028747946,0.4534347355365753,0.7443982362747192
1629797655524,0.8202818036079407,-0.0353014543652534,0.377465546131134,0.705710768699646
1629797655696,0.7965883612632751,-0.0493181161582469,0.3448521196842193,0.663544237613678
1629797655790,0.7711570858955383,-0.0440527163445949,0.3333540558815002,0.6290884613990784
1629797655915,0.7543392777442932,-0.0202449262142181,0.3232343196868896,0.6103922724723816
1629797655979,0.7422546744346619,0.0089235203340649,0.2981860935688019,0.6103922724723816
1629797656073,0.7422546744346619,-0.0324419923126697,0.2339215874671936,0.6103922724723816
1629797656167,0.7246400713920593,-0.0666729807853698,0.1466724425554275,0.6103922724723816
1629797656245,0.7239007949829102,-0.0792856439948082,0.0616823360323905,0.7331004738807678
1629797656354,0.7390545606613159,-0.0762296542525291,0.0137703930959105,0.8334234952926636
1629797656479,0.749049961566925,-0.0669735446572303,-0.010151857510209,0.8334234952926636
1629797656604,0.7457044124603271,-0.0586187057197093,-0.017938382923603,0.8384820222854614
1629797656667,0.7238000631332397,-0.0500061176717281,-0.0265702549368143,0.8421147465705872
1629797656776,0.6496641635894775,-0.0363640822470188,-0.0482230857014656,0.8500449657440186
1629797656901,0.5987370014190674,-0.013117010705173,-0.0749780237674713,0.8366623520851135
1629797657013,0.5388091206550598,0.0194814428687095,-0.0904950723052024,0.8423015475273132
1629797657123,0.4956558346748352,0.0530613027513027,-0.0913951471447944,0.8752610683441162
1629797657185,0.506094217300415,0.0766564533114433,-0.0917035490274429,0.9142526984214784
1629797657342,0.545532763004303,0.0836121961474418,-0.096683494746685,0.9601979851722716
1629797657404,0.545532763004303,0.0697278454899787,-0.1001616865396499,1.0087940692901611
1629797657467,0.545532763004303,0.0458744242787361,-0.082301028072834,1.0087940692901611
1629797657591,0.545532763004303,0.0365791879594326,0.0056195235811173,1.0087940692901611
1629797657701,0.545532763004303,0.0575621165335178,0.1598693579435348,1.0087940692901611
1629797657841,0.545532763004303,0.0563067831099033,0.3187017738819122,0.9428682327270508
1629797657919,0.545532763004303,0.1168258488178253,0.4480731189250946,0.7590442299842834
1629797658060,0.545532763004303,0.1652497947216034,0.5361661314964294,0.7590442299842834
1629797658107,0.545532763004303,0.2048775404691696,0.5831027030944824,0.7590442299842834
1629797658232,0.740056037902832,0.2377136498689651,0.6018359661102295,0.7590442299842834
1629797658294,0.7436663508415222,0.2613458335399627,0.608068585395813,0.7590442299842834
1629797658482,0.6610699892044067,0.2753055095672607,0.6163918375968933,0.7590442299842834
1629797658544,0.5813547968864441,0.282951682806015,0.642778217792511,0.7590442299842834
1629797658622,0.5165214538574219,0.2842406630516052,0.6909489035606384,0.7590442299842834
1629797658669,0.4784582853317261,0.2881837785243988,0.7453311085700989,0.7590442299842834
1629797658872,0.4875107407569885,0.2947282493114471,0.7683992981910706,0.5441088676452637
1629797658935,0.5354996919631958,0.3009510040283203,0.7920657396316528,0.7310665249824524
1629797659014,0.5885005593299866,0.3081488311290741,0.8151788711547852,0.8499696850776672
1629797659141,0.6214616894721985,0.3137522041797638,0.8315608501434326,0.90329110622406
1629797659203,0.6271070241928101,0.311176985502243,0.8126713037490845,0.9117372632026672
1629797659297,0.6110216975212097,0.31099733710289,0.7736449241638184,0.8924822807312012
1629797659438,0.5840775966644287,0.2863171398639679,0.7222099900245667,0.8642389178276062
1629797659532,0.5637173056602478,0.2618995904922485,0.6742487549781799,0.8439518809318542
1629797659672,0.5226523876190186,0.2453837245702743,0.6512450575828552,0.8463152050971985
1629797659719,0.548294186592102,0.2366112470626831,0.653683066368103,0.8796933889389038
1629797659797,0.6172005534172058,0.2260711193084716,0.6621487736701965,0.9281213879585266
1629797659938,0.6833000779151917,0.2095447331666946,0.659038245677948,0.9690932035446168
1629797660066,0.728055477142334,0.1840384751558303,0.6253095865249634,1.0126657485961914
1629797660112,0.7491015791893005,0.1562638729810714,0.5405791997909546,1.036064863204956
1629797660269,0.7522979378700256,0.1235372275114059,0.3977329730987549,1.0580326318740845
1629797660316,0.7402321100234985,0.088124394416809,0.3610208332538605,1.0692404508590698
1629797660409,0.7137570381164551,0.0592371523380279,0.3269416391849518,1.0365086793899536
1629797660503,0.6761125326156616,0.0311643294990062,0.2954855859279632,0.9923580288887024
1629797660659,0.6379506587982178,-0.0052431365475058,0.2669171392917633,0.9493107795715332
1629797660753,0.6114047765731812,-0.0529782474040985,0.204978346824646,0.917609453201294
1629797660847,0.6007829904556274,-0.102354034781456,0.138639211654663,0.9006441235542297
1629797660940,0.600777804851532,-0.1469394117593765,0.0618149414658546,0.891330361366272
1629797661003,0.5969556570053101,-0.1864858120679855,-0.0260933302342891,0.8781549334526062
1629797661112,0.5716069340705872,-0.2400141209363937,-0.1367029845714569,0.8463997840881348
1629797661253,0.5092393159866333,-0.3178936541080475,-0.2749675512313843,0.7740986347198486
1629797661347,0.4014924466609955,-0.396053671836853,-0.4092333018779754,0.6454993486404419
1629797661456,0.2588847875595093,-0.4542010426521301,-0.4999632835388183,0.4516800343990326
1629797661550,0.1106488108634948,-0.472915917634964,-0.5451152324676514,0.1979032754898071
1629797661612,0.0046268664300441,-0.4602358341217041,-0.5355967879295349,-0.0738482773303985
1629797661737,-0.0476502291858196,-0.4352486431598663,-0.5037133693695068,-0.0784495025873184
1629797661941,-0.0818020179867744,-0.4044481813907623,-0.4713470339775085,-0.0703387707471847
1629797661956,-0.1278598308563232,-0.3850740790367126,-0.4450854063034057,-0.0772385671734809
1629797662050,-0.175270676612854,-0.3834675848484039,-0.4267011284828186,-0.0754223391413688
1629797662178,-0.2154785245656967,-0.4002097845077514,-0.4163357019424438,-0.073861226439476
1629797662272,-0.2429026514291763,-0.4201647043228149,-0.4177814126014709,-0.0796113684773445
1629797662350,-0.255497545003891,-0.4423198103904724,-0.4345810711383819,-0.0901167765259742
1629797662491,-0.2519576847553253,-0.4586479961872101,-0.4666317701339721,-0.1021081507205963
1629797662600,-0.2345860749483108,-0.4677569568157196,-0.5066438913345337,-0.112323097884655
