timestamp,TP9,AF7,AF8,TP10
1629797528116,0.8176750540733337,0.7847270369529724,0.3829047083854675,0.6454077363014221
1629797528225,0.8176750540733337,0.7847270369529724,0.4390265643596649,0.6454077363014221
1629797528381,0.8176750540733337,0.7847270369529724,0.5447549819946289,0.6454077363014221
1629797528444,0.8176750540733337,0.7847270369529724,0.5980850458145142,0.6454077363014221
1629797528459,0.8176750540733337,0.7847270369529724,0.5972421765327454,0.6454077363014221
1629797528569,0.8176750540733337,0.7847270369529724,0.5928715467453003,0.6454077363014221
1629797528662,0.8176750540733337,0.7498352527618408,0.5901989340782166,0.6454077363014221
1629797528772,0.8176750540733337,0.6630474328994751,0.5901989340782166,0.6454077363014221
1629797528959,0.8176750540733337,0.6250607371330261,0.5901989340782166,0.6454077363014221
1629797529022,0.8176750540733337,0.6102759838104248,0.5901989340782166,0.6454077363014221
1629797529115,0.8176750540733337,0.578770101070404,0.5901989340782166,0.6454077363014221
1629797529209,0.5158279538154602,0.5206413269042969,0.5818102955818176,0.7403601408004761
1629797529381,0.5158279538154602,0.4603258967399597,0.5713286399841309,0.7433426976203918
1629797529428,0.5158279538154602,0.4446796476840973,0.5801418423652649,0.7433426976203918
1629797529475,0.5158279538154602,0.4399013817310333,0.5959743857383728,0.7433426976203918
1629797529600,0.5158279538154602,0.4428038001060486,0.6142752766609192,0.7433426976203918
1629797529725,0.5158279538154602,0.4510798156261444,0.6240667700767517,0.7433426976203918
1629797529834,0.5158279538154602,0.4814704358577728,0.6212435960769653,0.7433426976203918
1629797529912,0.5158279538154602,0.5024511814117432,0.5937288999557495,0.7433426976203918
1629797530022,0.5158279538154602,0.5179659724235535,0.4532051980495453,0.7433426976203918
1629797530115,0.5158279538154602,0.4916273951530456,0.4532051980495453,0.7433426976203918
1629797530256,0.5158279538154602,0.4204253554344177,0.4532051980495453,0.7433426976203918
1629797530459,0.5158279538154602,0.4318635463714599,0.4532051980495453,0.7433426976203918
1629797530521,0.5158279538154602,0.4709859192371368,0.4532051980495453,0.6448894739151001
1629797530584,0.5158279538154602,0.4749892055988312,0.4532051980495453,0.5543107986450195
1629797530631,0.5158279538154602,0.4749892055988312,0.4532051980495453,0.4577298462390899
1629797530693,0.5158279538154602,0.4749892055988312,0.4532051980495453,0.4577298462390899
1629797530818,0.5158279538154602,0.4753342866897583,0.4531149566173553,0.4577298462390899
1629797530974,0.110747680068016,0.4753342866897583,0.4574682414531708,0.4577298462390899
1629797531027,0.110747680068016,0.4753342866897583,0.4538968801498413,0.4577298462390899
1629797531152,0.110747680068016,0.4753342866897583,0.4525191783905029,0.4577298462390899
1629797531245,0.110747680068016,0.4799369275569916,0.4396856427192688,0.6922785639762878
1629797531308,0.171105682849884,0.4799369275569916,0.3750918209552765,0.7000884413719177
1629797531433,0.2061971873044967,0.4734117388725281,0.2531971931457519,0.7011139392852783
1629797531589,0.2714446783065796,0.4734117388725281,0.2278621345758438,0.7059599161148071
1629797531651,0.3330681025981903,0.4734117388725281,0.2456185221672058,0.7065955400466919
1629797531745,0.3515866100788116,0.4706872105598449,0.2572942674160003,0.7065955400466919
1629797531823,0.3515866100788116,0.464039146900177,0.2760274410247803,0.7065955400466919
1629797531933,0.3515866100788116,0.4305281639099121,0.3137474358081817,0.7065955400466919
1629797532106,0.3515866100788116,0.3826023936271667,0.3401272594928741,0.7623085975646973
1629797532169,0.3485826253890991,0.3607159852981567,0.3495730757713318,0.7623085975646973
1629797532247,0.3485826253890991,0.3565501272678375,0.3575485646724701,0.7623085975646973
1629797532356,0.3485826253890991,0.3535749018192291,0.3595391511917114,0.7623085975646973
1629797532450,0.3358228802680969,0.3419834673404693,0.3574350774288177,0.7624104022979736
1629797532544,0.3358228802680969,0.3360587656497955,0.3574350774288177,0.758729875087738
1629797532700,0.3521864414215088,0.3351349830627441,0.3574350774288177,0.7960364818572998
1629797532856,0.3521864414215088,0.3050106167793274,0.3574350774288177,0.8185741305351257
1629797532919,0.3444789946079254,0.2514581084251404,0.3574350774288177,0.811699628829956
1629797532965,0.3353641927242279,0.2071210145950317,0.3378851413726806,0.7964779138565063
1629797533093,0.3353641927242279,0.1753777265548706,0.2984726428985595,0.7931298017501831
1629797533187,0.3353641927242279,0.160266101360321,0.2825611233711242,0.7920704483985901
1629797533281,0.3353641927242279,0.1364632546901703,0.2483619153499603,0.7920704483985901
1629797533390,0.3353641927242279,0.1450193375349044,0.21535025537014,0.7920704483985901
1629797533546,0.3353641927242279,0.1455736756324768,0.1944710910320282,0.7964075207710266
1629797533593,0.3353641927242279,0.143374815583229,0.1771184206008911,0.7990078330039978
1629797533671,0.3353641927242279,0.1462322622537613,0.1442363560199737,0.7990078330039978
1629797533765,0.3353641927242279,0.1462322622537613,0.1415632516145706,0.8035233020782471
1629797533968,0.3353641927242279,0.1462322622537613,0.1117837280035018,0.8171136379241943
1629797533984,0.3353641927242279,0.1462322622537613,0.1059834361076355,0.838779866695404
1629797534111,0.3353641927242279,0.1462322622537613,0.1031751409173011,0.8688154816627502
1629797534189,0.3353641927242279,0.1311969459056854,0.1058216765522956,0.8615188598632812
1629797534314,0.677943229675293,0.0760237500071525,0.1353724896907806,0.8370943665504456
1629797534455,0.677943229675293,0.0144721800461411,0.1543722748756408,0.8126360774040222
1629797534502,0.677943229675293,-0.0046470179222524,0.1617128252983093,0.7755996584892273
1629797534596,0.677943229675293,0.0072928029112517,0.1765055507421493,0.7495250701904297
1629797534720,0.677943229675293,0.0318314842879772,0.2136576920747757,0.7394139766693115
1629797534798,0.677943229675293,0.0615139938890934,0.2864301800727844,0.7243751883506775
1629797534845,0.677943229675293,0.1143272295594215,0.334968239068985,0.6985252499580383
1629797534957,0.677943229675293,0.1917461454868316,0.3454521894454956,0.6533845067024231
1629797535145,0.677943229675293,0.3067415952682495,0.3505975604057312,0.6375232338905334
1629797535176,0.677943229675293,0.41389000415802,0.354697972536087,0.6375232338905334
1629797535363,0.677943229675293,0.4534254372119903,0.354697972536087,0.6375232338905334
1629797535410,0.677943229675293,0.4534254372119903,0.3501327335834503,0.6375232338905334
1629797535488,0.5936675667762756,0.4534254372119903,0.3467694818973541,0.6375232338905334
1629797535535,0.5936675667762756,0.4534254372119903,0.3467694818973541,0.6375232338905334
1629797535848,0.5936675667762756,0.4984844624996185,0.3467694818973541,0.5900880694389343
1629797535944,0.5936675667762756,0.5365512371063232,0.3540260195732116,0.5571934580802917
1629797536006,0.5936675667762756,0.5365512371063232,0.3548377752304077,0.5571934580802917
1629797536069,0.5936675667762756,0.5365512371063232,0.3428136110305786,0.5571934580802917
1629797536147,0.5936675667762756,0.5365512371063232,0.3161980509757995,0.5571934580802917
1629797536225,0.5936675667762756,0.5365512371063232,0.3206154704093933,0.5571934580802917
1629797536334,0.5936675667762756,0.5365512371063232,0.3216477334499359,0.5571934580802917
1629797536413,0.5936675667762756,0.5365512371063232,0.3057267665863037,0.5571934580802917
1629797536491,0.5936675667762756,0.5365512371063232,0.2711206972599029,0.5571934580802917
1629797536616,0.5936675667762756,0.5336067080497742,0.4239246249198913,0.5571934580802917
1629797536741,0.5936675667762756,0.522322416305542,0.5963659882545471,0.5571934580802917
1629797536834,0.5936675667762756,0.5075801610946655,0.7040714621543884,0.5571934580802917
1629797537009,0.5936675667762756,0.4573663473129272,0.7040714621543884,0.5571934580802917
1629797537119,0.5936675667762756,0.4573663473129272,0.7040714621543884,0.5571934580802917
1629797537134,0.5936675667762756,0.4573663473129272,0.7007241249084473,0.5571934580802917
1629797537243,0.5936675667762756,0.433305561542511,0.6990607380867004,0.5571934580802917
1629797537368,0.5936675667762756,0.3494680225849151,0.698929488658905,0.5571934580802917
1629797537400,0.5936675667762756,0.1901204735040664,0.6968691945075989,0.5571934580802917
1629797537525,0.5936675667762756,0.2293505519628524,0.6944348812103271,0.5571934580802917
1629797537634,0.5936675667762756,0.2629606127738952,0.6932588815689087,0.5571934580802917
1629797537728,0.5936675667762756,0.2783930599689483,0.6920560002326965,0.5571934580802917
1629797537853,0.5936675667762756,0.2796815037727356,0.6920560002326965,0.5571934580802917
1629797537931,0.5936675667762756,0.2679899930953979,0.6920560002326965,0.5571934580802917
1629797538027,0.5936675667762756,0.2565340101718902,0.699646532535553,0.5571934580802917
1629797538246,0.5936675667762756,0.1928604394197464,0.699646532535553,0.5571934580802917
1629797538261,0.5936675667762756,0.2118407785892486,0.699646532535553,0.5571934580802917
1629797538340,0.5936675667762756,0.1830660700798034,0.2386402934789657,0.5571934580802917
1629797538433,0.5936675667762756,0.1830660700798034,0.2386402934789657,0.5571934580802917
1629797538511,0.5936675667762756,0.1830660700798034,0.2386402934789657,0.5571934580802917
1629797538605,0.5936675667762756,0.1830660700798034,0.2386402934789657,0.5571934580802917
1629797538793,0.5936675667762756,0.1830660700798034,0.2013948261737823,0.5571934580802917
1629797538839,0.5936675667762756,0.1830660700798034,0.1867253631353378,0.5571934580802917
1629797538933,0.5936675667762756,0.1830660700798034,0.1838107109069824,0.5571934580802917
1629797539027,0.5936675667762756,0.1830660700798034,0.1799091398715973,0.5571934580802917
1629797539218,0.5936675667762756,0.1819926053285598,0.1729033887386322,0.5571934580802917
1629797539280,0.5936675667762756,0.1245959252119064,0.1729033887386322,0.5571934580802917
1629797539358,0.5936675667762756,0.0336303450167179,0.1729033887386322,0.5571934580802917
1629797539468,0.5936675667762756,0.0336303450167179,0.1729033887386322,0.5571934580802917
1629797539530,1.3276530504226685,0.0336303450167179,0.1729033887386322,0.5571934580802917
1629797539655,1.3328986167907717,0.0336303450167179,0.1729033887386322,0.5571934580802917
1629797539733,1.3328986167907717,0.0336303450167179,0.1729033887386322,0.5571934580802917
1629797539905,1.3328986167907717,0.0336303450167179,0.1729033887386322,0.5571934580802917
1629797539999,1.3328986167907717,0.0336303450167179,0.1729033887386322,0.5571934580802917
1629797540111,1.3328986167907717,0.0336303450167179,0.1729033887386322,0.5571934580802917
1629797540236,1.3328986167907717,0.0336303450167179,0.1729033887386322,0.5571934580802917
1629797540329,1.3328986167907717,0.0336303450167179,0.1729033887386322,0.5571934580802917
1629797540360,1.3328986167907717,0.0336303450167179,0.1729033887386322,0.5571934580802917
1629797540501,1.3328986167907717,0.0336303450167179,0.1729033887386322,0.5571934580802917
1629797540626,1.3328986167907717,0.0336303450167179,0.1729033887386322,0.5571934580802917
1629797540673,1.3328986167907717,0.0336303450167179,0.1729033887386322,0.5571934580802917
1629797540767,1.27658212184906,0.0336303450167179,0.1729033887386322,0.5571934580802917
1629797540923,1.27658212184906,0.0336303450167179,0.1729033887386322,0.5571934580802917
1629797540954,1.27658212184906,0.0336303450167179,0.1729033887386322,0.5571934580802917
1629797541017,1.27658212184906,0.0336303450167179,0.1729033887386322,0.5571934580802917
1629797541208,1.27658212184906,0.0336303450167179,0.1729033887386322,0.5571934580802917
1629797541270,1.27658212184906,0.0336303450167179,0.1729033887386322,0.5571934580802917
1629797541379,1.27658212184906,0.0336303450167179,0.1729033887386322,0.5571934580802917
1629797541473,1.27658212184906,0.0336303450167179,0.1729033887386322,0.5571934580802917
1629797541598,1.27658212184906,0.0336303450167179,0.1729033887386322,0.5571934580802917
1629797541676,1.27658212184906,0.0336303450167179,0.1729033887386322,0.5571934580802917
1629797541801,1.27658212184906,0.0336303450167179,0.1729033887386322,0.5571934580802917
1629797541926,0.3334484696388244,0.0559576228260993,0.2706375420093536,0.5571934580802917
1629797541989,0.3666823804378509,0.0559576228260993,0.2706944644451141,0.5571934580802917
1629797542098,0.3945864140987396,0.0601826012134552,0.2706944644451141,0.5571934580802917
1629797542145,0.4252772331237793,0.0765928924083709,0.2720321416854858,0.5571934580802917
1629797542288,0.4410357475280761,0.1114931926131248,0.3007215857505798,0.5571934580802917
1629797542413,0.4410357475280761,0.146717369556427,0.3621097803115845,0.5571934580802917
1629797542522,0.4410357475280761,0.2037336081266403,0.3866056203842163,0.5571934580802917
1629797542585,0.4410357475280761,0.2953470051288605,0.3921910524368286,0.5571934580802917
1629797542710,0.4410357475280761,0.4081510305404663,0.3932981491088867,0.5571934580802917
1629797542788,0.4410357475280761,0.5096122622489929,0.3932981491088867,0.5571934580802917
1629797542928,0.4410357475280761,0.5096122622489929,0.39551642537117,0.5571934580802917
1629797543025,0.4410357475280761,0.5096122622489929,0.4117072820663452,0.5571934580802917
1629797543103,0.4176738262176513,0.5071945190429688,0.4603011608123779,0.5571934580802917
1629797543259,0.393101304769516,0.4869767427444458,0.4921148121356964,0.5571934580802917
1629797543337,0.3688303530216217,0.4697710871696472,0.5086405277252197,0.5571934580802917
1629797543368,0.3618241548538208,0.4697710871696472,0.5147631764411926,0.5571934580802917
1629797543556,0.3618241548538208,0.4697710871696472,0.5145146250724792,0.5571934580802917
1629797543634,0.3618241548538208,0.4697710871696472,0.5145146250724792,0.5571934580802917
1629797543696,0.3618241548538208,0.4697710871696472,0.5136430859565735,0.5571934580802917
1629797543790,0.3618241548538208,0.4697710871696472,0.4974629878997803,0.5571934580802917
1629797543941,0.3618241548538208,0.4697710871696472,0.4716126024723053,0.5571934580802917
1629797543990,0.3618241548538208,0.4697710871696472,0.4418154060840606,0.5571934580802917
1629797544115,0.3618241548538208,0.4697710871696472,0.4022537469863891,0.5571934580802917
1629797544271,0.3618241548538208,0.4697710871696472,0.3620891869068146,0.5571934580802917
1629797544318,0.3618241548538208,0.4697710871696472,0.3491616249084472,0.5571934580802917
1629797544412,0.3618241548538208,0.4697710871696472,0.3524374663829803,0.5571934580802917
1629797544537,0.3618241548538208,0.2000366598367691,0.3785483241081238,0.5571934580802917
1629797544631,0.3618241548538208,0.2017984688282013,0.4087488949298858,0.5571934580802917
1629797544693,0.3618241548538208,0.2017984688282013,0.39952552318573,0.5571934580802917
1629797544865,0.3618241548538208,0.2017984688282013,0.3500583171844482,0.5571934580802917
1629797544992,0.3618241548538208,0.124862290918827,0.3134440183639526,0.5571934580802917
1629797545039,0.3618241548538208,0.0626005381345748,0.2973358035087585,0.5571934580802917
1629797545148,0.3618241548538208,0.0647501125931739,0.2770563066005707,0.916351318359375
1629797545258,0.3618241548538208,0.0655392110347747,0.2711028456687927,1.0344024896621704
1629797545351,0.3618241548538208,0.0655392110347747,0.2711028456687927,1.1383538246154783
1629797545492,0.1705492287874221,0.0926648750901222,0.2711028456687927,1.2169314622879028
1629797545570,0.2233691215515136,0.13752081990242,0.2711028456687927,1.2460269927978516
1629797545664,0.2373460829257965,0.161332830786705,0.2627268135547638,1.2461256980895996
1629797545742,0.2373460829257965,0.161332830786705,0.2444864362478256,1.2461256980895996
1629797545852,0.2373460829257965,0.161332830786705,0.2188460975885391,1.2461256980895996
1629797545914,0.2373460829257965,0.1579601466655731,0.2104601263999939,1.2461318969726562
1629797546123,0.2556748390197754,0.1467195898294448,0.1951566338539123,1.2489607334136963
1629797546170,0.3630695343017578,0.115863986313343,0.151270106434822,1.2901840209960938
1629797546280,0.5052545666694641,0.081227146089077,0.1137347444891929,1.3540685176849363
1629797546358,0.6143685579299927,0.0550307258963584,0.1199249327182769,1.405673861503601
1629797546467,0.6462110280990601,0.0306960083544254,0.1485038995742797,1.4300775527954102
1629797546529,0.6685187816619873,0.0121903289109468,0.1970986127853393,1.432878494262695
1629797546672,0.6819202899932861,-0.0014371036086231,0.2575764656066894,1.432878494262695
1629797546781,0.7001256346702576,-0.0073506510816514,0.3263563513755798,1.432878494262695
1629797546891,0.7304230332374573,0.0014554689405485,0.372475266456604,1.432878494262695
1629797546984,0.7594143152236938,-0.0059327557682991,0.372475266456604,1.4320964813232422
1629797547097,0.7671636939048767,0.0013796605635434,0.372475266456604,1.406325101852417
1629797547190,0.7706368565559387,-0.0197756271809339,0.372475266456604,1.369362473487854
1629797547300,0.7686182260513306,-0.1042350828647613,0.372475266456604,1.353533148765564
1629797547440,0.7702038884162903,-0.1549686789512634,0.372475266456604,1.353533148765564
1629797547472,0.769357442855835,-0.1720071583986282,0.372475266456604,1.353533148765564
1629797547596,0.7682942748069763,-0.1739655137062072,0.372475266456604,1.353533148765564
1629797547736,0.7675549387931824,-0.1814559996128082,0.372475266456604,1.353600263595581
1629797547767,0.7675549387931824,-0.1923895329236984,0.372475266456604,1.3526673316955566
1629797547908,0.7656053900718689,-0.1975127011537552,0.370204210281372,1.3296549320220947
1629797548032,0.740187406539917,-0.1975127011537552,0.3393607139587402,1.2740947008132937
1629797548120,0.7318217754364014,-0.1975127011537552,0.2861605882644653,1.199753999710083
1629797548167,0.7254887223243713,-0.1877579540014267,0.2510207593441009,1.1880083084106443
1629797548277,0.7134623527526855,-0.1572025120258331,0.2188280820846557,1.1829524040222168
1629797548371,0.6885376572608948,-0.1497268229722976,0.142174556851387,1.1805063486099243
1629797548504,0.6296494603157043,-0.1533964872360229,0.0260964184999465,1.1786471605300903
1629797548645,0.5406487584114075,-0.1572622060775756,0.0028302338905632,1.1666792631149292
1629797548741,0.495384007692337,-0.1486569046974182,0.0254591312259435,1.135172963142395
1629797548805,0.4813378453254699,-0.1342130005359649,0.0404946468770504,1.113255262374878
1629797548899,0.4631924033164978,-0.1119978427886962,0.0572269298136234,1.0978790521621704
1629797549007,0.4295372366905212,-0.0879385098814964,0.0797976478934288,1.0954035520553589
1629797549168,0.3943049013614654,-0.0384422652423381,0.1089012995362281,1.0878686904907229
1629797549230,0.3916772007942199,-0.0193324852734804,0.1286868751049041,1.0730276107788086
1629797549377,0.3916772007942199,-0.0193324852734804,0.1415253281593322,1.065335988998413
1629797549406,0.3916772007942199,-0.0193324852734804,0.1478184759616851,1.0493274927139282
1629797549497,0.3896937072277069,-0.0193324852734804,0.1556431651115417,1.0164406299591064
1629797549669,0.3911359012126922,-0.0193324852734804,0.169835090637207,0.9486575722694396
1629797549745,0.382360577583313,-0.0193324852734804,0.1744727939367294,0.8321579098701477
1629797549822,0.3807757496833801,-0.0193324852734804,0.1744727939367294,0.7430662512779236
1629797549902,0.3832539319992065,-0.0353848934173584,0.1744727939367294,0.6908690333366394
1629797550041,0.3769192397594452,-0.0588308684527874,0.1744727939367294,0.6502916812896729
1629797550149,0.3736451268196106,-0.0625486820936203,0.1678464710712433,0.6074388027191162
1629797550214,0.3900561928749084,-0.067901462316513,0.1530379205942154,0.5918177962303162
1629797550365,0.4139034450054168,-0.0764528065919876,0.1360259503126144,0.5953157544136047
1629797550500,0.4404543936252594,-0.0914440900087356,0.124592050909996,0.600217342376709
1629797550529,0.4608626067638397,-0.1069522574543953,0.1199957206845283,0.6025325655937195
1629797550616,0.4667258858680725,-0.1266683489084243,0.1173198968172073,0.6289059519767761
1629797550678,0.4944932758808136,-0.174550324678421,0.0987455770373344,0.6859010457992554
1629797550900,0.523634672164917,-0.2547560334205627,0.0790568590164184,0.7232509851455688
1629797550931,0.528398871421814,-0.2735874354839325,0.0464854314923286,0.7263643741607666
1629797551090,0.5278857350349426,-0.2611487805843353,-0.0221641175448894,0.7263643741607666
1629797551137,0.5278857350349426,-0.235719233751297,-0.1240948736667633,0.7263643741607666
1629797551246,0.5239945650100708,-0.1888021677732467,-0.2260180860757827,0.7263643741607666
1629797551363,0.5161148905754089,-0.1195741295814514,-0.3397561013698578,0.7126831412315369
1629797551410,0.5076154470443726,-0.0447312742471694,-0.3463315367698669,0.6973056197166443
1629797551550,0.5001426935195923,-0.0251958519220352,-0.2764596939086914,0.6923799514770508
1629797551628,0.5828030705451965,-0.0311048571020364,-0.2644865214824676,0.692128598690033
1629797551759,0.6229562759399414,-0.0458029955625534,-0.2557337284088135,0.70038902759552
1629797551868,0.630561351776123,-0.0562239736318588,-0.2292224168777465,0.6991351246833801
1629797551931,0.6315098404884338,-0.0604085102677345,-0.1507731527090072,0.6850485801696777
1629797552024,0.6298597455024719,-0.0604085102677345,-0.090694636106491,0.6789423227310181
1629797552167,0.6220179200172424,-0.0604085102677345,-0.071776807308197,0.691200315952301
1629797552276,0.6042141914367676,-0.0604085102677345,-0.071776807308197,0.7078689336776733
1629797552401,0.588464617729187,-0.0687187016010284,-0.071776807308197,0.7061020731925964
1629797552433,0.588464617729187,-0.0647849142551422,-0.071776807308197,0.6533738970756531
1629797552589,0.588464617729187,-0.0682818368077278,-0.071776807308197,0.6201996207237244
1629797552651,0.588464617729187,-0.0682425051927566,-0.071776807308197,0.647904634475708
1629797552808,0.588464617729187,-0.0663280114531517,-0.0696737691760063,0.6513979434967041
1629797552870,0.588464617729187,-0.0739859044551849,-0.0624843761324882,0.6552200317382812
1629797552951,0.5860757827758789,-0.1122708991169929,-0.0359860844910144,0.6552200317382812
1629797553107,0.5728505253791809,-0.117586612701416,0.0740913972258567,0.6552200317382812
1629797553138,0.5518357753753662,-0.1221271678805351,0.1214889138936996,0.6732834577560425
1629797553248,0.4826217889785766,-0.1101342961192131,0.1320214569568634,0.7305285930633545
1629797553373,0.4154306650161743,-0.1041989177465438,0.1320214569568634,0.7876680493354797
1629797553545,0.4105450809001922,-0.099059872329235,0.1320214569568634,0.8295820355415344
1629797553623,0.3944863379001617,-0.099059872329235,0.1320214569568634,0.8325819373130798
1629797553716,0.3717401027679443,-0.1012694165110588,0.1302490383386612,0.8345139026641846
1629797553763,0.3579497933387756,-0.0740809142589569,0.1374189257621765,0.8444319367408752
1629797553904,0.4055160880088806,0.0011474360944703,0.1776470690965652,0.8524065613746643
1629797554079,0.4534014463424682,0.1170724853873252,0.1985995918512344,0.8524065613746643
1629797554141,0.4802256822586059,0.214209109544754,0.1989999860525131,0.8436631560325623
1629797554188,0.4869460761547088,0.2507796883583069,0.1989999860525131,0.8203525543212891
1629797554255,0.5009271502494812,0.2588469982147217,0.1989999860525131,0.8200189471244812
1629797554349,0.5009271502494812,0.2595878541469574,0.1989999860525131,0.8200189471244812
1629797554537,0.5009271502494812,0.2595878541469574,0.1970518976449966,0.8200189471244812
1629797554661,0.5009271502494812,0.2586162686347961,0.1925629079341888,0.819765031337738
1629797554724,0.5009271502494812,0.2574754357337951,0.1638282388448715,0.819765031337738
1629797554818,0.5060662627220154,0.2574754357337951,0.1423404216766357,0.819765031337738
1629797554911,0.5060662627220154,0.2574754357337951,0.1287440359592437,0.8156738877296448
1629797554993,0.4982393085956573,0.2574754357337951,0.1224092096090316,0.7721350789070129
1629797555149,0.470073401927948,0.2574754357337951,0.1230408251285553,0.6691135168075562
1629797555368,0.4464522004127502,0.2631109952926636,0.1245720386505127,0.614438533782959
1629797555446,0.4377343356609344,0.2733209729194641,0.1169773861765861,0.6084860563278198
1629797555493,0.4285300076007843,0.2816486358642578,0.0877494513988494,0.5874527096748352
1629797555524,0.4171801209449768,0.2776542007923126,0.0382159240543842,0.5329442024230957
1629797555618,0.3965080082416534,0.23976531624794,0.0056183328852057,0.4833832085132599
1629797555758,0.3590598702430725,0.1795778423547744,0.004045168403536,0.4796405732631683
1629797555821,0.2949120700359344,0.1311484575271606,0.0061674108728766,0.4796405732631683
1629797555977,0.296514630317688,0.0892828479409217,0.0124527588486671,0.4796405732631683
1629797556026,0.3017455637454986,0.070034921169281,0.014507875777781,0.4671818912029266
1629797556120,0.3088164031505584,0.0681473910808563,0.014507875777781,0.4649712145328522
1629797556245,0.3128260672092438,0.0640746876597404,0.01896208897233,0.4466941952705383
1629797556323,0.3097285032272339,0.0552387721836566,0.0397003218531608,0.4472433626651764
1629797556448,0.2718860805034637,0.0572303645312786,0.0397003218531608,0.4612949192523956
1629797556526,0.1953885704278946,0.0505422875285148,0.0469282530248165,0.481835275888443
1629797556645,0.1348714083433151,0.0545570589601993,0.052084095776081,0.4939029514789581
1629797556770,0.1893126517534256,0.050966553390026,0.0530079342424869,0.5123351216316223
1629797556848,0.2111438065767288,0.0478829406201839,0.0517812557518482,0.5183443427085876
1629797556911,0.2111438065767288,0.0343138128519058,0.0445951558649539,0.5183443427085876
1629797557039,0.2111438065767288,-0.0278192050755023,0.0361761152744293,0.5160118937492371
1629797557179,0.2111438065767288,-0.1033204421401023,0.0110589619725942,0.5125901699066162
1629797557226,0.2111438065767288,-0.1073310375213623,-0.0343927703797817,0.4998848736286163
1629797557398,0.2111438065767288,-0.1073310375213623,-0.0621131956577301,0.4799698889255523
1629797557445,0.2039134055376052,-0.1073310375213623,-0.0642626509070396,0.4773904383182525
1629797557632,0.1855545789003372,-0.1073310375213623,-0.0682723149657249,0.4813036918640136
1629797557726,0.1348523646593094,-0.1073310375213623,-0.0660917460918426,0.5197937488555908
1629797557757,0.1136267185211181,-0.1073310375213623,-0.064476266503334,0.5907437205314636
1629797557851,0.1248617172241211,-0.1073310375213623,-0.0850365906953811,0.6221031546592712
1629797557976,0.1901006251573562,-0.1113823652267456,-0.1409813463687896,0.6454216837882996
1629797558118,0.2636831998825073,-0.1222469955682754,-0.1714535653591156,0.6995606422424316
1629797558150,0.3292039334774017,-0.1419295668601989,-0.1603229641914367,0.7742639183998108
1629797558290,0.4379214644432068,-0.1112488806247711,-0.197599709033966,0.8779783844947815
1629797558373,0.5102038383483887,-0.0844315290451049,-0.2555185854434967,0.8988031148910522
1629797558529,0.5369042754173279,-0.0906680300831794,-0.2610883116722107,0.9010317921638488
1629797558608,0.5400274395942688,-0.0751187652349472,-0.2094644755125045,0.9340646266937256
1629797558701,0.5504394769668579,-0.0437980629503726,-0.1721788793802261,0.9688281416893004
1629797558732,0.5691890120506287,-0.0070949289947748,-0.1412101984024047,0.996571719646454
1629797558920,0.6203252673149109,-0.015751713886857,-0.1346113830804824,1.019460916519165
1629797559029,0.6899245381355286,-0.0055297738872468,-0.1298058629035949,1.0317445993423462
1629797559076,0.7381469011306763,-0.0009960673050954,-0.1246982887387275,1.0317445993423462
1629797559143,0.7630002498626709,0.0007905308739282,-0.1120417788624763,1.0317445993423462
1629797559299,0.7677097320556641,0.0007905308739282,-0.0673497095704078,1.0317445993423462
1629797559361,0.7677097320556641,0.0095117799937725,-0.0501925162971019,1.032012104988098
1629797559518,0.7677097320556641,0.0095117799937725,-0.0497644506394863,1.0360037088394165
1629797559643,0.7677097320556641,0.0095117799937725,-0.049158900976181,1.0360037088394165
1629797559689,0.762523353099823,0.0095117799937725,-0.049158900976181,1.0360037088394165
1629797559783,0.7576326131820679,0.0045890659093856,-0.0576937459409236,1.025370717048645
1629797559877,0.7536318898200989,0.0131726497784256,-0.0705625489354133,0.9602711200714112
1629797560022,0.7451542615890503,0.0024598040618002,-0.0517448596656322,0.8446192741394043
1629797560068,0.7276655435562134,-0.0111137125641107,-0.0260210707783699,0.7923099398612976
1629797560242,0.6997392773628235,-0.0295913703739643,-0.0104475766420364,0.822729766368866
1629797560289,0.6761807799339294,-0.048830647021532,-0.009794601239264,0.8208411335945129
1629797560555,0.6663344502449036,-0.1006816029548645,0.0122258514165878,0.815155029296875
1629797560851,0.6652442812919617,-0.120075985789299,0.0362852625548839,0.810356855392456
1629797560976,0.6386382579803467,-0.1249094381928443,0.0739350244402885,0.7890278697013855
1629797561070,0.5700823664665222,-0.1234055534005165,0.0997592508792877,0.7442733645439148
1629797561211,0.4701715111732483,-0.1052661538124084,0.1068408787250518,0.7048507332801819
1629797561258,0.4248979091644287,-0.073393128812313,0.101770281791687,0.6959604620933533
1629797561336,0.4306405186653137,-0.031300526112318,0.101770281791687,0.6834903955459595
1629797561367,0.4326841831207275,-0.0125264190137386,0.101770281791687,0.6623883843421936
1629797561398,0.4447137713432312,-0.0115912407636642,0.101770281791687,0.6214475631713867
1629797561492,0.4821773767471313,-0.0115912407636642,0.101770281791687,0.6422867178916931
1629797561601,0.5415052175521851,-0.0180768761783838,0.105033166706562,0.6689758896827698
1629797561648,0.5655811429023743,-0.0340742468833923,0.1137247830629348,0.6768766045570374
1629797561757,0.5711197257041931,-0.0442263148725032,0.1154500991106033,0.666201114654541
1629797562023,0.5724206566810608,-0.0512724407017231,0.1149201542139053,0.6590068936347961
1629797562101,0.5740880966186523,-0.0869702622294426,0.1266151219606399,0.6602742671966553
1629797562179,0.5746676921844482,-0.0954373106360435,0.1266151219606399,0.6609840393066406
1629797562507,0.5838389992713928,-0.0644145533442497,0.1111942827701568,0.661264181137085
1629797562632,0.611823320388794,-0.0327468886971473,0.096762828528881,0.661264181137085
1629797562664,0.6445599794387817,-0.0222560744732618,0.0901369377970695,0.6614023447036743
1629797562710,0.7116104960441589,-0.018774963915348,0.0789998695254325,0.6661069989204407
1629797562742,0.7328448295593262,-0.0029357129242271,0.0709511414170265,0.6723601818084717
1629797562882,0.7328448295593262,1.4607306718826294,0.0784536674618721,0.6701573729515076
1629797563069,0.7328448295593262,1.4607306718826294,0.1067264601588249,0.6563624739646912
1629797563150,0.7328448295593262,1.4607306718826294,0.1189753040671348,0.6423418521881104
1629797563166,0.7328448295593262,1.4607306718826294,0.1299217194318771,0.6373392939567566
1629797563197,0.7328448295593262,1.4607306718826294,0.1321739703416824,0.6467296481132507
1629797563353,0.7328448295593262,1.4607306718826294,0.122107557952404,0.597995936870575
1629797563400,0.7328448295593262,1.4607306718826294,0.0946786850690841,0.5582253336906433
1629797563510,0.7328448295593262,1.4607306718826294,0.0618489682674407,0.5320122241973877
1629797563619,0.7328448295593262,1.4607306718826294,0.0112008126452565,0.5110312104225159
1629797563713,0.7328448295593262,1.4607306718826294,-0.0480825677514076,0.4920606613159179
1629797563744,0.7328448295593262,1.4842333793640137,-0.1109689846634864,0.4714696109294891
1629797563791,0.7305025458335876,1.4842333793640137,-0.1195208206772804,0.4408507943153381
1629797564025,0.714519202709198,1.4842333793640137,-0.1003314852714538,0.4199104607105255
1629797564181,0.693700909614563,1.4842333793640137,-0.0407423302531242,0.6006267666816711
1629797564197,0.3016115725040436,1.4842333793640137,0.0226450003683567,0.6121700406074524
1629797564228,0.3393244445323944,1.3509708642959597,0.027290653437376,0.6411998867988586
1629797564306,0.3425195515155792,1.3509708642959597,0.0188096947968006,1.127011775970459
1629797564369,0.3425612449645996,1.3509708642959597,0.0250375550240278,1.127011775970459
1629797564431,0.3224254548549652,1.3509708642959597,0.0377482958137989,1.127011775970459
1629797564494,0.3119660317897796,1.3509708642959597,0.0517940782010555,1.127011775970459
1629797564619,0.3077551424503326,1.3509708642959597,0.0668289735913276,1.127011775970459
1629797564666,0.307013064622879,1.3509708642959597,0.1037718951702117,1.127011775970459
1629797564728,0.3095093667507171,1.3509708642959597,0.1725972145795822,1.127011775970459
1629797564918,0.3340135216712951,1.3509708642959597,0.2334220707416534,1.127011775970459
1629797564981,0.3472512066364288,1.3509708642959597,0.2523155510425567,1.127011775970459
1629797565121,0.3495313823223114,-0.1432565301656723,0.246770903468132,1.127011775970459
1629797565153,0.3495313823223114,-0.149748146533966,0.240145206451416,1.127011775970459
1629797565262,0.3495313823223114,-0.1612735837697982,0.2332581281661987,1.127011775970459
1629797565325,0.3495313823223114,-0.1660639643669128,0.2252672016620636,1.1249805688858032
1629797565434,0.348143994808197,-0.1622826904058456,0.226693257689476,1.124886155128479
1629797565668,0.3408140838146209,-0.1321228444576263,0.2272168844938278,1.1246696710586548
1629797565762,0.3561049699783325,-0.0461836606264114,0.2272168844938278,0.5535549521446228
1629797565902,0.3466481566429138,0.0240908395498991,0.2272168844938278,0.5527679324150085
1629797566000,0.3466481566429138,0.0645595341920852,0.2294155955314636,0.4917792677879333
1629797566031,0.3466481566429138,0.1134787872433662,0.2523835897445678,0.4585848450660705
1629797566250,0.3466481566429138,0.1778765618801117,0.2603124678134918,0.4849646985530853
1629797566374,0.3386964499950409,0.2142049968242645,0.258987545967102,0.4796459376811981
1629797566453,0.3308087885379791,0.2314195334911346,0.2607789039611816,0.4832675457000732
1629797566484,0.3166441917419433,0.2357973903417587,0.2516732811927795,0.524479866027832
1629797566609,0.296451985836029,0.2364759296178817,0.2082808315753936,0.5664045214653015
1629797566640,0.2809553742408752,0.2368320375680923,0.1857266277074813,0.5712170600891113
1629797566765,0.2696975469589233,0.2368320375680923,0.1854207068681717,0.5712170600891113
1629797566937,0.2800670266151428,0.2368320375680923,0.1957209557294845,0.5712170600891113
1629797566986,0.3193597197532654,0.2368320375680923,0.2040134668350219,0.5917447805404663
1629797567033,0.3652022182941437,0.2368320375680923,0.2040385752916336,0.6318871378898621
1629797567127,0.4166854619979858,0.2398663312196731,0.1975375264883041,0.6473549604415894
1629797567205,0.4676299393177032,0.2662580609321594,0.1919796615839004,0.6473549604415894
1629797567252,0.4783331155776977,0.2963920533657074,0.1919796615839004,0.6473549604415894
1629797567455,0.4826269149780273,0.310450404882431,0.1900133490562439,0.6507778167724609
1629797567533,0.4855154454708099,0.3149877190589905,0.1868146806955337,0.6593709588050842
1629797567596,0.4917528033256531,0.3054987788200378,0.1531693637371063,0.6697173118591309
1629797567783,0.4917528033256531,0.2815435528755188,0.1145014837384224,0.6660467386245728
1629797567830,0.4917528033256531,0.2492930293083191,0.0898926854133606,0.6649303436279297
1629797568033,0.4917528033256531,0.2328021377325058,0.0905416458845138,0.6649303436279297
1629797568127,0.4917528033256531,0.2328021377325058,0.1278844326734542,0.6639882326126099
1629797568220,0.4917528033256531,0.2321700304746627,0.1514832675457,0.6538236141204834
1629797568252,0.4992275834083557,0.2300256937742233,0.1416206061840057,0.6626046299934387
1629797568408,0.5178173780441284,0.228628933429718,0.1416206061840057,0.6671810150146484
1629797568470,0.5200307965278625,0.228628933429718,0.1416206061840057,0.6671810150146484
1629797568580,0.5092194080352783,0.2160834074020385,0.1416206061840057,0.6671810150146484
1629797568705,0.475292831659317,0.1914058625698089,0.1416206061840057,0.5421709418296814
1629797568892,0.4476421773433685,0.1336781531572342,0.1416206061840057,0.5421709418296814
1629797568939,0.4323311448097229,0.0209802351891994,0.1303826570510864,0.5421709418296814
1629797569017,0.4278337657451629,-0.0490014813840389,0.0995325446128845,0.4774109423160553
1629797569207,0.4169943332672119,-0.0893877446651458,0.0512229315936565,0.4666041135787964
1629797569285,0.4000532329082489,-0.1245069503784179,0.019252672791481,0.4580904841423034
1629797569363,0.3970396220684051,-0.1678311973810196,0.0198034420609474,0.4238859415054321
1629797569582,0.3970396220684051,-0.1642480790615081,0.0317215360701084,0.4145007729530334
1629797569597,0.3970396220684051,-0.1638331264257431,0.049700777977705,0.4145007729530334
1629797569644,0.3970396220684051,-0.1663419604301452,0.0500226728618145,0.4230043888092041
1629797569675,0.3970396220684051,-0.1595133692026138,0.0659917518496513,0.4656899273395538
1629797569832,0.3970396220684051,-0.1598322689533233,0.0528634674847126,0.4893909096717834
1629797569894,0.391964852809906,-0.2106979638338089,0.0139090269804,0.4749703407287597
1629797570238,0.324147880077362,-0.2460552603006363,0.0143111683428287,0.4490499198436737
1629797570285,0.2563560307025909,-0.2491514831781387,0.0250260103493928,0.434184193611145
1629797570347,0.1871245950460434,-0.1846096813678741,0.0419526509940624,0.424520879983902
1629797570394,0.1571492403745651,-0.1312560439109802,0.1170166954398155,0.4263295233249664
1629797570582,0.1491343826055526,-0.1159936487674713,0.1329842060804367,0.4317651689052582
1629797570675,0.1562147140502929,-0.0933054909110069,0.1412537097930908,0.4551482498645782
1629797570831,0.1903037428855896,-0.0503404662013053,0.1472738087177276,0.5131611824035645
1629797570847,0.2262468039989471,0.027556711807847,0.1597318351268768,0.578359067440033
1629797571003,0.253229022026062,0.0670846924185752,0.1603067070245742,0.5868658423423767
1629797571100,0.253229022026062,0.0832693800330162,0.1603067070245742,0.6029243469238281
1629797571225,0.253229022026062,0.0865481048822403,0.1603067070245742,0.6233919858932495
1629797571459,0.253229022026062,0.0872638225555419,0.1612858325242996,0.6361201405525208
1629797571490,0.2655460834503174,0.0901158973574638,0.1633119732141494,0.6350557208061218
1629797571568,0.263133704662323,0.0901158973574638,0.1657980233430862,0.6360026001930237
1629797571693,0.263133704662323,0.0901158973574638,0.165956899523735,0.6360026001930237
1629797571803,0.263133704662323,0.0901158973574638,0.165956899523735,0.6360026001930237
1629797571868,0.263133704662323,0.0901158973574638,0.157090738415718,0.6360026001930237
1629797571993,0.2550147771835327,0.0956627428531646,0.1493162363767624,0.6410056352615356
1629797572008,0.2550147771835327,0.1046072840690612,0.1111208647489547,0.6410056352615356
1629797572086,0.2550147771835327,0.1029438897967338,0.0425175167620182,0.646405816078186
1629797572243,0.2528353333473205,0.0981231182813644,0.0162999872118234,0.6596986651420593
1629797572258,0.2588770091533661,0.0963903963565826,-0.0215249601751565,0.6511297821998596
1629797572383,0.312014639377594,0.0963903963565826,-0.0539834685623645,0.6227647662162781
1629797572430,0.3536409437656402,0.0822228789329528,-0.0734996795654296,0.5722079277038574
1629797572602,0.372596800327301,0.05927649512887,-0.0861139893531799,0.5271701216697693
1629797572617,0.4025328159332275,0.0149163985624909,-0.09158805757761,0.5370363593101501
1629797572789,0.4561002552509308,-0.0504261068999767,-0.09158805757761,0.5424526929855347
1629797572852,0.4561002552509308,-0.1075787544250488,-0.09158805757761,0.5410666465759277
1629797572963,0.4561002552509308,-0.1471872925758361,-0.095111533999443,0.5410666465759277
1629797572994,0.4561002552509308,-0.1439018994569778,-0.0282254293560981,0.5410666465759277
1629797573072,0.4561002552509308,-0.1439018994569778,0.1310378313064575,0.5410666465759277
1629797573119,0.4561002552509308,-0.1439018994569778,0.2944880127906799,0.5410666465759277
1629797573150,0.4561002552509308,-0.1490880697965622,0.3932533860206604,0.5364236235618591
1629797573322,0.4561002552509308,-0.1686392575502395,0.4130132794380188,0.5364236235618591
1629797573431,0.4561002552509308,-0.1913596540689468,0.4139237403869629,0.5364236235618591
1629797573541,0.4561002552509308,-0.1991294026374817,0.4156586527824402,0.5364236235618591
1629797573666,0.4561002552509308,-0.2113110274076461,0.4161829650402069,0.5364236235618591
1629797573697,0.4517609775066376,-0.2179716229438781,0.4161829650402069,0.532508373260498
1629797573901,0.4517609775066376,-0.2191861569881439,0.418010413646698,0.532508373260498
1629797573964,0.4517609775066376,0.1461734324693679,0.5362650156021118,0.532508373260498
1629797574105,0.4517609775066376,0.1530465483665466,0.6735155582427979,0.532508373260498
1629797574214,0.4517609775066376,0.1550253629684448,0.7232450842857361,0.532508373260498
1629797574261,0.4517609775066376,0.1638431996107101,0.7328041195869446,0.532508373260498
1629797574355,0.4517609775066376,0.1547657251358032,0.7328041195869446,0.532508373260498
1629797574480,0.4517609775066376,0.1547657251358032,0.7328041195869446,0.532508373260498
1629797574699,0.4517609775066376,0.1550089865922927,0.7318354845046997,0.532508373260498
1629797574762,0.4517609775066376,0.1614162772893905,0.726150393486023,0.532508373260498
1629797574824,0.4517609775066376,0.1874427646398544,0.7221227884292603,0.532508373260498
1629797574980,0.4517609775066376,0.1925792843103408,0.7178554534912109,0.532508373260498
1629797575074,0.4517609775066376,0.1928072124719619,0.7062905430793762,0.532508373260498
1629797575121,0.4517609775066376,0.1928072124719619,0.6974522471427917,0.532508373260498
1629797575199,0.4517609775066376,0.1928072124719619,0.6904579997062683,0.532508373260498
1629797575215,0.4517609775066376,0.1928072124719619,0.6903457641601562,0.9821357131004332
1629797575324,0.4517609775066376,0.1928072124719619,0.6903457641601562,0.9906383156776428
1629797575433,0.4517609775066376,0.1595052033662796,0.6903457641601562,1.0044095516204834
1629797575621,0.9028899073600768,0.0945114567875862,0.6903457641601562,1.0127921104431152
1629797575668,0.91480952501297,0.0225174278020858,0.6237411499023438,1.0184391736984253
1629797575730,0.91480952501297,-0.0191955994814634,0.4652947783470154,1.0267746448516846
1629797575793,0.91480952501297,-0.0259065423160791,0.3114980459213257,1.0294005870819092
1629797575950,0.91480952501297,-0.0237379521131515,0.2429452836513519,1.0294005870819092
1629797576046,0.91480952501297,-0.0142529737204313,0.2120341956615448,1.0294005870819092
1629797576218,0.91480952501297,-0.006059278268367,0.1916740983724594,0.8621700406074524
1629797576296,0.9157705307006836,-0.0257001910358667,0.1567426025867462,0.870674192905426
1629797576311,0.917658805847168,-0.0430054180324077,0.0753686651587486,0.870674192905426
1629797576436,0.9189784526824952,-0.042443498969078,-0.015250033698976,0.870674192905426
1629797576577,0.9189784526824952,-0.0192084610462188,-0.0335655435919761,0.8651562929153442
1629797576608,0.9189784526824952,-0.015458577312529,-0.0235833320766687,0.8651562929153442
1629797576905,0.9189784526824952,-0.018480883911252,-0.0182643067091703,0.8651562929153442
1629797577033,0.9123489856719972,-0.0222326181828975,-0.0634220540523529,0.8577808737754822
1629797577064,0.8348694443702698,-0.0202601552009582,-0.1372112184762954,0.8466455340385437
1629797577205,0.715189516544342,-0.0360015444457531,-0.1489071547985077,0.8211610913276672
1629797577314,0.5495229363441467,-0.0678175538778305,-0.1489071547985077,0.7445469498634338
1629797577486,0.3393677175045013,-0.0828498378396034,-0.1500341594219207,0.6678774952888489
1629797577517,0.2237670868635177,-0.0762829110026359,-0.1500341594219207,0.6792449355125427
1629797577533,0.2217076569795608,-0.0546249039471149,-0.1979007422924041,0.7597644329071045
1629797577611,0.2240331768989563,-0.044594220817089,-0.2020433694124221,0.852486252784729
1629797577658,0.2408265620470047,-0.044594220817089,-0.1947753280401229,0.8785997629165649
1629797577767,0.2511688470840454,-0.0727601572871208,-0.2122835516929626,0.8815653920173645
1629797577956,0.2773678600788116,-0.1146221831440925,-0.2269804328680038,0.905852198600769
1629797578003,0.3267607390880584,-0.12714384496212,-0.2282299846410751,0.9222429990768432
1629797578081,0.3877675831317901,-0.1433562338352203,-0.2258213311433792,0.9222429990768432
1629797578159,0.4677682816982269,-0.1787279844284057,-0.2160717546939849,0.9222429990768432
1629797578300,0.5279257297515869,-0.1952494233846664,-0.2043323367834091,0.9222429990768432
1629797578456,0.5965794920921326,-0.1307698786258697,-0.1942432224750518,0.9222429990768432
1629797578550,0.6570537686347961,-0.0502795241773128,-0.1454861313104629,0.9222429990768432
1629797578612,0.6883335709571838,-0.0160679426044225,-0.108499139547348,0.9222429990768432
1629797578721,0.6915460824966431,-0.0182631574571132,-0.0892426744103431,0.9222429990768432
1629797578925,0.6915460824966431,-0.0248628389090299,-0.0704208016395568,0.9244362115859984
1629797579129,0.6915460824966431,-0.0325980372726917,-0.0321920923888683,0.9318659901618958
1629797579161,0.6915460824966431,-0.0369403138756752,-7.05760030541569e-05,0.9387914538383484
1629797579270,0.6915460824966431,-0.0521865636110305,0.0065653752535581,0.9374871253967284
1629797579395,0.6915460824966431,-0.0786046981811523,0.0095912031829357,0.9043250679969788
1629797579442,0.6915460824966431,-0.0949001982808113,0.009976158849895,0.8549481630325317
1629797579504,0.6915460824966431,-0.0993702188134193,0.0215457677841186,0.8287379741668701
1629797579614,0.7026599645614624,-0.0993702188134193,0.0422069057822227,0.8352535367012024
1629797579801,0.712922990322113,-0.0974655970931053,0.1015047505497932,0.9008730053901672
1629797579895,0.7123093008995056,-0.0888972803950309,0.1524176746606826,0.9144912362098694
1629797580147,0.7035022377967834,-0.081968106329441,0.1698702126741409,0.9144912362098694
1629797580225,0.6709538698196411,-0.0796384215354919,0.1751103550195694,0.9144912362098694
1629797580256,0.6408696174621582,-0.0845924988389015,0.1958184093236923,0.9027553796768188
1629797580303,0.616809606552124,-0.0927987843751907,0.245311364531517,0.897847592830658
1629797580459,0.579258918762207,-0.098184548318386,0.282225638628006,0.8927609920501709
1629797580694,0.5255945920944214,-0.0955905094742775,0.2836485207080841,0.8908005356788635
1629797580741,0.4777080714702606,-0.0892705097794532,0.2753982245922088,0.8865470290184021
1629797580866,0.4699152410030365,-0.0892705097794532,0.2645931243896484,0.8754412531852722
1629797580928,0.4699152410030365,-0.0978023707866668,0.2621338665485382,0.8791953921318054
1629797580990,0.467745840549469,-0.1033369302749633,0.2591274678707123,0.8821116089820862
1629797581040,0.4661244451999664,-0.10938361287117,0.2558236122131347,0.880709707736969
1629797581166,0.4627013206481933,-0.1087966859340667,0.2382138222455978,0.8806415796279907
1629797581291,0.4483794271945953,-0.0753282681107521,0.2146235704421997,0.8806415796279907
1629797581354,0.4149647355079651,-0.0081703346222639,0.2099072188138961,0.8787519931793213
1629797581479,0.3746314346790313,0.0429576262831687,0.2167118489742279,0.8136252760887146
1629797581573,0.3023042380809784,0.0528350435197353,0.2108587026596069,0.7951604127883911
1629797581791,0.3109419047832489,0.0712318196892738,0.1754151135683059,0.7986323833465576
1629797581869,0.2641809284687042,0.0783423408865928,0.1199205517768859,0.7986323833465576
1629797582026,0.2269786894321441,0.0838215872645378,0.0506048947572708,0.7986323833465576
1629797582041,0.2097867578268051,0.0872764065861702,0.0377390198409557,0.7986323833465576
1629797582123,0.1982033997774124,0.0853610336780548,0.0321105197072029,0.7986323833465576
1629797582263,0.1863909065723419,0.0853610336780548,0.0231547802686691,0.7986323833465576
1629797582341,0.1863909065723419,0.0853610336780548,0.0292296223342418,0.7986323833465576
1629797582357,0.1863909065723419,0.0853610336780548,0.0305138360708951,0.7993208765983582
1629797582513,0.1863909065723419,0.0876713767647743,0.0328065156936645,0.7783445715904236
1629797582576,0.1549643278121948,0.0881892517209053,0.0338826961815357,0.7352502346038818
1629797582623,0.1549643278121948,0.089241623878479,0.0344589985907077,0.7068750262260437
1629797582779,0.1549643278121948,0.0913075804710388,0.0359360016882419,0.6965328454971313
1629797582826,0.1549643278121948,0.0821982845664024,0.0494170039892196,0.6931440830230713
1629797582951,0.1549643278121948,0.0629021748900413,0.0651663318276405,0.6653328537940979
1629797583013,0.1549643278121948,0.0039521721191704,0.0716321766376495,0.5790185332298279
1629797583044,-0.009109791368246,-0.0707065314054489,0.0757648199796676,0.4384452402591705
1629797583060,-0.1294206082820892,-0.0732703283429145,0.0839131996035575,0.2569788694381714
1629797583138,-0.2210240364074707,-0.0768554955720901,0.1011617928743362,0.0383868552744388
1629797583373,-0.247694045305252,-0.0561343878507614,0.1078644841909408,-0.1884637326002121
1629797583404,-0.247694045305252,-0.0494602397084236,0.1092268452048301,-0.3690103590488434
1629797583419,-0.247694045305252,-0.0474774315953254,0.1187406182289123,-0.3690103590488434
1629797583638,-0.247694045305252,-0.0337120071053504,0.1199463158845901,-0.3690103590488434
1629797583747,-0.247694045305252,-0.031036376953125,0.1204814687371254,-0.3690103590488434
1629797583794,-0.247694045305252,0.0745828598737716,0.1890249550342559,-0.3690103590488434
1629797583857,-0.247694045305252,0.1658546328544616,0.1890249550342559,-0.3690103590488434
1629797583966,-0.247694045305252,0.1658546328544616,0.1890249550342559,-0.3690103590488434
1629797584310,-0.247694045305252,0.1658546328544616,0.1890249550342559,-0.3690103590488434
1629797584372,-0.247694045305252,0.1658546328544616,0.1890249550342559,-0.3690103590488434
1629797584591,-0.247694045305252,0.1658546328544616,0.1823602318763733,-0.3690103590488434
1629797584653,-0.247694045305252,0.1658546328544616,0.171363815665245,-0.3690103590488434
1629797584825,-0.247694045305252,0.1658546328544616,0.171363815665245,-0.3690103590488434
1629797584935,-0.247694045305252,0.162955030798912,0.171363815665245,-0.3690103590488434
1629797585091,-0.247694045305252,0.1619613617658615,0.171363815665245,-0.3690103590488434
1629797585231,-0.247694045305252,0.1608382165431976,0.1643996685743332,-0.3690103590488434
1629797585247,-0.247694045305252,0.1603467315435409,0.1481948643922805,-0.3690103590488434
1629797585310,-0.247694045305252,0.1597490757703781,0.1481948643922805,-0.3690103590488434
1629797585435,-0.247694045305252,0.1597490757703781,0.1481948643922805,-0.3690103590488434
1629797585513,-0.247694045305252,0.1597490757703781,0.1481948643922805,-0.3690103590488434
1629797585588,-0.247694045305252,0.1597490757703781,0.1481948643922805,0.8618793487548828
1629797585604,-0.247694045305252,0.1597490757703781,0.1481948643922805,0.867604672908783
1629797585654,-0.247694045305252,0.1597490757703781,0.4765878319740295,0.8718152046203613
1629797585705,-0.247694045305252,0.073726549744606,0.5303736925125122,0.875665545463562
1629797585740,0.6539395451545715,0.0938188657164573,0.5618727803230286,0.879956841468811
1629797585782,0.6907986402511597,0.1336759328842163,0.5762755274772644,0.8811319470405579
1629797585876,0.6907986402511597,0.1749691516160965,0.6178897619247437,0.8811319470405579
1629797585957,0.6907986402511597,0.1749691516160965,0.6178897619247437,0.8811319470405579
1629797586086,0.6907986402511597,0.1749691516160965,0.6178897619247437,0.8811319470405579
1629797586164,0.6907986402511597,0.1749691516160965,0.6178897619247437,0.8811319470405579
1629797586306,0.6907986402511597,0.1749691516160965,0.6178897619247437,0.8811319470405579
1629797586400,0.686889111995697,0.1749691516160965,0.6178897619247437,0.8811319470405579
1629797586496,0.686889111995697,0.1749691516160965,0.6178897619247437,0.8591664433479309
1629797586576,0.686889111995697,0.1749691516160965,0.6178897619247437,0.8535463213920593
1629797586685,0.686889111995697,0.1749691516160965,0.6039456129074097,0.5215888023376465
1629797586797,0.686889111995697,0.1703034788370132,0.5842132568359375,0.511044979095459
1629797586936,0.686889111995697,0.1452421993017196,0.5729591250419617,0.504374086856842
1629797587030,0.686889111995697,0.1390327513217926,0.559119462966919,0.504374086856842
1629797587142,0.686889111995697,0.1390327513217926,0.5352690815925598,0.504374086856842
1629797587186,0.686889111995697,0.1390327513217926,0.5049182772636414,0.504374086856842
1629797587298,0.686889111995697,0.1390327513217926,0.4979766011238098,0.504374086856842
1629797587408,0.686889111995697,0.1390327513217926,0.2056469172239303,0.504374086856842
1629797587500,0.686889111995697,0.1390327513217926,0.2560309469699859,0.504374086856842
1629797587578,-0.0264316387474536,-0.3710859715938568,0.292246013879776,0.504374086856842
1629797587703,0.0157555639743804,-0.3088470697402954,0.3132098019123077,-0.0569217093288898
1629797587842,0.0615928135812282,-0.2682894468307495,0.3223614394664764,-0.0296609308570623
1629797587985,0.1409275084733963,-0.2037851959466934,0.3251001238822937,0.0023216512054204
1629797588094,0.3148173987865448,-0.1175808683037757,0.3251001238822937,0.0451694689691066
1629797588172,0.4227438867092132,-0.0729454457759857,0.3255652785301208,0.0756678655743599
1629797588542,0.4362571537494659,-0.0347407087683677,0.3320822715759277,0.0884397998452186
1629797588623,0.4362571537494659,-0.0067720981314778,0.3459338247776031,0.1221330761909484
1629797588670,0.4362571537494659,0.0132684158161282,0.3562954068183899,0.1666778773069381
1629797588701,0.436882883310318,0.0525271259248256,0.3588945269584656,0.2657682299613952
1629797588748,0.4428845942020416,0.0948765501379966,0.3286686539649963,0.3771992921829223
1629797588779,0.4596502184867859,0.1256767064332962,0.3089553713798523,0.4463571906089782
1629797588810,0.4640220701694488,0.1257542967796325,0.3089553713798523,0.4736891388893127
1629797588920,0.4648497700691223,0.1304410845041275,0.3089553713798523,0.4865811169147491
1629797589013,0.466791570186615,0.1304410845041275,0.3189302682876587,0.5024890899658203
1629797589090,0.4692167639732361,0.1304410845041275,0.3101423382759094,0.5026702880859375
1629797589238,0.4735939502716064,0.1304410845041275,0.2817951738834381,0.5035795569419861
1629797589363,0.4797142446041107,0.1505925357341766,0.2405568361282348,0.5183462500572205
1629797589497,0.4854524135589599,0.1914760172367096,0.2077881246805191,0.5473188161849976
1629797589559,0.5049915909767151,0.2296773195266723,0.2043671458959579,0.6146764159202576
1629797589637,0.5596815943717957,0.2489938735961914,0.2043671458959579,0.693556010723114
1629797589699,0.6260333061218262,0.2487954944372177,0.2043671458959579,0.7045823335647583
1629797589840,0.642534077167511,0.2370660006999969,0.1945557743310928,0.7261051535606384
1629797589981,0.6449887752532959,0.2122466713190078,0.188961386680603,0.7778967618942261
1629797590059,0.6612139940261841,0.204443946480751,0.1790121644735336,0.8138933777809143
1629797590246,0.6596817970275879,0.1965814679861068,0.1400512158870697,0.8138933777809143
1629797590293,0.6580569744110107,0.1871236264705658,0.1013359054923057,0.8110957145690918
1629797590293,0.6580569744110107,0.1747577488422393,0.0733516961336135,0.8110957145690918
1629797590434,0.6580569744110107,0.1603819727897644,0.0408961363136768,0.8110957145690918
1629797590564,0.6580569744110107,0.1397164911031723,0.0408961363136768,1.0503824949264526
1629797590673,0.7137364745140076,0.1173683255910873,0.0408961363136768,1.0896048545837402
1629797590751,0.7137364745140076,0.0976252183318138,0.0408961363136768,1.0896048545837402
1629797590970,0.7137364745140076,0.0976252183318138,0.0408961363136768,1.0896048545837402
1629797591017,0.7137364745140076,0.0976252183318138,0.0408961363136768,1.0896048545837402
1629797591050,0.711425244808197,0.0976252183318138,0.0408961363136768,1.0896048545837402
1629797591275,0.7062832117080688,0.0976252183318138,0.0982372313737869,1.1357778310775757
1629797591322,0.705214262008667,0.0976252183318138,0.0982372313737869,1.1357778310775757
1629797591369,0.6806823015213013,0.0976252183318138,0.0982372313737869,1.1357778310775757
1629797591478,0.6297253370285034,0.0976252183318138,0.0982372313737869,1.1357778310775757
1629797591604,0.4824171960353851,0.0976252183318138,0.0982372313737869,1.1357778310775757
1629797591697,0.4824171960353851,0.0976252183318138,0.0982372313737869,1.1357778310775757
1629797591775,0.4824171960353851,0.0976252183318138,0.0982372313737869,1.1357778310775757
1629797591916,0.4824171960353851,0.0976252183318138,0.0982372313737869,1.1357778310775757
1629797592010,0.4824171960353851,0.0976252183318138,0.0982372313737869,1.1357778310775757
1629797592041,0.4824171960353851,0.0976252183318138,0.0982372313737869,1.1357778310775757
1629797592166,0.4377337992191314,0.0976252183318138,0.0982372313737869,1.1357778310775757
1629797592260,0.369818240404129,0.0976252183318138,0.0982372313737869,1.1357778310775757
1629797592447,0.369818240404129,0.0976252183318138,0.0982372313737869,1.1357778310775757
1629797592591,0.369818240404129,0.0976252183318138,0.0982372313737869,1.1357778310775757
1629797592637,0.369818240404129,0.0976252183318138,0.0982372313737869,1.1357778310775757
1629797592716,0.369818240404129,0.0976252183318138,0.0982372313737869,1.1357778310775757
1629797592763,0.369818240404129,0.0976252183318138,0.0982372313737869,1.1357778310775757
1629797592903,0.369818240404129,0.0976252183318138,0.0982372313737869,1.1357778310775757
1629797593061,0.369818240404129,0.0976252183318138,0.0982372313737869,1.1357778310775757
1629797593108,0.369818240404129,0.0976252183318138,0.0982372313737869,1.1357778310775757
1629797593217,0.369818240404129,0.0976252183318138,0.0982372313737869,1.1357778310775757
1629797593311,0.369818240404129,0.0976252183318138,0.0982372313737869,1.1357778310775757
1629797593389,0.369818240404129,0.0976252183318138,0.0982372313737869,1.1357778310775757
1629797593483,0.369818240404129,0.0976252183318138,0.0982372313737869,1.1357778310775757
1629797593654,0.369818240404129,0.0976252183318138,0.0982372313737869,1.1357778310775757
1629797593764,0.369818240404129,0.0976252183318138,0.0982372313737869,1.1357778310775757
1629797593826,0.369818240404129,0.0976252183318138,0.0982372313737869,1.1357778310775757
1629797593936,0.369818240404129,0.0976252183318138,0.0982372313737869,1.1357778310775757
1629797594092,0.369818240404129,0.0976252183318138,0.0982372313737869,1.1357778310775757
1629797594139,0.369818240404129,0.0976252183318138,0.0982372313737869,1.1357778310775757
1629797594311,0.369818240404129,0.0976252183318138,0.0982372313737869,1.1357778310775757
1629797594373,0.369818240404129,0.0976252183318138,0.0982372313737869,1.1357778310775757
1629797594482,0.369818240404129,0.0976252183318138,0.0982372313737869,1.1357778310775757
1629797594576,0.369818240404129,0.0976252183318138,0.0982372313737869,1.1357778310775757
1629797594639,0.369818240404129,0.0976252183318138,0.0982372313737869,1.1357778310775757
1629797594701,0.369818240404129,0.0976252183318138,0.0982372313737869,1.1357778310775757
1629797594810,0.369818240404129,0.0976252183318138,0.0982372313737869,1.1357778310775757
1629797594920,0.369818240404129,0.0976252183318138,0.0982372313737869,1.1357778310775757
1629797594998,0.369818240404129,0.0976252183318138,0.0982372313737869,1.1357778310775757
1629797595157,0.369818240404129,0.0976252183318138,0.0982372313737869,1.1357778310775757
1629797595250,0.369818240404129,0.0976252183318138,0.0982372313737869,1.1357778310775757
1629797595282,0.369818240404129,0.0976252183318138,0.0982372313737869,1.1357778310775757
1629797595421,0.369818240404129,0.0976252183318138,0.0982372313737869,1.1357778310775757
1629797595561,0.369818240404129,0.0976252183318138,0.0982372313737869,1.1357778310775757
1629797595671,0.369818240404129,0.0976252183318138,0.0982372313737869,1.1357778310775757
1629797595702,0.369818240404129,0.0976252183318138,0.0982372313737869,1.1357778310775757
1629797595811,0.5021640658378601,0.0976252183318138,0.0982372313737869,1.1357778310775757
1629797595967,0.5021640658378601,0.0976252183318138,0.0982372313737869,1.1357778310775757
1629797596061,0.5021640658378601,0.0976252183318138,0.0982372313737869,1.1357778310775757
1629797596217,0.5021640658378601,0.0976252183318138,0.0982372313737869,1.1357778310775757
1629797596248,0.5021640658378601,0.0976252183318138,0.0982372313737869,1.1357778310775757
1629797596342,0.5021640658378601,0.0976252183318138,0.0982372313737869,1.1357778310775757
1629797596467,0.5098065733909607,0.0976252183318138,0.0982372313737869,1.1357778310775757
1629797596530,0.5245055556297302,0.0976252183318138,0.1938415318727493,0.4255495071411133
1629797596686,0.529686689376831,0.1281717121601104,0.1938415318727493,0.4329099059104919
1629797596874,0.529686689376831,0.2081257402896881,0.1938415318727493,0.4329099059104919
1629797596924,0.529686689376831,0.2563139200210571,0.1938415318727493,0.4329099059104919
1629797597064,0.5007871389389038,0.2826339602470398,0.1938415318727493,0.4329099059104919
1629797597221,0.4634868800640106,0.3062683343887329,0.1938415318727493,0.4329099059104919
1629797597361,0.3922296166419983,0.3182699382305145,0.1938415318727493,0.4329099059104919
1629797597455,0.3938412368297577,0.3247222006320953,0.1938415318727493,0.4329099059104919
1629797597470,0.3689948320388794,0.3252862393856048,0.1958795934915542,0.4329099059104919
1629797597517,0.368141621351242,0.3261816203594208,0.1958795934915542,0.4329099059104919
1629797597564,0.368141621351242,0.3261816203594208,0.1958795934915542,0.4329099059104919
1629797597783,0.368141621351242,0.3261816203594208,0.1958795934915542,0.4329099059104919
1629797597861,0.368141621351242,0.3261816203594208,0.1766447573900222,0.3398020267486572
1629797597960,0.368141621351242,0.3066370487213135,0.1083184853196144,0.3398020267486572
1629797598007,0.368141621351242,0.2913380861282348,0.077226236462593,0.3398020267486572
1629797598116,0.36044442653656,0.2820556759834289,-0.0256328713148832,0.3398020267486572
1629797598257,0.3204705715179443,0.2808339595794678,-0.0083710653707385,0.3398020267486572
1629797598350,0.2937059700489044,0.2829969525337219,-0.0072230142541229,0.3398020267486572
1629797598475,0.3166984617710113,0.292713463306427,-0.0047908769920468,0.6426374912261963
1629797598569,0.3501471281051636,0.2843306958675384,-0.0006173111614771,0.6776091456413269
1629797598663,0.3673323392868042,0.2759678661823272,-0.0006173111614771,0.6859564781188965
1629797598710,0.3786802887916565,0.266529381275177,0.0041008759289979,0.6926302313804626
1629797598850,0.3630994260311126,0.2560500800609588,0.0041008759289979,0.7212578058242798
1629797599022,0.3538265824317932,0.2585571706295013,-0.0397160947322845,0.8092038035392761
1629797599085,0.3520213365554809,0.2848599851131439,-0.048085082322359,0.8667888045310974
1629797599178,0.3439794182777405,0.3143288791179657,-0.046778954565525,0.8761128187179565
1629797599194,0.3380464613437652,0.3146918714046478,-0.0392514318227767,0.8796079754829407
1629797599370,0.3267510831356048,0.3146918714046478,-0.0192245878279209,0.8811936974525452
1629797599433,0.3169097900390625,0.3146918714046478,-0.0174750164151191,0.8818753957748413
1629797599572,0.3169097900390625,0.3129968643188476,-0.0223845671862363,0.881913959980011
1629797599603,0.3188026249408722,0.3105039894580841,-0.0299170557409524,0.881913959980011
1629797599728,0.3272473216056824,0.3096376359462738,-0.0366929322481155,0.881913959980011
1629797599791,0.3133698105812073,0.2998384237289428,-0.0326701030135154,0.8776861429214478
1629797599994,0.2883051931858063,0.2562131285667419,-0.0276320949196815,0.8776861429214478
1629797600088,0.25758096575737,0.1830796897411346,-0.0455062948167324,0.8776861429214478
1629797600134,0.2157609909772873,0.146413967013359,-0.0990890935063362,0.8776861429214478
1629797600244,0.1881743222475052,0.1411191523075103,-0.1698229163885116,0.8776861429214478
1629797600338,0.1569939255714416,0.1335731148719787,-0.1996598690748214,0.8776861429214478
1629797600431,0.1246250197291374,0.125182569026947,-0.2040197551250457,0.8756436109542847
1629797600525,0.102916695177555,0.1219787150621414,-0.2092591226100921,0.8577185273170471
1629797600634,0.0974710583686828,0.076440192759037,-0.2125575989484787,0.8100869059562683
1629797600681,0.0871141403913497,-0.0148298414424061,-0.2109978795051574,0.7607540488243103
1629797600806,0.0800997093319892,-0.0610607303678989,-0.2023690938949585,0.7841184735298157
1629797600931,0.0800997093319892,-0.0772784799337387,-0.1714690923690796,0.8153148889541626
1629797601076,0.0800997093319892,-0.0858856886625289,-0.1681937128305435,0.8017444014549255
1629797601232,0.0800997093319892,-0.0878800004720687,-0.1681937128305435,0.785523533821106
1629797601279,0.0799911990761756,-0.0983380824327468,-0.1668238192796707,0.7839807271957397
1629797601326,0.087084911763668,-0.140225663781166,-0.1335231810808181,0.7960616946220398
1629797601404,0.1709046810865402,-0.1476518213748932,-0.0931055396795272,0.8108733892440796
1629797601529,0.2538785934448242,-0.054510161280632,-0.0647473037242889,0.8530448079109192
1629797601685,0.3369790911674499,-0.022808514535427,-0.0477861948311328,0.8850041031837463
1629797601825,0.3825798332691192,-0.0147643443197011,-0.0164033528417348,0.900638997554779
1629797601872,0.3937511742115021,-0.0095559218898415,-0.0058044837787747,0.9099385142326356
1629797601982,0.3953982591629028,-0.0095559218898415,-0.0058044837787747,0.932860553264618
1629797602014,0.4267348051071167,-0.0072234123945236,-0.0058044837787747,0.9643403887748718
1629797602141,0.4641140103340149,-0.0072234123945236,-0.0058044837787747,0.9643403887748718
1629797602266,0.4889997541904449,-0.0072234123945236,-0.0004267510375939,0.9643403887748718
1629797602375,0.4889997541904449,-0.0080909095704555,-0.0127135068178176,0.963367223739624
1629797602485,0.4889997541904449,0.0466526187956333,-0.0171445645391941,0.9476581811904908
1629797602594,0.4889997541904449,0.0893541276454925,0.0081541445106267,0.9140594601631165
1629797602610,0.4889997541904449,0.0985839366912841,0.0418854355812072,0.8894699215888977
1629797602828,0.4889997541904449,0.0985839366912841,0.0684659481048584,0.8664316534996033
1629797602969,0.4889997541904449,0.0985839366912841,0.0929371640086174,0.8388910293579102
1629797603082,0.4889997541904449,0.0985839366912841,0.1019531562924385,0.8435817956924438
1629797603128,0.4750691950321197,0.0982384458184242,0.0910088643431663,0.8458153009414673
1629797603160,0.4407723248004913,0.0987822860479354,0.0725120827555656,0.8423540592193604
1629797603253,0.409161627292633,0.1023070886731147,0.0442930348217487,0.8277270793914795
1629797603394,0.3720960915088653,0.1252606362104416,0.0393862053751945,0.7908375859260559
1629797603519,0.3225001692771911,0.1362040042877197,0.0427490025758743,0.7677372097969055
1629797603628,0.3054780960083008,0.1441625952720642,0.0464121289551258,0.780281662940979
1629797603675,0.3626177012920379,0.1478039622306823,0.0465708151459693,0.7508154511451721
1629797603785,0.2673587203025818,0.1478039622306823,0.046038694679737,0.7426350116729736
1629797603958,0.2681961953639984,0.1478039622306823,0.0384701117873191,0.7300401329994202
1629797604036,0.2681961953639984,0.1478039622306823,0.0384701117873191,0.7226006984710693
1629797604130,0.2681961953639984,0.1452898830175399,0.0408706814050674,0.7226006984710693
1629797604177,0.2681961953639984,0.1358588933944702,0.0855495184659957,0.7175168991088867
1629797604255,0.2681961953639984,0.2954863011837005,0.1487670093774795,0.6815166473388672
1629797604333,0.2681961953639984,0.5299619436264038,0.2028255313634872,0.6556000709533691
1629797604474,0.2681961953639984,0.6534251570701599,0.2519098818302154,0.6556000709533691
1629797604599,0.2642671465873718,0.6758700609207153,0.2931315302848816,0.6556000709533691
1629797604677,0.2611866891384125,0.6758700609207153,0.2964284420013428,0.6556000709533691
1629797604755,0.2611866891384125,0.6758700609207153,0.2964284420013428,0.6556000709533691
1629797604864,0.2611866891384125,0.6758700609207153,0.2964284420013428,0.6556000709533691
1629797604974,0.2588587701320648,0.6758700609207153,0.2964284420013428,0.6497779488563538
1629797605083,0.2299219965934753,0.6758700609207153,0.2964284420013428,0.5957555174827576
1629797605223,0.2299219965934753,0.6746931076049805,0.2964284420013428,0.5957555174827576
1629797605286,0.2299219965934753,0.6741593480110168,0.2964284420013428,0.5957555174827576
1629797605395,0.2299219965934753,0.6741593480110168,0.3024150431156158,0.5957555174827576
1629797605567,0.2299219965934753,0.6741593480110168,0.3093272149562835,0.5957555174827576
1629797605599,-0.0184513255953788,0.6741593480110168,0.3136304914951324,0.3727723658084869
1629797605802,0.1343296021223068,0.6741593480110168,0.3145733773708343,0.5190805792808533
1629797605864,0.2635615468025207,0.6741593480110168,0.3157070279121399,0.6107552647590637
1629797605926,0.3571370244026184,0.6741593480110168,0.3102507293224334,0.6522761583328247
1629797606051,0.3819750845432281,0.6324558854103088,0.283884733915329,0.6727724671363831
1629797606099,0.3819750845432281,0.4749603569507599,0.2347966283559799,0.6758758425712585
1629797606288,0.3819750845432281,0.221141442656517,0.141739010810852,0.6758758425712585
1629797606335,0.385515958070755,-0.0149337546899914,0.0792789906263351,0.6758758425712585
1629797606428,0.385515958070755,-0.1674186587333679,0.0464738756418228,0.6773344278335571
1629797606553,0.385515958070755,-0.229514017701149,0.0466163121163845,0.6777592897415161
1629797606600,0.385515958070755,-0.2138536125421524,0.0466163121163845,0.6778402328491211
1629797606725,0.385515958070755,-0.1383721977472305,0.0476899780333042,0.6840313076972961
1629797606944,0.385515958070755,-0.0357005931437015,0.0556343533098697,0.6894551515579224
1629797606994,0.385515958070755,0.0226460546255111,0.0565162785351276,0.7074329853057861
1629797607072,0.385515958070755,0.0414663217961788,0.0465139113366603,0.71114182472229
1629797607103,0.385515958070755,0.0555544309318065,0.0314017198979854,0.71114182472229
1629797607212,0.384450763463974,0.073267325758934,0.0521236099302768,0.71114182472229
1629797607432,0.379288762807846,0.0913545340299606,0.0570394322276115,0.7013755440711975
1629797607509,0.3601045906543731,0.0963080376386642,0.0570394322276115,0.6506391763687134
1629797607572,0.2853512465953827,0.0963080376386642,0.0449113436043262,0.5607083439826965
1629797607650,0.1955586224794387,0.0963080376386642,0.0066995336674153,0.5145484209060669
1629797607759,0.2186911702156067,0.0963080376386642,-0.026860075071454,0.5507279634475708
1629797607837,0.2386584430932998,0.0963080376386642,-0.0126827890053391,0.5665037035942078
1629797607915,0.2298158109188079,0.1050634682178497,0.0124265430495142,0.5617778301239014
1629797608044,0.2298158109188079,0.1053990572690963,0.0033255920279771,0.5617778301239014
1629797608075,0.2309406995773315,0.1053990572690963,0.0024055566173046,0.561750054359436
1629797608372,0.2385851889848709,0.1129002049565315,0.0239084456115961,0.5562276244163513
1629797608434,0.2940809428691864,0.1313527077436447,0.0403629764914512,0.5589495897293091
1629797608481,0.3547783195972442,0.1126031205058097,0.0602026171982288,0.5567404627799988
1629797608512,0.3957790732383728,0.0884438455104827,0.0837761536240577,0.5386837720870972
1629797608653,0.4087778031826019,0.1006220057606697,0.1038856580853462,0.5351062417030334
1629797608796,0.4160694479942322,0.1006220057606697,0.1256248354911804,0.5351062417030334
1629797608874,0.4160694479942322,0.1006220057606697,0.109372854232788,0.5351062417030334
1629797609015,0.4125443696975708,0.1006220057606697,0.0654724165797233,0.5351062417030334
1629797609111,0.4104297459125519,0.1006220057606697,0.0224051233381032,0.5351062417030334
1629797609158,0.4029766023159027,0.1006220057606697,0.0038631409406661,0.5351062417030334
1629797609189,0.3759961128234863,0.1006220057606697,-0.0017252126708626,0.5201300382614136
1629797609393,0.3622584640979767,0.1006220057606697,-0.0017252126708626,0.4658085405826568
1629797609471,0.357785016298294,0.0745052769780159,-0.0018704348476603,0.3945146203041076
1629797609580,0.3538922369480133,0.5967628359794617,-0.0249831676483154,0.3429152071475982
1629797609674,0.3477678000926971,0.6079384684562683,-0.0615138597786426,0.3147072196006775
1629797609783,0.3318120241165161,0.6079384684562683,-0.0739846900105476,0.3014697134494781
1629797609910,0.3136148452758789,0.6109063029289246,-0.0761826634407043,0.2796646952629089
1629797609941,0.3136148452758789,0.6109063029289246,-0.0844063609838485,0.2796646952629089
1629797610097,0.3136148452758789,0.6109063029289246,-0.0844063609838485,0.2796646952629089
1629797610160,0.3136148452758789,0.6109063029289246,-0.0844063609838485,0.2796646952629089
1629797610254,0.3136148452758789,0.6109063029289246,-0.0844063609838485,0.2796646952629089
1629797610347,0.3136148452758789,0.6109063029289246,-0.0844063609838485,0.2796646952629089
1629797610535,0.3136148452758789,0.6114994287490845,-0.0844063609838485,0.2796646952629089
1629797610676,0.3136148452758789,0.6155273914337158,-0.0844063609838485,0.2796646952629089
1629797610738,0.3136148452758789,0.6155273914337158,-0.0844063609838485,0.2796646952629089
1629797610800,0.3136148452758789,0.6155273914337158,-0.0844063609838485,0.2796646952629089
1629797610925,0.3136148452758789,0.6155273914337158,-0.0844063609838485,0.2796646952629089
1629797610988,0.3136148452758789,0.6155273914337158,-0.0844063609838485,0.2796646952629089
1629797611144,0.3136148452758789,0.5272062420845032,-0.0844063609838485,0.2796646952629089
1629797611238,0.3136148452758789,0.387539803981781,-0.0844063609838485,0.2796646952629089
1629797611300,0.3136148452758789,0.2766851484775543,-0.0844063609838485,0.2796646952629089
1629797611441,0.3136148452758789,0.2288338989019394,-0.0844063609838485,0.2796646952629089
1629797611566,0.3136148452758789,0.3309930264949798,-0.0844063609838485,0.2796646952629089
1629797611675,0.3136148452758789,0.42559415102005,-0.0844063609838485,0.2796646952629089
1629797611722,0.3136148452758789,0.4687469005584717,-0.0844063609838485,0.2796646952629089
1629797611753,0.3136148452758789,0.4755231738090515,-0.0844063609838485,0.2796646952629089
1629797611973,0.3136148452758789,0.4765890836715698,-0.0844063609838485,0.2796646952629089
1629797612036,0.3136148452758789,0.479808896780014,-0.0844063609838485,0.2796646952629089
1629797612114,0.3136148452758789,0.4936730861663818,-0.0844063609838485,0.2796646952629089
1629797612271,0.3136148452758789,0.5221369862556458,-0.0844063609838485,0.2796646952629089
1629797612317,0.3136148452758789,0.5320708155632019,-0.0844063609838485,0.2796646952629089
1629797612349,0.3136148452758789,0.5377936959266663,-0.0844063609838485,0.2796646952629089
1629797612505,0.3136148452758789,0.5377936959266663,-0.0844063609838485,0.2796646952629089
1629797612599,0.3136148452758789,0.5377936959266663,-0.0844063609838485,0.2796646952629089
1629797612692,0.3136148452758789,0.5377936959266663,-0.0844063609838485,0.2796646952629089
1629797612770,0.3136148452758789,0.5377936959266663,-0.0844063609838485,0.2796646952629089
1629797612880,0.3136148452758789,0.5374936461448669,-0.0844063609838485,0.2796646952629089
1629797613024,0.3136148452758789,0.5331799983978271,-0.0844063609838485,0.2796646952629089
1629797613133,0.3136148452758789,0.522242546081543,-0.0844063609838485,0.2796646952629089
1629797613211,0.3136148452758789,0.488893449306488,-0.0844063609838485,0.2796646952629089
1629797613367,0.3136148452758789,0.4426280856132507,-0.0844063609838485,0.2796646952629089
1629797613430,0.3136148452758789,0.4068443477153778,-0.0844063609838485,0.2796646952629089
1629797613508,0.3136148452758789,0.4003684520721435,-0.0844063609838485,0.2796646952629089
1629797613586,0.872951328754425,0.3642281889915466,-0.0844063609838485,0.2796646952629089
1629797613742,0.872951328754425,0.2972676455974579,-0.0844063609838485,0.2796646952629089
1629797613820,0.8737693428993225,0.2057973593473434,-0.0844063609838485,0.2796646952629089
1629797613930,0.8747027516365051,0.1652261763811111,-0.0844063609838485,0.6205873489379883
1629797614027,0.8747027516365051,0.1405397355556488,-0.0844063609838485,0.7254616618156433
1629797614152,0.8616800308227539,0.1575275361537933,-0.0844063609838485,0.8291876316070557
1629797614261,0.6277966499328613,0.2235431671142578,-0.0844063609838485,0.9007858633995056
1629797614339,0.629402756690979,0.2532826662063598,-0.0262684151530265,0.9498878121376038
1629797614464,0.6418847441673279,0.2779244482517242,-0.0262684151530265,0.965318500995636
1629797614542,0.6497710943222046,0.2779244482517242,-0.0262684151530265,0.970496952533722
1629797614652,0.6497710943222046,0.2779244482517242,-0.0230422932654619,0.9768721461296082
1629797614746,0.6497710943222046,0.2779244482517242,0.0071379570290446,0.982300102710724
1629797614792,0.6497710943222046,0.2779244482517242,0.0861910730600357,0.9848867654800416
1629797614948,0.6497710943222046,0.2779244482517242,0.1633515208959579,0.9867211580276488
1629797615115,0.616999089717865,0.2724070847034454,0.199977621436119,0.99438738822937
1629797615136,0.5654318928718567,0.2673235237598419,0.2104046493768692,1.007851243019104
1629797615246,0.4551344811916351,0.2673235237598419,0.2204923033714294,1.007851243019104
1629797615329,0.3711759150028229,0.2673235237598419,0.2204923033714294,1.007851243019104
1629797615401,0.3289458155632019,0.2673235237598419,0.2204923033714294,1.007851243019104
1629797615558,0.3133178055286407,0.2673235237598419,0.2204844057559967,1.007851243019104
1629797615659,0.3107487261295318,0.2480074018239975,0.2132766395807266,0.9931904077529908
1629797615801,0.3107487261295318,0.2247777134180069,0.1717747300863266,0.9610766768455504
1629797615848,0.3107487261295318,0.1726193130016327,0.1328521817922592,0.917955219745636
1629797615923,0.3099907040596008,0.0654940009117126,0.1422468572854995,0.8374625444412231
1629797616072,0.2933438718318939,-0.0405936613678932,0.1919955909252166,0.7478801012039185
1629797616271,0.1764739155769348,-0.0440211854875087,0.2136464715003967,0.708250880241394
1629797616458,-0.024586271494627,-0.0701155290007591,0.2213287055492401,0.6896010041236877
1629797616492,-0.0967936664819717,-0.1080561429262161,0.2213287055492401,0.6896010041236877
1629797616624,-0.0833868384361267,-0.1073638275265693,0.2213287055492401,0.6896010041236877
1629797616765,-0.0275238472968339,-0.0420423783361911,0.2008594870567321,0.6896010041236877
1629797616847,0.0020696565043181,0.0174966342747211,0.1602467894554138,0.6896010041236877
1629797616889,0.0465968437492847,0.0177934952080249,0.1170490756630897,0.6896010041236877
1629797616920,0.0837104246020317,0.0030229040421545,0.076180875301361,0.6896010041236877
1629797616983,0.1042452380061149,0.000695085094776,0.0684469193220138,0.6896010041236877
1629797617142,0.1343539357185363,0.0025417895521968,0.0698346197605133,0.6896010041236877
1629797617267,0.1683319211006164,0.0290787369012832,0.0869718268513679,0.6896010041236877
1629797617313,0.18989859521389,0.0493034087121486,0.104815274477005,0.6896010041236877
1629797617391,0.18989859521389,0.0615839213132858,0.1012118384242057,0.6896010041236877
1629797617470,0.18989859521389,0.1071228459477424,0.0974535644054412,0.6896010041236877
1629797617579,0.18989859521389,0.3506273329257965,0.0945716574788093,0.6896010041236877
1629797617723,0.18989859521389,0.7068174481391907,0.0706786662340164,0.6896010041236877
1629797617900,0.18989859521389,0.7068174481391907,0.0229274649173021,0.6896010041236877
1629797617916,0.173605740070343,0.7068174481391907,-0.0230743549764156,0.6896010041236877
1629797618138,0.161869466304779,0.7068174481391907,-0.0513285249471664,0.6896010041236877
1629797618153,0.1558511406183242,0.7068174481391907,-0.0737065821886062,0.6896010041236877
1629797618216,0.1318879425525665,0.7068174481391907,-0.0781459510326385,0.6896010041236877
1629797618294,0.1184768080711364,0.7068174481391907,-0.0781459510326385,0.6896010041236877
1629797618419,0.103777103126049,0.7068174481391907,-0.0781459510326385,0.6896010041236877
1629797618466,0.103777103126049,0.7068174481391907,-0.0781459510326385,0.6896010041236877
1629797618715,0.103777103126049,0.7068174481391907,-0.0781459510326385,0.6896010041236877
1629797618731,0.103777103126049,0.7068174481391907,-0.0781459510326385,0.6896010041236877
1629797618793,0.103777103126049,0.7068174481391907,-0.0781459510326385,0.6896010041236877
1629797618889,0.103777103126049,0.7068174481391907,-0.0781459510326385,0.6896010041236877
1629797618969,0.103777103126049,0.7068174481391907,0.1631772965192794,0.6896010041236877
1629797619078,0.103777103126049,0.7068174481391907,0.1631772965192794,0.6896010041236877
1629797619236,0.103777103126049,0.7068174481391907,0.1631772965192794,0.6896010041236877
1629797619290,0.103777103126049,0.7068174481391907,0.1720565408468246,0.6896010041236877
1629797619384,0.103777103126049,0.1905470788478851,0.1777420490980148,0.6896010041236877
1629797619493,0.103777103126049,0.2782551944255829,0.1777420490980148,0.6896010041236877
1629797619571,0.103777103126049,0.336024135351181,0.1777420490980148,0.6896010041236877
1629797619696,0.103777103126049,0.3611118197441101,0.1862384527921676,0.6896010041236877
1629797619805,0.103777103126049,0.365927517414093,0.262543261051178,0.6896010041236877
1629797619933,0.103777103126049,0.3674315810203552,0.3334314525127411,0.6896010041236877
1629797620011,0.103777103126049,0.3674315810203552,0.3626114726066589,0.6896010041236877
1629797620136,0.103777103126049,0.3674315810203552,0.3626114726066589,0.6896010041236877
1629797620199,0.103777103126049,0.3674858212471008,0.3258006870746612,0.6896010041236877
1629797620277,0.103777103126049,0.3760335445404053,0.2754965424537658,0.6896010041236877
1629797620464,0.459533154964447,0.3909947574138641,0.2286845445632934,0.6896010041236877
1629797620712,0.459533154964447,0.4176181554794311,0.2052832245826721,1.1281648874282837
1629797620745,0.4958941638469696,0.4721564650535583,0.2051628977060318,1.1487785577774048
1629797620792,0.5598722100257874,0.480937123298645,0.2124156951904297,1.1524989604949951
1629797620854,0.6656476855278015,0.480937123298645,0.2435585856437683,1.1538300514221191
1629797620979,0.7729083299636841,0.4806383848190307,0.2770032286643982,1.1578630208969116
1629797621168,0.8779455423355103,0.4786034226417541,0.3345234096050262,1.173359751701355
1629797621278,0.9842105507850648,0.4669165015220642,0.3572969734668731,1.216368317604065
1629797621309,1.0955904722213743,0.4460216462612152,0.3706445097923279,1.2446327209472656
1629797621325,1.1858994960784912,0.4275671541690826,0.3868306875228882,1.2497437000274658
1629797621419,1.2435272932052612,0.4260635673999786,0.3877816796302795,1.250444412231445
1629797621559,1.294670820236206,0.4260635673999786,0.3755410611629486,1.260371208190918
1629797621653,1.345610499382019,0.4260635673999786,0.3474433720111847,1.275054097175598
1629797621872,1.3898067474365234,0.4260635673999786,0.3389740288257599,1.284305214881897
1629797621918,1.4229612350463867,0.4393630921840668,0.3271530866622925,1.2756404876708984
1629797621982,1.4305071830749512,0.4724286198616028,0.324508398771286,1.272891402244568
1629797622046,1.4305071830749512,0.4760679304599762,0.324508398771286,1.2729414701461792
1629797622155,1.4305071830749512,0.456594318151474,0.3287621736526489,1.27509605884552
1629797622280,1.4305071830749512,0.400699645280838,0.3304588496685028,1.2766790390014648
1629797622343,1.4305071830749512,0.3843467831611633,0.3306572735309601,1.2831963300704956
1629797622452,1.4338127374649048,0.3933045864105224,0.3320547044277191,1.2900302410125732
1629797622562,1.4338127374649048,0.4079086184501648,0.3303686380386352,1.2986294031143188
1629797622702,1.4338127374649048,0.4079086184501648,0.2931164801120758,1.303656816482544
1629797622718,1.4338127374649048,0.4079086184501648,0.2510810792446136,1.2939366102218628
1629797622937,1.4274388551712036,0.4079086184501648,0.1922861933708191,1.2931053638458252
1629797622968,1.411070466041565,0.4131387770175934,0.1067200973629951,1.2931053638458252
1629797623048,1.393149495124817,0.4131387770175934,0.0734524056315422,1.2931053638458252
1629797623157,1.406569242477417,0.4131387770175934,0.0689942687749862,1.2931727170944214
1629797623251,1.4415764808654783,0.4105616807937622,0.0958920195698738,1.322611927986145
1629797623388,1.4514975547790527,0.3923064172267914,0.1700790226459503,1.3479410409927368
1629797623513,1.4121642112731934,0.3268532454967499,0.2848484814167022,1.3881832361221311
1629797623544,1.3459880352020264,0.2435834109783172,0.4083601534366607,1.421420931816101
1629797623685,1.3216636180877686,0.2228762507438659,0.459380030632019,1.4431703090667725
1629797623738,1.3216636180877686,0.2128793895244598,0.4632533192634582,1.4656089544296265
1629797623864,1.3292951583862305,0.2098845839500427,0.4632533192634582,1.5040100812911987
1629797624021,1.3624484539031982,0.2098062485456466,0.4632533192634582,1.538222074508667
1629797624115,1.3912572860717771,0.180073082447052,0.4632533192634582,1.578116774559021
1629797624188,1.4072319269180298,0.1119749620556831,0.4632533192634582,1.595370173454285
1629797624251,1.4082452058792114,0.0848765522241592,0.4608886241912842,1.599261999130249
1629797624391,1.4078937768936155,0.0801414400339126,0.4516308605670929,1.599261999130249
1629797624454,1.4066976308822632,0.0787168368697166,0.4444510638713836,1.599733829498291
1629797624563,1.40594744682312,0.0787168368697166,0.4374122619628906,1.6039804220199585
1629797624719,1.4052194356918335,0.0787168368697166,0.4355452358722687,1.6131011247634888
1629797624813,1.401588797569275,0.073230467736721,0.4355452358722687,1.6188362836837769
1629797624909,1.3863718509674072,0.0729305371642112,0.4355452358722687,1.6208465099334717
1629797624988,1.3492927551269531,0.0980584472417831,0.4316338896751404,1.624996781349182
1629797625066,1.3056979179382324,0.1232014819979667,0.4174190461635589,1.627376675605774
1629797625161,1.2471342086791992,0.1344464719295501,0.3604925572872162,1.618931770324707
1629797625301,1.182337522506714,0.1543857008218765,0.2590059638023376,1.5829510688781738
1629797625395,1.164666771888733,0.1698630601167678,0.171942800283432,1.5397191047668457
1629797625536,1.162247657775879,0.1863983422517776,0.0952711775898933,1.5149178504943848
1629797625614,1.1532607078552246,0.2174832075834274,0.0323951877653598,1.4954490661621094
1629797625692,1.118085503578186,0.2298887819051742,-0.0334115885198116,1.4413422346115112
1629797625755,1.0510022640228271,0.2284072190523147,-0.0700217485427856,1.335156798362732
1629797625942,0.9614580273628236,0.2291684448719024,-0.0758124813437461,1.2613584995269775
1629797626052,0.9271303415298462,0.238375574350357,-0.0758124813437461,1.2134908437728882
1629797626130,0.925537645816803,0.2483368963003158,-0.1037273854017257,1.201396942138672
1629797626223,0.9254936575889589,0.2691141664981842,-0.1747097223997116,1.1974701881408691
1629797626333,0.9254936575889589,0.2718699276447296,-0.2341624349355697,1.1961736679077148
1629797626426,0.9254936575889589,0.2718699276447296,-0.2753726840019226,1.1803709268569946
1629797626583,0.9254936575889589,0.2718699276447296,-0.3065619766712188,1.1634303331375122
1629797626708,0.9185827374458312,0.2429808527231216,0.0603869333863258,1.1388047933578491
1629797626786,0.9185827374458312,0.2227276116609573,0.0562231615185737,1.1388047933578491
1629797626817,0.9185827374458312,0.2309821993112564,0.0569553151726722,1.1388047933578491
1629797626958,0.9185827374458312,0.2309821993112564,0.0581561103463172,1.1388047933578491
1629797627082,0.9185827374458312,0.2309821993112564,0.0597137808799743,1.1388047933578491
1629797627148,0.9185827374458312,0.2309821993112564,0.062286976724863,1.1388047933578491
1629797627226,0.9185827374458312,0.2309821993112564,0.0632140859961509,1.1388047933578491
1629797627367,0.9185827374458312,0.2286251336336136,0.0632140859961509,1.1388047933578491
1629797627413,0.9185827374458312,0.1941590756177902,0.0632140859961509,1.1388047933578491
1629797627517,0.9185827374458312,0.1216691955924034,0.0632140859961509,1.1388047933578491
1629797627689,0.9185827374458312,0.058695875108242,0.0632140859961509,1.1388047933578491
1629797627736,0.9185827374458312,0.0512188449501991,0.0632140859961509,1.1388047933578491
1629797627923,0.9185827374458312,0.0160327106714248,0.0718906819820404,1.1388047933578491
1629797627970,0.9185827374458312,-0.0200886540114879,0.0954651609063148,1.1388047933578491
1629797628111,0.9185827374458312,-0.0520532093942165,0.1129035055637359,1.1388047933578491
1629797628157,0.9185827374458312,-0.0621102340519428,0.0350333005189895,1.1388047933578491
1629797628204,0.0883917808532714,-0.0154511006549,-0.014621484093368,0.766960620880127
1629797628361,0.1026976779103279,0.0283981580287218,-0.0586329698562622,0.8061811327934265
1629797628548,0.1585926264524459,0.0633945018053054,-0.0699679404497146,0.8708122968673706
1629797628626,0.2241753041744232,0.1052432209253311,-0.0739325284957885,0.9456178545951844
1629797628657,0.2678682506084442,0.1278956234455108,-0.0741268098354339,0.990735411643982
1629797628782,0.3140317797660827,0.1284121721982956,-0.037162646651268,1.02186119556427
1629797628860,0.3403139412403106,0.1284121721982956,-0.0187523420900106,1.037470459938049
1629797629017,0.3691531717777252,0.1289933770895004,-0.0200670231133699,1.0447019338607788
1629797629102,0.454177588224411,0.1289933770895004,-0.0259164553135633,1.0523585081100464
1629797629165,0.6577408313751221,0.1298952251672744,-0.0232402700930833,1.0712283849716189
1629797629274,0.8467803597450256,0.1343277692794799,-0.0003646017285063,1.1031906604766846
1629797629383,0.9617842435836792,0.1525106132030487,0.0305807963013649,1.1294901371002195
1629797629430,0.9909018278121948,0.1760206073522567,0.0480334535241127,1.145671844482422
1629797629587,0.991872489452362,0.1842401474714279,0.0480092093348503,1.160071611404419
1629797629796,0.991872489452362,0.1842401474714279,0.0539091415703296,1.1604955196380615
1629797629857,0.991872489452362,0.1842401474714279,0.0880243852734565,1.160652995109558
1629797629935,0.991872489452362,0.1803164035081863,0.1115847453474998,1.1642435789108276
1629797629998,0.991872489452362,0.1657295078039169,0.1215818524360656,1.1746751070022583
1629797630124,0.9940435886383056,0.1473297625780105,0.1253465414047241,1.1786843538284302
1629797630274,0.994205117225647,0.1040576100349426,0.1205501034855842,1.1563293933868408
1629797630289,0.994205117225647,0.0521070286631584,0.1165207400918006,1.1159611940383911
1629797630352,0.9918467402458192,0.0212562754750251,0.1123871281743049,1.0783251523971558
1629797630459,0.9871728420257568,0.0296563375741243,0.1033982411026954,1.042963624000549
1629797630558,0.9865368008613586,0.0296563375741243,0.0830102786421775,1.0164726972579956
1629797630745,0.9880582690238952,0.0296563375741243,0.0762284249067306,1.0046933889389038
1629797630824,0.9918656945228576,0.0296563375741243,0.0816829875111579,0.985149383544922
1629797630902,0.9918656945228576,0.0296563375741243,0.1184133365750312,0.950260043144226
1629797630967,0.9365293383598328,0.0296563375741243,0.2024099677801132,0.9013687968254088
1629797631170,0.8517509698867798,0.0296563375741243,0.2986628413200378,0.8663410544395447
1629797631311,0.78766268491745,0.0276369098573923,0.3248047232627868,0.8154186606407166
1629797631342,0.7713924050331116,0.0178740415722131,0.319829523563385,0.7480001449584961
1629797631501,0.7729188203811646,0.0109960827976465,0.306865781545639,0.6911460757255554
1629797631595,0.7774710059165955,0.0265218429267406,0.2913063168525696,0.670189380645752
1629797631845,0.7774710059165955,0.0786821469664573,0.2890012264251709,0.6307758688926697
1629797631861,0.7555416226387024,0.1506277173757553,0.2880174815654754,0.5832070708274841
1629797631876,0.7192549109458923,0.2273281365633011,0.2807125151157379,0.5495398640632629
1629797631923,0.6391007900238037,0.2468677014112472,0.2790473103523254,0.5057555437088013
1629797632098,0.5869377255439758,0.2565166354179382,0.2790473103523254,0.4559292793273926
1629797632160,0.5815674066543579,0.2506707310676574,0.2790473103523254,0.422621488571167
1629797632285,0.5801663398742676,0.2506707310676574,0.2790473103523254,0.422621488571167
1629797632394,0.5570387244224548,0.2506707310676574,0.2790473103523254,0.422621488571167
1629797632426,0.513282835483551,0.2506707310676574,0.2767002582550049,0.422621488571167
1629797632535,0.4760266840457916,0.2506707310676574,0.2667850255966186,0.422621488571167
1629797632644,0.415598601102829,0.2506707310676574,0.2457637786865234,0.422621488571167
1629797632832,0.415598601102829,0.3554009795188904,0.1842194497585296,0.422621488571167
1629797632863,0.415598601102829,0.4584135711193084,0.1194242313504219,0.422621488571167
1629797633006,0.415598601102829,0.5052529573440552,0.0758032277226448,0.422621488571167
1629797633021,0.415598601102829,0.5281042456626892,0.048685897141695,0.422621488571167
1629797633084,0.415598601102829,0.5334216952323914,0.021491140127182,0.422621488571167
1629797633459,0.415598601102829,0.5350849628448486,0.021491140127182,0.422621488571167
1629797633522,0.5783675312995911,0.5257185697555542,0.021491140127182,0.422621488571167
1629797633568,0.5783675312995911,0.5126436352729797,-0.0195406675338745,0.422621488571167
1629797633647,0.5783675312995911,0.5101377964019775,-0.0189238358289003,0.422621488571167
1629797633662,0.5783675312995911,0.5101377964019775,-0.0072566750459373,0.422621488571167
1629797633709,0.5783675312995911,0.5101377964019775,0.0041279485449194,0.8752597570419312
1629797633959,0.5783675312995911,0.5101377964019775,0.0162727795541286,0.8757600784301758
1629797634021,0.5783675312995911,0.5101377964019775,0.024839274585247,0.8822359442710876
1629797634087,0.5814725756645203,0.5101377964019775,0.0290330331772565,0.8909483551979065
1629797634102,0.5863774418830872,0.5101377964019775,0.0290330331772565,0.9001720547676086
1629797634243,0.5871227979660034,0.5059306025505066,0.0013764376053586,0.9001720547676086
1629797634352,0.5872978568077087,0.4752080142498016,-0.088349163532257,0.9001720547676086
1629797634602,0.5884993672370911,0.372912734746933,-0.088349163532257,0.8800414800643921
1629797634649,0.4410542547702789,0.2399375140666961,-0.088349163532257,0.8403640389442444
1629797634665,0.3552170395851135,0.1701937466859817,-0.088349163532257,0.840723991394043
1629797634774,0.3649302423000335,0.1389785408973693,-0.088349163532257,0.8439979553222656
1629797634868,0.3654800355434418,0.0837987139821052,-0.076964184641838,0.8459307551383972
1629797634946,0.3654800355434418,0.0256993845105171,-0.0794581621885299,0.8466042876243591
1629797635183,0.3605377674102783,-0.015094238333404,-0.0612601302564144,0.8466042876243591
1629797635214,0.3568554818630218,-0.0284167416393756,-0.0032923629041761,0.8199593424797058
1629797635276,0.3487683236598968,-0.0284167416393756,0.0514378696680069,0.8129709959030151
1629797635433,0.3439597487449646,-0.0284167416393756,0.0698164328932762,0.8000668287277222
1629797635464,0.337758719921112,-0.0265582110732793,0.0907650962471962,0.7941333055496216
1629797635558,0.336110383272171,-0.0186139587312936,0.1125325635075569,0.7935283780097961
1629797635745,0.3460098803043365,-0.0071618179790675,0.1289791017770767,0.7802171111106873
1629797635823,0.3558469712734222,-0.0147113753482699,0.1380807310342788,0.7493928074836731
1629797635839,0.3500849604606628,-0.0472728796303272,0.1419025957584381,0.7043485045433044
1629797635995,0.3389969766139984,-0.0505564771592617,0.1427047550678253,0.6705309152603149
1629797636047,0.3180036544799804,-0.0480839870870113,0.144622340798378,0.6528202295303345
1629797636249,0.2801181077957153,-0.0455373972654342,0.1503327786922454,0.6528202295303345
1629797636280,0.2670778036117553,-0.0848788544535636,0.1697364151477813,0.6528202295303345
1629797636389,0.2619642615318298,-0.1741859316825866,0.1950528472661972,0.6528202295303345
1629797636499,0.2508564591407776,-0.2006699740886688,0.1898362040519714,0.6528202295303345
1629797636577,0.2487732321023941,-0.1906112283468246,0.1736575067043304,0.661134660243988
1629797636717,0.2487732321023941,-0.1880044341087341,0.1660076230764389,0.6784985661506653
1629797636795,0.2487732321023941,-0.1880044341087341,0.1599526554346084,0.7017441987991333
1629797636858,0.2487732321023941,-0.1917845904827118,0.1290025115013122,0.7251929044723511
1629797637065,0.2667281925678253,-0.2039786428213119,0.1091887354850769,0.7240605354309082
1629797637126,0.2783153653144836,-0.2595964074134826,0.1140602976083755,0.7122481465339661
1629797637236,0.2783153653144836,-0.3193467259407043,0.1264551877975464,0.729823112487793
1629797637423,0.2630186676979065,-0.3156378865242004,0.1234022453427314,0.7364514470100403
1629797637439,0.2425575107336044,-0.322695642709732,0.1303227692842483,0.7216079831123352
1629797637532,0.2254607528448104,-0.3394496142864227,0.1508566737174987,0.7190451622009277
1629797637595,0.2253828942775726,-0.3504346907138824,0.154609203338623,0.7230152487754822
1629797637720,0.2253828942775726,-0.3378947973251343,0.1546313911676406,0.7299627065658569
1629797637927,0.2233583033084869,-0.3053872585296631,0.1546313911676406,0.7372683882713318
1629797637958,0.2163466811180114,-0.2560092508792877,0.151844322681427,0.7387000322341919
1629797638083,0.1907109320163726,-0.209623634815216,0.1231878772377967,0.7387000322341919
1629797638193,0.1543124318122863,-0.1332507729530334,0.0761479660868644,0.7387000322341919
1629797638255,0.1453191637992859,-0.0642416775226593,0.0702448487281799,0.7387000322341919
1629797638380,0.1369809657335281,0.1171396896243095,0.0702448487281799,0.7387000322341919
1629797638458,0.1351719796657562,0.2912890613079071,0.0702448487281799,0.7387000322341919
1629797638646,0.0971979722380638,0.3546452820301056,0.0702448487281799,0.7336333394050598
1629797638661,0.1351719796657562,0.3546452820301056,0.0702448487281799,0.7339815497398376
1629797638771,0.0058991252444684,0.3546452820301056,0.0616827011108398,0.7234699726104736
1629797638833,-0.0539107657968997,0.3546452820301056,0.0184356272220611,0.7047410011291504
1629797638976,-0.101618967950344,0.3546452820301056,-0.0597116574645042,0.6924552917480469
1629797639023,-0.138926550745964,0.3546452820301056,-0.0950118005275726,0.6744132041931152
1629797639117,-0.1591701060533523,0.3546452820301056,-0.1375055611133575,0.6413956880569458
1629797639226,-0.1591701060533523,0.3546452820301056,-0.1472891420125961,0.6413956880569458
1629797639398,-0.1591701060533523,0.3546452820301056,-0.1493633389472961,0.6413956880569458
1629797639681,-0.1591701060533523,0.3546452820301056,-0.1001877784729003,0.6413956880569458
1629797639759,-0.1591701060533523,0.3546452820301056,-0.1102771088480949,0.6413956880569458
1629797639774,-0.1591701060533523,0.3546452820301056,-0.1068031266331672,0.6413956880569458
1629797639836,-0.1591701060533523,0.3546452820301056,-0.1982566714286804,0.6413956880569458
1629797639930,-0.1591701060533523,0.3546452820301056,-0.1201742514967918,0.6413956880569458
1629797640180,-0.1591701060533523,0.3546452820301056,-0.0900743305683136,0.6413956880569458
1629797640274,-0.1591701060533523,0.3546452820301056,-0.0838886648416519,0.6413956880569458
1629797640321,-0.1591701060533523,0.3546452820301056,-0.0838886648416519,0.6413956880569458
1629797640352,-0.1591701060533523,-0.2136181592941284,-0.0831385925412178,0.6413956880569458
1629797640430,-0.1591701060533523,-0.2000827044248581,-0.0577022917568683,0.6413956880569458
1629797640508,-0.1591701060533523,-0.1682251095771789,0.05935849994421,1.6162902116775513
1629797640539,1.1408894062042236,-0.0941057950258255,0.1662000715732574,1.6204655170440674
1629797640633,1.1408894062042236,0.0079942271113395,0.2030077129602432,1.6204655170440674
1629797640758,1.1408894062042236,0.0766853541135788,0.2249827533960342,1.6204655170440674
1629797640883,1.1408894062042236,0.1041282564401626,0.225836381316185,1.6248308420181274
1629797640930,1.142022967338562,0.1041282564401626,0.225836381316185,1.62695574760437
1629797641168,1.1428372859954834,0.1041282564401626,0.225836381316185,1.62695574760437
1629797641324,1.143178105354309,0.1041282564401626,0.225836381316185,1.62695574760437
1629797641371,1.1436313390731812,0.1041282564401626,0.225836381316185,1.62695574760437
1629797641418,1.1436313390731812,0.1041282564401626,0.2257444560527801,1.62695574760437
1629797641465,1.1436313390731812,0.0755034312605857,0.209557369351387,1.62695574760437
1629797641574,1.1436313390731812,0.0755034312605857,0.1906834095716476,1.62695574760437
1629797641652,1.14445161819458,0.0867964774370193,0.1903141140937805,1.5830658674240112
1629797641793,1.1288433074951172,0.1129162237048149,0.1903141140937805,1.5618224143981934
1629797641886,1.1224511861801147,0.1220323890447616,0.1903141140937805,1.5528182983398438
1629797641980,1.079426407814026,0.1220323890447616,0.201138362288475,1.5162721872329712
1629797642045,0.9494250416755676,0.1205412298440933,0.2543633878231048,1.414315700531006
1629797642202,0.8681274056434631,0.1237825527787208,0.2447440773248672,1.2628898620605469
1629797642264,0.8681274056434631,0.1286788284778595,0.1744062304496765,1.3096624612808228
1629797642358,0.8681274056434631,0.1261801421642303,0.1241833046078682,1.3543862104415894
1629797642545,0.8667024374008179,0.1188640668988227,0.1225862652063369,1.3498657941818235
1629797642592,0.8624590039253235,0.1185690015554428,0.165109246969223,1.3447848558425903
1629797642795,0.8509280681610107,0.118260845541954,0.1876468956470489,1.3467411994934082
1629797642842,0.8363872766494751,0.1176537573337555,0.1947567164897918,1.3494112491607666
1629797643076,0.8246199488639832,0.1199911013245582,0.1969148218631744,1.350526213645935
1629797643092,0.8030563592910767,0.1199911013245582,0.1975438296794891,1.350526213645935
1629797643201,0.7480214834213257,0.1199911013245582,0.1975438296794891,1.350526213645935
1629797643264,0.7068765163421631,0.1199911013245582,0.1975438296794891,1.350526213645935
1629797643374,0.6723397970199585,0.1263378709554672,0.1975438296794891,1.350526213645935
1629797643498,0.6451842784881592,0.1450196653604507,0.1975438296794891,1.350526213645935
1629797643529,0.6305276155471802,0.1718955636024475,0.1975438296794891,1.3491613864898682
1629797643639,0.6008806824684143,0.1743393391370773,0.1845759600400924,1.3396844863891602
1629797643732,0.5261719226837158,0.1440576612949371,0.1330219060182571,1.327286720275879
1629797643811,0.4429460763931274,0.1047500967979431,0.0348075963556766,1.3064359426498413
1629797644029,0.399935245513916,0.0631747767329216,-0.013427504338324,1.2714654207229614
1629797644126,0.3758746087551117,0.0264192502945661,-0.0178163703531026,1.1793339252471924
1629797644173,0.3684121668338775,0.0243711546063423,0.0174024477601051,1.041305661201477
1629797644266,0.3576641082763672,0.0728700011968612,0.0382730215787887,0.8689586520195007
1629797644298,0.3440982401371002,0.1088024452328682,0.0569055862724781,0.7133744955062866
1629797644454,0.3265030980110168,0.128545880317688,0.0665710121393203,0.6142591834068298
1629797644681,0.320115864276886,0.128545880317688,0.1065056324005127,0.5550497770309448
1629797644759,0.3077605068683624,0.128545880317688,0.130631148815155,0.5388540625572205
1629797644790,0.2978062927722931,0.1345899105072021,0.1295525133609771,0.5258488059043884
1629797644837,0.291183203458786,0.1533094942569732,0.1034522727131843,0.5063089728355408
1629797644902,0.2595238387584686,0.1533094942569732,0.0907698944211006,0.4751048386096954
1629797645090,0.2282390594482422,0.1547819226980209,0.0907698944211006,0.4644594192504883
1629797645152,0.1891277283430099,0.1480036973953247,0.1037179380655288,0.4573903083801269
1629797645184,0.1289720237255096,0.1271765381097793,0.1315787434577942,0.4440051615238189
1629797645262,0.0142151517793536,0.1269559562206268,0.1706053912639618,0.4832829535007477
1629797645465,0.0142151517793536,0.1279422044754028,0.1884000897407531,0.4867103695869446
1629797645543,0.0142151517793536,0.1279422044754028,0.1884000897407531,0.4909451007843017
1629797645746,0.0142151517793536,0.1314835101366043,0.1884000897407531,0.4892832636833191
1629797645825,0.0142151517793536,0.1314835101366043,0.1884000897407531,0.4160216748714447
1629797645871,0.120766669511795,0.1224589571356773,0.1725217550992965,0.5190522074699402
1629797645968,0.120766669511795,0.1071768030524253,0.1393880546092987,0.5908634662628174
1629797646030,0.120766669511795,0.0972282439470291,0.1189107447862625,0.6401775479316711
1629797646234,0.120766669511795,0.0726212933659553,0.1010609492659568,0.682799756526947
1629797646296,0.1210235878825187,0.0636282339692115,0.0696434825658798,0.7130455374717712
1629797646359,0.1375999748706817,0.0446021743118763,0.0405262373387813,0.7314954996109009
1629797646437,0.2943137288093567,0.0328353270888328,0.047850627452135,0.7314954996109009
1629797646483,0.4556244015693664,0.0881088301539421,0.0983077213168144,0.7314954996109009
1629797646656,0.5331289172172546,0.0936866328120231,0.1287795156240463,0.7334596514701843
1629797646843,0.5478430986404419,0.0912013873457908,0.1354245990514755,0.7334596514701843
1629797646843,0.5479606986045837,0.0875127911567688,0.1275424063205719,0.7334596514701843
1629797646968,0.5479606986045837,0.079180397093296,0.1042822077870369,0.732562243938446
1629797647077,0.5433852672576904,0.0672762915492057,0.0588543675839901,0.7312378287315369
1629797647124,0.5324151515960693,0.0367798320949077,0.0162168554961681,0.7312378287315369
1629797647421,0.5291724801063538,0.0307626817375421,-0.006451210938394,0.7312378287315369
1629797647436,0.5291724801063538,0.0307626817375421,-0.0095469309017062,0.7312378287315369
1629797647499,0.5291724801063538,0.0307626817375421,-0.0095469309017062,0.7290520668029785
1629797647530,0.5332978963851929,0.0307626817375421,-0.0095469309017062,0.719902753829956
1629797647702,0.5388632416725159,0.0307626817375421,-0.0018510721856728,0.7149441838264465
1629797647796,0.5411689281463623,0.0307626817375421,0.0448768325150013,0.6929141283035278
1629797647971,0.5421435236930847,0.0064120204187929,0.1069695726037025,0.676352858543396
1629797647986,0.5429742336273193,-0.0389155894517898,0.1734839379787445,0.7532061338424683
1629797648033,0.5448973178863525,-0.0801173001527786,0.2291713058948516,0.8148632645606995
1629797648189,0.5040048360824585,-0.1565020084381103,0.2363013476133346,0.8352551460266113
1629797648392,0.3670597374439239,-0.1440738290548324,0.2003337144851684,0.8402460217475891
1629797648595,0.2074431180953979,-0.1401083469390869,0.1986937671899795,0.8362113833427429
1629797648611,0.202746570110321,-0.1401083469390869,0.1986937671899795,0.8325030207633972
1629797648720,0.2095895856618881,-0.1381294429302215,0.1986937671899795,0.8275516629219055
1629797648767,0.2268475443124771,-0.1239624321460723,0.1986937671899795,0.8260815739631653
1629797648814,0.2400250136852264,-0.0873389169573783,0.1986937671899795,0.8260815739631653
1629797648861,0.2623787522315979,-0.027323879301548,0.1986937671899795,0.8260815739631653
1629797649205,0.2675753831863403,-0.0116743147373199,0.1986937671899795,0.8260815739631653
1629797649251,0.2675753831863403,-0.0065133422613143,0.1986937671899795,0.8260815739631653
1629797649314,0.2675753831863403,-0.0036142624448984,0.1986937671899795,0.8260815739631653
1629797649345,0.2675753831863403,-0.0005395778571255,0.1986937671899795,0.8260815739631653
1629797649361,0.2675753831863403,0.0067375088110566,0.1986937671899795,0.8260815739631653
1629797649579,0.2675753831863403,0.0229711644351482,0.1986937671899795,0.8260815739631653
1629797649642,0.2629839181900024,0.0272537060081958,0.1870735585689544,0.8073633909225464
1629797649704,0.3071381151676178,0.0269365813583135,0.112533263862133,0.7748851180076599
1629797649767,0.2532563805580139,0.0262107569724321,-0.035208523273468,0.8202747702598572
1629797649970,0.2403500974178314,0.0209888312965631,-0.1014920994639396,0.8500263690948486
1629797650161,0.2858605682849884,0.0301001630723476,-0.1346586793661117,0.847366213798523
1629797650192,0.3480058312416076,0.0974184721708297,-0.1397589743137359,0.8703425526618958
1629797650270,0.3480058312416076,0.1648494154214859,-0.0881088003516197,0.8703425526618958
1629797650426,0.3480058312416076,0.1971675157546997,-0.0765707790851593,0.8703425526618958
1629797650629,0.3396421670913696,0.2142713218927383,-0.0491940900683403,0.8703425526618958
1629797650755,0.3206254541873932,0.2519963085651397,-0.0145639786496758,0.8703425526618958
1629797650770,0.3206254541873932,0.3221932351589203,0.005722576752305,0.8702983260154724
1629797650864,0.3206254541873932,0.3534833788871765,0.005722576752305,0.8702983260154724
1629797650879,0.3206254541873932,0.3551898300647735,-0.0034950305707752,0.8702983260154724
1629797650942,0.3206254541873932,0.3572859764099121,-0.0129562551155686,0.8702983260154724
1629797650989,0.3206254541873932,0.3572859764099121,-0.016095707193017,0.8702983260154724
1629797651160,0.3206254541873932,0.3572859764099121,-0.016095707193017,0.8702983260154724
1629797651223,0.3206254541873932,0.3708119690418243,-0.016095707193017,0.8702983260154724
1629797651379,0.3206254541873932,0.3839269876480102,0.1974000930786132,0.8702983260154724
1629797651442,0.3206254541873932,0.3839269876480102,0.217915192246437,0.8702983260154724
1629797651504,0.3206254541873932,0.3839269876480102,0.2179572135210037,0.8702983260154724
1629797651567,0.3206254541873932,0.3839269876480102,0.2206397205591201,0.8702983260154724
1629797651723,0.3206254541873932,0.3839269876480102,0.2257942706346511,0.8702983260154724
1629797651832,0.3206254541873932,0.4056781530380249,0.2273432612419128,0.8702983260154724
1629797651957,0.3206254541873932,0.4395520091056824,0.2178999185562133,0.8702983260154724
1629797652051,0.3206254541873932,0.4828329682350158,0.2117597460746765,0.8702983260154724
1629797652163,0.3206254541873932,0.4796564280986786,0.1153424531221389,0.8702983260154724
1629797652351,0.3206254541873932,0.4667152762413025,0.1153424531221389,0.8702983260154724
1629797652397,0.3206254541873932,0.4367180168628692,0.1153424531221389,0.8702983260154724
1629797652444,0.3206254541873932,0.4333741664886474,0.1153424531221389,0.8702983260154724
1629797652554,0.3206254541873932,0.4333741664886474,0.1153424531221389,0.8702983260154724
1629797652632,0.3206254541873932,0.4333741664886474,0.1153424531221389,0.8702983260154724
1629797652772,0.3206254541873932,0.4297454059123993,0.1468378156423568,0.8702983260154724
1629797652929,0.3206254541873932,0.4121349155902862,0.1561530977487564,0.8702983260154724
1629797652975,0.3206254541873932,0.3978806138038635,0.1543940752744674,0.8702983260154724
1629797653100,0.3206254541873932,0.3978806138038635,0.1059411019086837,0.8702983260154724
1629797653179,0.3206254541873932,0.3978806138038635,0.1133822128176689,0.8702983260154724
1629797653288,0.3206254541873932,0.3978806138038635,0.1860668361186981,0.8702983260154724
1629797653397,0.3206254541873932,0.3978806138038635,0.2768977880477905,0.8702983260154724
1629797653491,0.3206254541873932,0.3978806138038635,0.365962952375412,0.8702983260154724
1629797653616,0.3206254541873932,0.3978806138038635,0.4240451753139496,0.8702983260154724
1629797653741,0.3206254541873932,0.3978806138038635,0.4413861930370331,0.8702983260154724
1629797653913,0.3206254541873932,0.3978806138038635,0.4413861930370331,0.8702983260154724
1629797653991,0.3206254541873932,0.3978806138038635,0.4428234994411468,0.8702983260154724
1629797654022,0.3206254541873932,0.3978806138038635,0.4572391211986542,0.8702983260154724
1629797654100,0.3206254541873932,0.3978806138038635,0.4817061126232147,0.8702983260154724
1629797654146,0.3206254541873932,0.3978806138038635,0.519389808177948,0.8702983260154724
1629797654228,0.3206254541873932,0.3978806138038635,0.5605326890945435,0.8702983260154724
1629797654352,0.3206254541873932,0.3978806138038635,0.599052906036377,0.8702983260154724
1629797654462,0.3206254541873932,0.3978806138038635,0.6066851615905762,0.8702983260154724
1629797654602,0.3206254541873932,0.3978806138038635,0.6066851615905762,0.8702983260154724
1629797654712,0.3206254541873932,0.3978806138038635,0.6066851615905762,0.8702983260154724
1629797654806,0.3206254541873932,0.3978806138038635,0.6066851615905762,0.8702983260154724
1629797654837,0.3206254541873932,0.1231940314173698,0.607161819934845,0.8702983260154724
1629797654930,0.5118088722229004,0.1261851638555526,0.6018643975257874,0.8702983260154724
1629797655040,0.6168007254600525,0.1261851638555526,0.5833503007888794,0.8702983260154724
1629797655212,0.6505592465400696,0.1261851638555526,0.5470510721206665,0.8702983260154724
1629797655321,0.668894350528717,0.1261851638555526,0.504002034664154,0.8702983260154724
1629797655383,0.6789993643760681,0.1261851638555526,0.483155220746994,0.6792414784431458
1629797655477,0.6790136098861694,0.1261851638555526,0.4791283309459686,0.6857929229736328
1629797655524,0.6790136098861694,0.1261851638555526,0.4772073328495025,0.6891358494758606
1629797655680,0.6790136098861694,0.1393146514892578,0.4772073328495025,0.6891358494758606
1629797655790,0.680939257144928,0.1753385663032531,0.4727459251880646,0.6891358494758606
1629797655930,0.680939257144928,0.2489345818758011,0.4504189491271972,0.6910300254821777
1629797655979,0.680939257144928,0.2999149262905121,0.35216024518013,0.6910300254821777
1629797656057,0.680939257144928,0.31772381067276,0.258214920759201,0.6910300254821777
1629797656167,0.6788986325263977,0.31772381067276,0.3052836656570434,0.6910300254821777
1629797656245,0.6709272861480713,0.3167218565940857,0.2978799939155578,0.7223383784294128
1629797656354,0.6644944548606873,0.3183552920818329,0.2729310095310211,0.7346951961517334
1629797656479,0.6644944548606873,0.3183552920818329,0.257061243057251,0.7346951961517334
1629797656604,0.6615440249443054,0.3189584910869598,0.2473544329404831,0.7233278155326843
1629797656667,0.6162046790122986,0.3378109931945801,0.2348677664995193,0.7108885049819946
1629797656776,0.5344924330711365,0.3886313140392303,0.2236131727695465,0.7080740928649902
1629797656901,0.5551424026489258,0.4358915686607361,0.2335991859436035,0.7029736042022705
1629797657013,0.5387101173400879,0.4682056903839111,0.2439542561769485,0.6967591643333435
1629797657107,0.5159826874732971,0.4731360375881195,0.2439542561769485,0.707298994064331
1629797657185,0.4944633245468139,0.4731360375881195,0.2439542561769485,0.7343077659606934
1629797657342,0.476344496011734,0.4731360375881195,0.2439542561769485,0.7246716022491455
1629797657404,0.476344496011734,0.4731360375881195,0.2439542561769485,0.7213753461837769
1629797657467,0.476344496011734,0.4404683113098144,0.2554110884666443,0.7213753461837769
1629797657591,0.476344496011734,0.3868715167045593,0.2783013880252838,0.7213753461837769
1629797657701,0.476344496011734,0.3778444528579712,0.288980484008789,0.7213753461837769
1629797657841,0.476344496011734,0.3724271059036255,0.3605645596981048,0.7213753461837769
1629797657919,0.476344496011734,0.3997575640678406,0.4816812872886657,0.4579277634620666
1629797658060,0.476344496011734,0.3927695751190185,0.5826609134674072,0.4579277634620666
1629797658107,0.476344496011734,0.3937336802482605,0.6077804565429688,0.4579277634620666
1629797658232,0.4402707517147064,0.3956351280212402,0.6077804565429688,0.4579277634620666
1629797658294,0.4398824870586395,0.3956351280212402,0.6077804565429688,0.4579277634620666
1629797658482,0.2973937690258026,0.3956351280212402,0.6077804565429688,0.4579277634620666
1629797658544,0.3082648813724518,0.37050461769104,0.6077804565429688,0.4579277634620666
1629797658638,0.320767343044281,0.2885033786296844,0.6077804565429688,0.4579277634620666
1629797658669,0.3461298942565918,0.2266120463609695,0.6077804565429688,0.4579277634620666
1629797658857,0.3752836287021637,0.2224425375461578,0.6077804565429688,0.434849351644516
1629797658935,0.4027705192565918,0.2224425375461578,0.6077804565429688,0.4902783334255218
1629797659016,0.4792428910732269,0.2183150649070739,0.6077804565429688,0.5858845710754395
1629797659141,0.5465455651283264,0.2139405459165573,0.6077804565429688,0.6802750825881958
1629797659219,0.5614525079727173,0.2088273912668228,0.6093869805335999,0.7408512830734253
1629797659297,0.5614525079727173,0.2102156579494476,0.6105736494064331,0.7741752862930298
1629797659438,0.5614525079727173,0.127302274107933,0.6091946959495544,0.7983188033103943
1629797659532,0.5665704607963562,0.0587818697094917,0.574554443359375,0.8175486922264099
1629797659672,0.620284914970398,0.0724490135908126,0.4969768524169922,0.8309469819068909
1629797659719,0.6598812937736511,0.0800193697214126,0.4651649892330169,0.8516057729721069
1629797659797,0.6651163101196289,0.0866040661931037,0.4625224769115448,0.8746241331100464
1629797659938,0.6719096899032593,0.0929204896092414,0.4625224769115448,0.906898319721222
1629797660066,0.6714403629302979,0.0929204896092414,0.4625224769115448,0.9173100590705872
1629797660112,0.6684281229972839,0.0918930917978286,0.4625224769115448,0.9173100590705872
1629797660269,0.6646021604537964,0.0831737294793129,0.425341784954071,0.9173100590705872
1629797660316,0.65056312084198,0.0984122827649116,0.425341784954071,0.9173100590705872
1629797660394,0.6433059573173523,0.1528734415769577,0.425341784954071,0.9173100590705872
1629797660503,0.6404288411140442,0.2087599486112594,0.425341784954071,0.9173100590705872
1629797660659,0.6283613443374634,0.2388819903135299,0.425341784954071,0.9161736369132996
1629797660753,0.6000339388847351,0.2444178611040115,0.4046650826931,0.9031844735145568
1629797660847,0.5932285785675049,0.2344182878732681,0.3755368590354919,0.9015894532203674
1629797660940,0.6091755628585815,0.2147967964410781,0.3277880847454071,0.9144029021263124
1629797661003,0.621492862701416,0.2188655585050583,0.2801495194435119,0.939319908618927
1629797661112,0.6320598721504211,0.2288590222597122,0.2512982487678528,0.939319908618927
1629797661253,0.6270217299461365,0.2331837713718414,0.1913338750600814,0.9363734126091005
1629797661347,0.5966900587081909,0.2148514091968536,0.1246704906225204,0.902746856212616
1629797661456,0.5459468364715576,0.202996015548706,0.0748692378401756,0.852231502532959
1629797661550,0.4829798936843872,0.2002340853214264,0.0148883992806077,0.7975307703018188
1629797661612,0.4305197596549988,0.2003528922796249,0.0087845968082547,0.7537744641304016
1629797661737,0.436788409948349,0.2025490999221801,0.0648807808756828,0.7562483549118042
1629797661941,0.4563344717025757,0.1978096812963485,0.1306680738925933,0.7603748440742493
1629797661956,0.4864861071109772,0.1980301737785339,0.1531347185373306,0.7607290744781494
1629797662050,0.4907457828521728,0.2017982900142669,0.1531347185373306,0.7598684430122375
1629797662163,0.4919367432594299,0.1808815002441406,0.1531347185373306,0.7572292685508728
1629797662272,0.4935761094093323,0.095572717487812,0.1531347185373306,0.7583645582199097
1629797662350,0.4927489459514618,0.0528050772845745,0.1476919949054718,0.7619028687477112
1629797662491,0.485448956489563,0.0361250564455986,0.1396675556898117,0.7457258701324463
1629797662600,0.4710944592952728,0.0261182636022567,0.1313598155975341,0.7165128588676453
1629797662678,0.4578367173671722,0.0261182636022567,0.1593611389398574,0.6610922813415527
1629797662787,0.4446640908718109,0.0128422267735004,0.1782462894916534,0.6429357528686523
1629797662881,0.4231728315353393,0.0010599042288959,0.1806405484676361,0.6373255252838135
1629797662975,0.3944483995437622,-0.0075668124482035,0.1853334456682205,0.6389753222465515
1629797663116,0.3575823605060577,-0.0075668124482035,0.1886256635189056,0.6878287196159363
1629797663225,0.3054845929145813,-0.01507318764925,0.190150499343872,0.7373952269554138
1629797663256,0.3244267702102661,-0.0173200163990259,0.190150499343872,0.7435028553009033
1629797663334,0.3181484043598175,-0.0006782378186471,0.190150499343872,0.7503190636634827
1629797663444,0.3007007837295532,0.0760858356952667,0.1659079790115356,0.7919871807098389
