timestamp,TP9,AF7,AF8,TP10
1630573698989,0.4783987402915954,0.8420388698577881,0.1506741046905517,0.5133700966835022
1630573699035,0.4649894535541534,0.8420388698577881,0.1528166532516479,0.4941826164722442
1630573699157,0.4552627801895141,0.8420388698577881,0.1409696489572525,0.4743853509426117
1630573699235,0.4430115818977356,0.8420388698577881,0.1174274906516075,0.4541739821434021
1630573699296,0.4300253689289093,0.8420388698577881,0.0891432240605354,0.4382031559944153
1630573699388,0.4202463626861572,0.8420388698577881,0.0650072991847992,0.4305607080459595
1630573699547,0.4165699183940887,0.8420388698577881,0.0493049919605255,0.4325476586818695
1630573699626,0.4186525344848633,0.8420388698577881,0.0403487980365753,0.4429474472999573
1630573699736,0.4260584712028503,0.8420388698577881,0.0313798412680625,0.4565514922142029
1630573699818,0.4414730668067932,0.8420388698577881,0.0173757150769233,0.4673185348510742
1630573699898,0.4659848213195801,0.8420388698577881,0.0007069647544994,0.4740415215492248
1630573700077,0.5001680850982666,0.8420388698577881,-0.0102640772238373,0.481017529964447
1630573700208,0.5413540005683899,0.8420388698577881,-0.0121599026024341,0.4924112558364868
1630573700251,0.5830307602882385,0.8420388698577881,-0.0095398146659135,0.503576397895813
1630573700345,0.6201367974281311,0.8420388698577881,-0.0079508367925882,0.5111997127532959
1630573700407,0.6496877074241638,0.8420388698577881,-0.0055600055493414,0.5162167549133301
1630573700520,0.6719744801521301,0.8420388698577881,0.0022297501564025,0.5216166377067566
1630573700650,0.6897953748703003,0.8420388698577881,0.0171440131962299,0.5308302640914917
1630573700791,0.7077634930610657,0.8420388698577881,0.0364600829780101,0.5359492897987366
1630573700872,0.7260551452636719,0.8420388698577881,0.056880347430706,0.5417755246162415
1630573700971,0.7432610988616943,0.8420388698577881,0.0758305490016937,0.5468424558639526
1630573701067,0.7601369619369507,0.8420388698577881,0.0930719524621963,0.5520302057266235
1630573701117,0.7792251706123352,0.8420388698577881,0.1104733273386955,0.5584909319877625
1630573701268,0.7972664833068848,0.8420388698577881,0.1302616894245147,0.566836416721344
1630573701368,0.8082398772239685,0.8420388698577881,0.1522744596004486,0.576465904712677
1630573701466,0.8077308535575867,0.8420388698577881,0.1726993024349212,0.5865060687065125
1630573701514,0.7949196696281433,0.8420388698577881,0.1868106424808502,0.5928834080696106
1630573701671,0.7726812362670898,0.8420388698577881,0.193152979016304,0.5914290547370911
1630573701736,0.7456892728805542,0.8420388698577881,0.1942690014839172,0.5868260860443115
1630573701819,0.7181222438812256,0.8420388698577881,0.1943511664867401,0.5868260860443115
1630573701989,0.6918007731437683,0.8420388698577881,0.1956099271774292,0.5868260860443115
1630573702063,0.667191743850708,0.8420388698577881,0.1983669102191925,0.5868260860443115
1630573702193,0.6448400616645813,0.8420388698577881,0.2018260061740875,0.5868260860443115
1630573702270,0.6294758915901184,0.8420388698577881,0.2044299691915512,0.6979780793190002
1630573702373,0.6192799806594849,0.8420388698577881,0.2032075226306915,0.7003699541091919
1630573702420,0.6118459701538086,0.8420388698577881,0.1957758367061615,0.6969502568244934
1630573702634,0.5904996395111084,0.8420388698577881,0.1823911368846893,0.6864907741546631
1630573702682,0.5607373118400574,0.8420388698577881,0.1661622822284698,0.6693981289863586
1630573702765,0.5304265022277832,0.8420388698577881,0.1513430774211883,0.6484071612358093
1630573702919,0.5094997882843018,0.8420388698577881,0.1410569995641708,0.6260800361633301
1630573703014,0.5002114176750183,0.8420388698577881,0.1359208226203918,0.6048193573951721
1630573703044,0.4922029674053192,0.8420388698577881,0.1346155852079391,0.5893788933753967
1630573703186,0.4753266870975494,0.8420388698577881,0.134787231683731,0.5836503505706787
1630573703336,0.4499739706516266,0.8420388698577881,0.1358007788658142,0.586020827293396
1630573703368,0.4244576394557953,0.8420388698577881,0.1379201561212539,0.5902628898620605
1630573703572,0.4077335894107818,0.8420388698577881,0.1400709748268127,0.5855448842048645
1630573703593,0.4023169577121734,0.8420388698577881,0.1409514546394348,0.5761341452598572
1630573703666,0.406913697719574,0.8420388698577881,0.1401728987693786,0.5629730224609375
1630573703819,0.4086469709873199,0.8420388698577881,0.1396503150463104,0.5468330979347229
1630573703936,0.4041866958141327,0.8420388698577881,0.1423940062522888,0.5284715890884399
1630573704023,0.395283967256546,0.8420388698577881,0.149648368358612,0.5100330114364624
1630573704147,0.3882870078086853,0.8420388698577881,0.1588343232870102,0.4962225258350372
1630573704210,0.4121744334697723,0.8420388698577881,0.1654601395130157,0.4923349618911743
1630573704256,0.4468125104904175,0.8420388698577881,0.1657139658927917,0.500633955001831
1630573704436,0.4735291302204132,0.8420388698577881,0.158451035618782,0.5217475891113281
1630573704514,0.4844092428684234,0.8420388698577881,0.1470851302146911,0.5549052357673645
1630573704578,0.4855363965034485,0.8420388698577881,0.135869100689888,0.5911740660667419
1630573704770,0.4849085211753845,0.8420388698577881,0.1268905401229858,0.5911740660667419
1630573704801,0.4842068254947662,0.8420388698577881,0.1180952936410904,0.5911740660667419
1630573704904,0.4810128509998321,0.8420388698577881,0.1068790182471275,0.5911740660667419
1630573705066,0.4755892157554626,0.8420388698577881,0.0948186665773391,0.5911740660667419
1630573705146,0.4711587429046631,0.8420388698577881,0.0850261226296424,0.461489588022232
1630573705210,0.4647755622863769,0.8420388698577881,0.0785485431551933,0.4552546143531799
1630573705375,0.4732558727264404,0.8420388698577881,0.0737514868378639,0.4501965641975403
1630573705415,0.4926994144916534,0.8420388698577881,0.0677448809146881,0.4483171999454498
1630573705510,0.5170794725418091,0.8420388698577881,0.0592113249003887,0.4431611597537994
1630573705623,0.5405040979385376,0.8420388698577881,0.0493711456656456,0.4301398396492004
1630573705736,0.5567244291305542,0.8420388698577881,0.0410552248358726,0.4115251302719116
1630573705812,0.5633389353752136,0.8420388698577881,0.0398458465933799,0.4115251302719116
1630573705936,0.5663852691650391,0.8420388698577881,0.0491321571171283,0.4115251302719116
1630573706068,0.5754573941230774,0.8420388698577881,0.0634999498724937,0.4115251302719116
1630573706119,0.5947230458259583,0.8420388698577881,0.075696550309658,0.4115251302719116
1630573706262,0.6209939122200012,0.8420388698577881,0.0858516991138458,0.4115251302719116
1630573706327,0.6480359435081482,0.8420388698577881,0.1011381968855857,0.4293577969074249
1630573706438,0.6706944704055786,0.8420388698577881,0.1257570385932922,0.4244349598884582
1630573706517,0.6858019232749939,0.8420388698577881,0.1532714664936065,0.4305217862129211
1630573706630,0.6929804086685181,0.8420388698577881,0.1744943410158157,0.4257737100124359
1630573706722,0.6928211450576782,0.8420388698577881,0.1859484314918518,0.4252561926841736
1630573706847,0.6872363090515137,0.8420388698577881,0.1895480155944824,0.4254680275917053
1630573706964,0.678058385848999,0.8420388698577881,0.1899252831935882,0.4231518805027008
1630573707044,0.6659789681434631,0.8420388698577881,0.1911652982234954,0.4275153875350952
1630573707164,0.6505235433578491,0.8420388698577881,0.1951579302549362,0.427287608385086
1630573707229,0.6316671967506409,0.8420388698577881,0.2020116001367569,0.4617097079753876
1630573707314,0.6101420521736145,0.8420388698577881,0.2097679823637008,0.4518024325370788
1630573707466,0.5872242450714111,0.8420388698577881,0.216078296303749,0.4383451640605926
1630573707544,0.5621300935745239,0.8420388698577881,0.221611201763153,0.4203241467475891
1630573707647,0.5347135066986084,0.8420388698577881,0.2289364784955978,0.4029303193092346
1630573707711,0.5088170170783997,0.8420388698577881,0.23780257999897,0.3888042569160461
1630573707896,0.4895892441272735,0.8420388698577881,0.243476003408432,0.3501478731632232
1630573707944,0.4785033166408539,0.8420388698577881,0.2402818500995636,0.3399158418178558
1630573708068,0.4732150137424469,0.8420388698577881,0.2275742441415786,0.3055421710014343
1630573708165,0.4712516963481903,0.8420388698577881,0.2100857645273208,0.3058000802993774
1630573708260,0.4707828462123871,0.8420388698577881,0.1946035623550415,0.3101093471050262
1630573708369,0.4685557186603546,0.8420388698577881,0.186734065413475,0.31266850233078
1630573708448,0.4612337648868561,0.8420388698577881,0.188674971461296,0.3097734749317169
1630573708549,0.4502319395542145,0.8420388698577881,0.1976033449172973,0.3035116791725158
1630573708657,0.4404206871986389,0.8420388698577881,0.2070476114749908,0.2984524667263031
1630573708813,0.4347392320632934,0.8420388698577881,0.2110175490379333,0.2915563285350799
1630573708878,0.4317024350166321,0.8420388698577881,0.2075150609016418,0.2854418456554413
1630573708936,0.4295184016227722,0.8420388698577881,0.198945939540863,0.2826202809810638
1630573709066,0.4275860786437988,0.8420388698577881,0.1892585903406143,0.2834055125713348
1630573709144,0.4259307384490967,0.8420388698577881,0.1803122609853744,0.2857996225357055
1630573709297,0.4219309687614441,0.8420388698577881,0.1707039028406143,0.2880508303642273
1630573709408,0.4138221442699432,0.8420388698577881,0.1580002605915069,0.2904749810695648
1630573709501,0.4032738804817199,0.8420388698577881,0.1424021273851394,0.2948432266712188
1630573709589,0.3941161930561065,0.8420388698577881,0.1267953068017959,0.2998076975345611
1630573709690,0.387569785118103,0.8420388698577881,0.1144753992557525,0.3018093109130859
1630573709740,0.3836189806461334,0.8420388698577881,0.1053943857550621,0.2997627556324005
1630573709906,0.3826288878917694,0.8420388698577881,0.0958567187190055,0.2976342737674713
1630573710220,0.386563777923584,0.8420388698577881,0.0486794598400592,0.3213086426258087
1630573710259,0.3865191340446472,0.8420388698577881,0.0394410789012908,0.3312537670135498
1630573710406,0.3955287039279938,0.8420388698577881,0.0338113196194171,0.3416057229042053
1630573710501,0.4148948788642883,0.8420388698577881,0.0247267633676528,0.3543346226215362
1630573710621,0.4352537393569946,0.8420388698577881,0.0083521967753767,0.3676644265651703
1630573710724,0.4464282095432281,0.8420388698577881,-0.0122149530798196,0.3771345019340515
1630573710787,0.4479053020477295,0.8420388698577881,-0.0290498007088899,0.3795283734798431
1630573710939,0.4450560808181762,0.8420388698577881,-0.0346115864813327,0.3743822872638702
1630573711022,0.4419898688793182,0.8420388698577881,-0.0261894017457962,0.3622829020023346
1630573711135,0.4386319816112518,0.8420388698577881,-0.0080443946644663,0.3448658287525177
1630573711180,0.4348986148834228,0.8420388698577881,0.0124866459518671,0.3264521062374115
1630573711346,0.4317668974399566,0.8420388698577881,0.0333133563399314,0.3144092261791229
1630573711385,0.4297212064266205,0.8420388698577881,0.05634006857872,0.3142853081226349
1630573711535,0.4302241802215576,0.8420388698577881,0.0808842107653617,0.324366956949234
1630573711616,0.4399448931217193,0.8420388698577881,0.1016120985150337,0.3369704782962799
1630573711723,0.4631019234657287,0.8420388698577881,0.1127836406230926,0.3437815308570862
1630573711838,0.4925785064697265,0.8420388698577881,0.1151884198188781,0.340251475572586
1630573711915,0.5138902068138123,0.8420388698577881,0.1145450696349144,0.325689285993576
1630573711989,0.5204833149909973,0.8420388698577881,0.1152413561940193,0.304119199514389
1630573712086,0.517547070980072,0.8420388698577881,0.1163091138005256,0.2822006344795227
1630573712202,0.514879584312439,0.8420388698577881,0.1142450273036956,0.2654328942298889
1630573712320,0.5159856677055359,0.8420388698577881,0.1081517338752746,0.2559346258640289
1630573712432,0.5185040831565857,0.8420388698577881,0.1007090285420417,0.254413902759552
1630573712510,0.5207213759422302,0.8420388698577881,0.0950811430811882,0.2621991634368896
1630573712640,0.5233370661735535,0.8420388698577881,0.0934145897626876,0.2806571125984192
1630573712736,0.5257861018180847,0.8420388698577881,0.0959923863410949,0.3062794208526611
1630573712798,0.5257710814476013,0.8420388698577881,0.0996242985129356,0.329397588968277
1630573712970,0.5366756319999695,0.8420388698577881,0.0995218306779861,0.3400516808032989
1630573713062,0.543594241142273,0.8420388698577881,0.0937236621975898,0.3346500992774963
1630573713138,0.5299513936042786,0.8420388698577881,0.0837986394762992,0.3173981606960296
1630573713258,0.5084484219551086,0.8420388698577881,0.0736409872770309,0.2979951500892639
1630573713300,0.4803714752197265,0.8420388698577881,0.0649154037237167,0.2844414412975311
1630573713433,0.4538039267063141,0.8420388698577881,0.0584317035973072,0.2795489132404327
1630573713529,0.4365655183792114,0.8420388698577881,0.0545223392546176,0.2801778316497803
1630573713650,0.4278533458709717,0.8420388698577881,0.0541903898119926,0.2816764712333679
1630573713743,0.4194598495960235,0.8420388698577881,0.0586070716381073,0.2830514907836914
1630573713916,0.4062361419200897,0.8420388698577881,0.067518338561058,0.2864135205745697
1630573713932,0.3893612623214721,0.8420388698577881,0.0777399614453315,0.2931386828422546
1630573714027,0.3727967143058777,0.8420388698577881,0.0845866501331329,0.3000516295433044
1630573714165,0.3632534146308899,0.8420388698577881,0.0846039652824401,0.3015068769454956
1630573714286,0.3732841312885284,0.8420388698577881,0.0801764801144599,0.2973924577236175
1630573714383,0.4099639654159546,0.8420388698577881,0.0794260799884796,0.2941628098487854
1630573714471,0.4483220875263214,0.8420388698577881,0.0883413255214691,0.298379510641098
1630573714550,0.4784236848354339,0.8420388698577881,0.103016547858715,0.3102147281169891
1630573714651,0.4993428587913513,0.8420388698577881,0.1150960549712181,0.3243915140628814
1630573714766,0.5022788047790527,0.8420388698577881,0.1196549758315086,0.3363454639911651
1630573714867,0.4954571723937988,0.8420388698577881,0.1194115057587623,0.3445760011672973
1630573714964,0.485372394323349,0.8420388698577881,0.1196476966142654,0.3483904600143432
1630573715015,0.4742099642753601,0.8420388698577881,0.1253661960363388,0.3480581641197204
1630573715137,0.4655998051166534,0.8420388698577881,0.1386603266000747,0.3459216654300689
1630573715225,0.4661449790000915,0.8420388698577881,0.1560848504304886,0.3438408970832824
1630573715424,0.4785376787185669,0.8420388698577881,0.1717759370803833,0.3420095443725586
1630573715500,0.4987345933914184,0.8420388698577881,0.1824271231889724,0.3394036889076233
1630573715587,0.5207855701446533,0.8420388698577881,0.1886047720909118,0.3375203609466553
1630573715668,0.5401759743690491,0.8420388698577881,0.1919090896844864,0.3394807279109955
1630573715766,0.5515971779823303,0.8420388698577881,0.1902935355901718,0.3444080352783203
1630573715845,0.5502727627754211,0.8420388698577881,0.1784510165452957,0.3473488390445709
1630573715987,0.5371510982513428,0.8420388698577881,0.1540618389844894,0.3448282480239868
1630573716179,0.5212073922157288,0.8420388698577881,0.1216110289096832,0.3372235000133514
1630573716224,0.511981189250946,0.8420388698577881,0.0908471420407295,0.327384203672409
1630573716287,0.5121528506278992,0.8420388698577881,0.0697155892848968,0.3167592883110046
1630573716353,0.5181023478507996,0.8420388698577881,0.0568748675286769,0.307311862707138
1630573716486,0.526275634765625,0.8420388698577881,0.046346116811037,0.302554577589035
1630573716669,0.5344997644424438,0.8420388698577881,0.0334108062088489,0.3039841949939728
1630573716748,0.5397635102272034,0.8420388698577881,0.0171493738889694,0.3084864020347595
1630573716806,0.5387818813323975,0.8420388698577881,0.002341277198866,0.3140864670276642
1630573716933,0.5310750007629395,0.8420388698577881,-0.0056650312617421,0.3268299698829651
1630573716979,0.5195102095603943,0.8420388698577881,-0.0081250546500086,0.3544631600379944
1630573717188,0.5075787901878357,0.8420388698577881,-0.0107969092205166,0.3931410610675812
1630573717319,0.4961392879486084,0.8420388698577881,-0.015482485294342,0.4296229779720306
1630573717353,0.483378529548645,0.8420388698577881,-0.0165656302124261,0.4528455734252929
1630573717383,0.4691914319992065,0.8420388698577881,-0.0066848704591393,0.4620672166347503
1630573717480,0.4590173661708832,0.8420388698577881,0.0141631094738841,0.4637660980224609
1630573717604,0.4593115150928497,0.8420388698577881,0.0409148819744586,0.4649533033370971
1630573717706,0.4702185690402984,0.8420388698577881,0.0680664181709289,0.4695577919483185
1630573717811,0.4834936559200287,0.8420388698577881,0.0919772908091545,0.4779658019542694
1630573717935,0.4900408387184143,0.8420388698577881,0.1120102703571319,0.4889012277126312
1630573718021,0.4867030680179596,0.8420388698577881,0.128699243068695,0.4995566010475158
1630573718120,0.4775621294975281,0.8420388698577881,0.1418040096759796,0.5067284107208252
1630573718236,0.4689771234989166,0.8420388698577881,0.1488934904336929,0.5090378522872925
1630573718267,0.46476811170578,0.8420388698577881,0.1476558744907379,0.5072147250175476
1630573718450,0.4655018746852875,0.8420388698577881,0.1382855176925659,0.5009306073188782
1630573718558,0.4697624146938324,0.8420388698577881,0.1250530779361724,0.4875679314136505
1630573718602,0.4754247665405273,0.8420388698577881,0.1142816320061683,0.4655746221542358
1630573718704,0.4796948432922363,0.8420388698577881,0.1108415573835372,0.4389180839061737
1630573718804,0.4797549843788147,0.8420388698577881,0.1158856973052024,0.4171189367771148
1630573718913,0.4736542701721191,0.8420388698577881,0.1265221685171127,0.4065935909748077
1630573719019,0.4607838690280914,0.8420388698577881,0.1373040825128555,0.4060883224010467
1630573719102,0.4416403770446777,0.8420388698577881,0.1431515663862228,0.409180074930191
1630573719212,0.4201339781284332,0.8420388698577881,0.1424250900745391,0.4108142852783203
1630573719301,0.4049046039581299,0.8420388698577881,0.1381013691425323,0.4103977680206299
1630573719410,0.4047491252422333,0.8420388698577881,0.1344841420650482,0.4099935889244079
1630573719493,0.4194327592849731,0.8420388698577881,0.1328258961439132,0.4118097126483917
1630573719633,0.4376612603664398,0.8420388698577881,0.1321417242288589,0.4173776805400848
1630573719753,0.4474121630191803,0.8420388698577881,0.1353150606155395,0.4263643026351928
1630573719830,0.4455420672893524,0.8420388698577881,0.1463979035615921,0.4366101622581482
1630573719909,0.4399859011173248,0.8420388698577881,0.1644584983587265,0.443930834531784
1630573720033,0.4412640929222107,0.8420388698577881,0.1824918836355209,0.4439848363399505
1630573720113,0.4543904364109039,0.8420388698577881,0.1938562393188476,0.4365932941436767
1630573720239,0.4762499630451202,0.8420388698577881,0.1980031728744506,0.4252822697162628
1630573720338,0.5010548830032349,0.8420388698577881,0.1981337964534759,0.4137741327285766
1630573720420,0.5242311358451843,0.8420388698577881,0.1956646144390106,0.4038086235523224
1630573720562,0.5417600870132446,0.8420388698577881,0.1903159618377685,0.3954141438007355
1630573720594,0.5503909587860107,0.8420388698577881,0.1837989091873169,0.3899774551391601
1630573720689,0.5485572218894958,0.8420388698577881,0.1792507171630859,0.3893741071224212
1630573720852,0.5376404523849487,0.8420388698577881,0.1772537678480148,0.394206166267395
1630573720950,0.5218718647956848,0.8420388698577881,0.1743155866861343,0.4010254442691803
1630573721028,0.5083701014518738,0.8420388698577881,0.1671302765607834,0.4058729112148285
1630573721136,0.5051229596138,0.8420388698577881,0.1560238003730774,0.4079622030258178
1630573721229,0.5140260457992554,0.8420388698577881,0.1413023769855499,0.411795049905777
1630573721342,0.5273020267486572,0.8420388698577881,0.1212024316191673,0.4205902218818664
1630573721452,0.5324708819389343,0.8420388698577881,0.0964664816856384,0.4314634799957275
1630573721531,0.5222774744033813,0.8420388698577881,0.075498566031456,0.4379872977733612
1630573721633,0.497627854347229,0.8420388698577881,0.0707769766449928,0.4375887215137481
1630573721737,0.4655268788337707,0.8420388698577881,0.0857089534401893,0.4313162267208099
1630573721821,0.4339430928230285,0.8420388698577881,0.1102294027805328,0.4221238791942596
1630573721937,0.4086698889732361,0.8420388698577881,0.1322749108076095,0.4122413396835327
1630573722074,0.391833484172821,0.8420388698577881,0.1491986066102981,0.4033463299274444
1630573722153,0.3834594488143921,0.8420388698577881,0.1643304228782653,0.3959778249263763
1630573722269,0.384200781583786,0.8420388698577881,0.1803714483976364,0.3882011771202087
1630573722350,0.3932286500930786,0.8420388698577881,0.1976530849933624,0.376454621553421
1630573722435,0.4060510694980621,0.8420388698577881,0.2159742414951324,0.3586525917053222
1630573722538,0.4169529974460602,0.8420388698577881,0.2351780086755752,0.3356855511665344
1630573722709,0.4233412742614746,0.8420388698577881,0.2529956996440887,0.3103196918964386
1630573722788,0.4291808307170868,0.8420388698577881,0.2656735479831695,0.2845792174339294
1630573722865,0.4397568702697754,0.8420388698577881,0.2716509401798248,0.2605425715446472
1630573722986,0.4556666612625122,0.8420388698577881,0.2729004621505737,0.2412528097629547
1630573723048,0.4731107354164123,0.8420388698577881,0.2723487317562103,0.2314748018980026
1630573723134,0.4896458387374878,0.8420388698577881,0.2704001069068908,0.232951357960701
1630573723299,0.5068919062614441,0.8420388698577881,0.2648946344852447,0.2514741122722626
1630573723398,0.5286064743995667,0.8420388698577881,0.2536733448505401,0.2929410338401794
1630573723487,0.5541942715644836,0.8420388698577881,0.2386570423841476,0.3502583801746368
1630573723553,0.5784185528755188,0.8420388698577881,0.223493218421936,0.4047122001647949
1630573723638,0.5959465503692627,0.8420388698577881,0.2099180668592453,0.4430289268493652
1630573723768,0.6047126650810242,0.8420388698577881,0.1976719051599502,0.4640675485134125
1630573723887,0.605417788028717,0.8420388698577881,0.1864038109779358,0.474250465631485
1630573724055,0.6006708145141602,0.8420388698577881,0.1763591021299362,0.4795854091644287
1630573724079,0.5915488600730896,0.8420388698577881,0.1671312302350998,0.4820517897605896
1630573724179,0.577800989151001,0.8420388698577881,0.1585110127925872,0.4820214211940765
1630573724271,0.5597309470176697,0.8420388698577881,0.152071863412857,0.4784541130065918
1630573724409,0.5402883291244507,0.8420388698577881,0.1509327888488769,0.4707914590835571
1630573724520,0.5238657593727112,0.8420388698577881,0.1556867957115173,0.4616218209266662
1630573724605,0.5131015181541443,0.8420388698577881,0.1618668287992477,0.4550611972808838
1630573724703,0.5060916543006897,0.8420388698577881,0.1626729071140289,0.4516162872314453
1630573724815,0.4974750578403473,0.8420388698577881,0.1543115526437759,0.4436262249946594
1630573724892,0.4810993671417236,0.8420388698577881,0.1395623832941055,0.4195054769515991
1630573724970,0.4557221531867981,0.8420388698577881,0.1239950358867645,0.3744212090969085
1630573725120,0.4288635551929474,0.8420388698577881,0.110420249402523,0.3150246441364288
1630573725235,0.4147402942180633,0.8420388698577881,0.0975608602166175,0.2555532157421112
1630573725296,0.4220055043697357,0.8420388698577881,0.0839467719197273,0.20972341299057
1630573725418,0.4440395534038543,0.8420388698577881,0.0711232274770736,0.185127317905426
1630573725504,0.4667820334434509,0.8420388698577881,0.0614937469363212,0.1838628947734832
1630573725568,0.4835445582866668,0.8420388698577881,0.0551731847226619,0.2033767849206924
1630573725733,0.4965095818042755,0.8420388698577881,0.0507843568921089,0.2337653636932373
1630573725819,0.5109918713569641,0.8420388698577881,0.04795927926898,0.2644774913787842
1630573725901,0.5279494524002075,0.8420388698577881,0.0449834465980529,0.287975937128067
1630573725985,0.5429727435112,0.8420388698577881,0.0387705899775028,0.3001543879508972
1630573726105,0.5512934327125549,0.8420388698577881,0.0283513963222503,0.3025472462177276
1630573726222,0.5516192317008972,0.8420388698577881,0.0182792712002992,0.3018409311771393
1630573726372,0.5474162101745605,0.8420388698577881,0.0138005446642637,0.3044966757297516
1630573726416,0.5448997020721436,0.8420388698577881,0.0146655598655343,0.3120299279689789
1630573726511,0.5476590991020203,0.8420388698577881,0.0189036168158054,0.3232843279838562
1630573726594,0.5533340573310852,0.8420388698577881,0.0285813603550195,0.338259607553482
1630573726683,0.5547117590904236,0.8420388698577881,0.0479473248124122,0.3563911318778991
1630573726829,0.545875608921051,0.8420388698577881,0.0747768655419349,0.373034656047821
1630573726960,0.5283450484275818,0.8420388698577881,0.0990333557128906,0.3812778294086456
1630573727074,0.5095675587654114,0.8420388698577881,0.113584004342556,0.3774569630622864
1630573727151,0.4968105852603912,0.8420388698577881,0.1200224757194519,0.3627397119998932
1630573727237,0.4920419752597809,0.8420388698577881,0.1241870522499084,0.3417143225669861
1630573727319,0.4918137490749359,0.8420388698577881,0.1294823437929153,0.3203753232955932
1630573727457,0.4929877817630768,0.8420388698577881,0.1353027671575546,0.3053732812404632
1630573727554,0.4956289529800415,0.8420388698577881,0.1407469063997268,0.3013738691806793
1630573727669,0.5013675689697266,0.8420388698577881,0.148539200425148,0.3064527511596679
1630573727748,0.5107496380805969,0.8420388698577881,0.1632198244333267,0.3134789764881134
1630573727852,0.5203505158424377,0.8420388698577881,0.185525506734848,0.3158940076828003
1630573727915,0.5238728523254395,0.8420388698577881,0.210385575890541,0.3120014071464538
1630573728038,0.5179170966148376,0.8420388698577881,0.2280070036649704,0.3025713562965393
1630573728154,0.5053802132606506,0.8420388698577881,0.2310423702001571,0.2888963520526886
1630573728239,0.4948237538337707,0.8420388698577881,0.2190327644348144,0.2743793129920959
1630573728386,0.4935544729232788,0.8420388698577881,0.1984182000160217,0.2654242515563965
1630573728458,0.5015307664871216,0.8420388698577881,0.1779908835887909,0.2656677365303039
1630573728537,0.512860119342804,0.8420388698577881,0.1623693704605102,0.2743667066097259
1630573728652,0.5204297304153442,0.8420388698577881,0.1496140956878662,0.2892390191555023
1630573728790,0.5188426971435547,0.8420388698577881,0.136186346411705,0.3091389834880829
1630573728853,0.5049964785575867,0.8420388698577881,0.1222198382019996,0.3308854699134826
1630573728932,0.479268342256546,0.8420388698577881,0.1136312559247016,0.3480940759181976
1630573729047,0.4465069770812988,0.8420388698577881,0.1156436949968338,0.3556090593338012
1630573729213,0.4152193963527679,0.8420388698577881,0.1252669841051101,0.3545764088630676
1630573729244,0.3922543525695801,0.8420388698577881,0.1338186115026474,0.3503628671169281
1630573729357,0.3812067210674286,0.8420388698577881,0.1369708031415939,0.3475028872489929
1630573729487,0.3821906149387359,0.8420388698577881,0.1381348818540573,0.3470892012119293
1630573729568,0.3908022940158844,0.8420388698577881,0.1443984359502792,0.348367840051651
1630573729707,0.3998523950576782,0.8420388698577881,0.1605497598648071,0.3512931168079376
1630573729765,0.4021441340446472,0.8420388698577881,0.1854864954948425,0.3561601042747497
1630573729881,0.3944525122642517,0.8420388698577881,0.214355394244194,0.3639270663261413
1630573729991,0.3793290257453918,0.8420388698577881,0.2413399368524551,0.3768704235553741
1630573730070,0.3638131618499756,0.8420388698577881,0.2621616125106811,0.3957591652870178
1630573730195,0.3562651872634887,0.8420388698577881,0.2764288187026977,0.4184166193008423
1630573730302,0.359094887971878,0.8420388698577881,0.2862283885478973,0.4400812685489654
1630573730387,0.3674390017986297,0.8420388698577881,0.2929252684116363,0.457458347082138
1630573730468,0.3754226863384247,0.8420388698577881,0.2945731282234192,0.4701574742794037
1630573730597,0.3805444240570068,0.8420388698577881,0.2884518802165985,0.4787643551826477
1630573730692,0.3829124867916107,0.8420388698577881,0.2745279669761657,0.4835765957832336
1630573730775,0.382652997970581,0.8420388698577881,0.2558737993240356,0.4850624501705169
1630573730870,0.3775484561920166,0.8420388698577881,0.2358882129192352,0.4843285977840423
1630573730959,0.365077406167984,0.8420388698577881,0.216314822435379,0.4831031858921051
1630573731083,0.3463991284370422,0.8420388698577881,0.1976170092821121,0.4838676750659942
1630573731240,0.3280264139175415,0.8420388698577881,0.1777067929506302,0.4875557422637939
1630573731286,0.3188952505588531,0.8420388698577881,0.1547134518623352,0.4917246103286743
1630573731386,0.3239159882068634,0.8420388698577881,0.1310349702835083,0.4912386536598205
1630573731471,0.3394757211208343,0.8420388698577881,0.1136116385459899,0.4822054803371429
1630573731570,0.3556458055973053,0.8420388698577881,0.1078898757696151,0.4656124711036682
1630573731669,0.3631955981254577,0.8420388698577881,0.1109535619616508,0.4472349882125854
1630573731826,0.3621039092540741,0.8420388698577881,0.1159918457269668,0.4335958063602447
1630573731906,0.3599763512611389,0.8420388698577881,0.1202718541026115,0.4277759194374084
1630573731988,0.3642720878124237,0.8420388698577881,0.125676691532135,0.4281956851482391
1630573732105,0.3759866952896118,0.8420388698577881,0.1330963671207428,0.4321412146091461
1630573732196,0.3913297951221466,0.8420388698577881,0.1412747800350189,0.4375011920928955
1630573732272,0.408274233341217,0.8420388698577881,0.1473584324121475,0.4436521232128143
1630573732448,0.4256431758403778,0.8420388698577881,0.1499176770448684,0.451406329870224
1630573732527,0.4419363141059875,0.8420388698577881,0.1504285186529159,0.4615610241889953
1630573732608,0.454633891582489,0.8420388698577881,0.1522826999425888,0.4720779657363891
1630573732696,0.4612175226211548,0.8420388698577881,0.157606229186058,0.4785325825214386
1630573732823,0.46011483669281,0.8420388698577881,0.163257285952568,0.4790311753749847
1630573732921,0.4532101452350616,0.8420388698577881,0.1615148931741714,0.4761892855167389
1630573733056,0.4450079500675201,0.8420388698577881,0.1461261361837387,0.4742085933685303
1630573733138,0.4426442086696625,0.8420388698577881,0.1174982860684394,0.4734231829643249
1630573733234,0.4505142271518707,0.8420388698577881,0.0829807147383689,0.4689059853553772
1630573733347,0.4656561315059662,0.8420388698577881,0.0513084903359413,0.4567136466503143
1630573733417,0.4809986352920532,0.8420388698577881,0.0254532843828201,0.4385767579078674
1630573733537,0.4920218288898468,0.8420388698577881,0.0022677048109471,0.4215445816516876
1630573733644,0.4983189404010772,0.8420388698577881,-0.0212136041373014,0.4121310412883758
1630573733753,0.500242292881012,0.8420388698577881,-0.0453747883439064,0.4107522964477539
1630573733835,0.4981641769409179,0.8420388698577881,-0.0670501664280891,0.4125299453735351
1630573733956,0.4973047077655792,0.8420388698577881,-0.0822866037487983,0.4136578738689422
1630573734032,0.5057170987129211,0.8420388698577881,-0.0876533910632133,0.4126439988613128
1630573734128,0.5244858264923096,0.8420388698577881,-0.0828416794538497,0.4092971682548523
1630573734285,0.5449827313423157,0.8420388698577881,-0.0729987993836402,0.4049668610095978
1630573734347,0.5597125887870789,0.8420388698577881,-0.0647956207394599,0.4019064605236053
1630573734445,0.5663853287696838,0.8420388698577881,-0.0614566579461097,0.4012414515018463
1630573734569,0.5672114491462708,0.8420388698577881,-0.0599114224314689,0.4029848277568817
1630573734652,0.5629565715789795,0.8420388698577881,-0.054911907762289,0.4062161445617676
1630573734737,0.5536182522773743,0.8420388698577881,-0.0440803691744804,0.4108286798000335
1630573734853,0.5408617854118347,0.8420388698577881,-0.0270000416785478,0.4165302813053131
1630573734945,0.5285189747810364,0.8420388698577881,-0.0024586673825979,0.4209553301334381
1630573735050,0.5191422700881958,0.8420388698577881,0.0284903645515441,0.4205280840396881
1630573735142,0.513383686542511,0.8420388698577881,0.0598742812871933,0.4132987558841705
1630573735230,0.5115846395492554,0.8420388698577881,0.0848031640052795,0.4019930064678192
1630573735373,0.5149837136268616,0.8420388698577881,0.0991895347833633,0.391613632440567
1630573735483,0.5217396020889282,0.8420388698577881,0.1035318970680236,0.3838070929050445
1630573735588,0.5245910882949829,0.8420388698577881,0.1000685170292854,0.3764065504074096
1630573735650,0.5181982517242432,0.8420388698577881,0.0904323831200599,0.3674601316452026
1630573735753,0.5039356350898743,0.8420388698577881,0.078092910349369,0.3574255704879761
1630573735856,0.4871715903282165,0.8420388698577881,0.0688687860965728,0.3464249670505523
1630573735948,0.4717519283294678,0.8420388698577881,0.0679323896765708,0.3331241905689239
1630573736051,0.456929475069046,0.8420388698577881,0.0757983922958374,0.3155794739723205
1630573736188,0.4411187469959259,1.756358981132507,0.0881926417350769,0.2943485379219055
1630573736303,0.4266654253005981,1.75529146194458,0.1006650850176811,0.2713587880134582
1630573736382,0.4192704558372497,1.75529146194458,0.1095973327755928,0.2484942972660064
1630573736488,0.4226037561893463,1.75529146194458,0.1119190752506256,0.228100836277008
1630573736548,0.4344665110111236,1.75529146194458,0.1075203642249107,0.2125482112169265
1630573736737,0.4478839933872223,1.75529146194458,0.1017571240663528,0.2032206505537033
1630573736801,0.4567407071590423,1.75529146194458,0.1022111997008323,0.1979310512542724
1630573736905,0.4564703106880188,1.75529146194458,0.111810453236103,0.1930714249610901
1630573736984,0.4443025887012481,1.75529146194458,0.125209778547287,0.1871465742588043
1630573737063,0.4236193299293518,1.75529146194458,0.1350008994340896,0.1809451580047607
1630573737188,0.4039780795574188,1.75529146194458,0.139116957783699,0.1762729883193969
1630573737297,0.3967903256416321,1.75529146194458,0.1403024941682815,0.1750940829515457
1630573737379,0.4054658114910126,1.7580081224441528,0.1423161625862121,0.1799782514572143
1630573737497,0.4238626956939697,1.7580081224441528,0.1469717174768448,0.1930426806211471
1630573737632,0.4434503316879272,1.7580081224441528,0.1531122773885727,0.2130846083164215
1630573737693,0.4583908021450043,1.7580081224441528,0.1577395051717758,0.2355174273252487
1630573737788,0.464996337890625,1.7580081224441528,0.1578987687826156,0.2552928626537323
1630573737894,0.4623478353023529,1.7580081224441528,0.1536462604999542,0.268838882446289
1630573737988,0.4549397826194763,1.7580081224441528,0.1481347829103469,0.2742691934108734
1630573738086,0.4505036473274231,1.7580081224441528,0.1447261869907379,0.2736433744430542
1630573738204,0.452389657497406,1.7580081224441528,0.1441283226013183,0.271476536989212
1630573738339,0.4556637406349182,1.7580081224441528,0.1433257758617401,0.2713127732276916
1630573738371,0.4529274106025696,1.7580081224441528,0.1396297961473465,0.2741167247295379
1630573738536,0.4419751167297363,1.7580081224441528,0.1348262727260589,0.2794426381587982
1630573738604,0.4264674484729767,1.7580081224441528,0.1349683701992035,0.2871931493282318
1630573738703,0.4110383987426758,1.7580081224441528,0.1443486660718917,0.2965690791606903
1630573738814,0.3969840407371521,1.7580081224441528,0.1590618640184402,0.30485400557518
1630573738900,0.3820097148418426,1.7580081224441528,0.1691485345363617,0.3087595403194427
1630573738997,0.3648997247219085,1.7580081224441528,0.1670796871185302,0.3063325881958008
1630573739125,0.3492586612701416,1.7580081224441528,0.1546152085065841,0.2982487380504608
1630573739216,0.3416966795921325,1.7580081224441528,0.1409496814012527,0.2875763773918152
1630573739339,0.3442831039428711,1.7580081224441528,0.134975329041481,0.2798253893852234
1630573739416,0.3500318527221679,1.7580081224441528,0.1369572132825851,0.2798576056957245
1630573739482,0.3488175570964813,1.7580081224441528,0.1395408809185028,0.2884326875209808
1630573739592,0.3361318111419678,1.7580081224441528,0.1356271654367447,0.3013913035392761
1630573739764,0.3178023397922516,1.7580081224441528,0.123640701174736,0.3130283057689667
1630573739816,0.3054495453834533,1.7580081224441528,0.1088175475597381,0.3192732632160187
1630573739903,0.3082627952098846,1.7580081224441528,0.0984376445412635,0.3192612528800964
1630573740015,0.3258849680423736,1.7580081224441528,0.0948259308934211,0.3158142864704132
1630573740104,0.3512119650840759,1.7580081224441528,0.0915730372071266,0.3125461637973785
1630573740198,0.3780787885189056,1.7580081224441528,0.0809302628040313,0.3112434446811676
1630573740347,0.4026128649711609,1.7580081224441528,0.062875285744667,0.3114586770534515
1630573740482,0.4230987727642059,1.7580081224441528,0.0456089228391647,0.3136601746082306
1630573740555,0.4385252296924591,1.7580081224441528,0.0367400608956813,0.3211046457290649
1630573740621,0.4478657841682434,1.7580081224441528,0.0348582938313484,0.3374243378639221
1630573740709,0.4526355564594269,1.7580081224441528,0.033669613301754,0.3627700507640838
1630573740797,0.4576425850391388,1.7580081224441528,0.0294260196387767,0.390445739030838
1630573740929,0.4677049815654754,1.7580081224441528,0.0226947050541639,0.4103941321372986
1630573741066,0.4814853966236114,1.7580081224441528,0.0153176970779895,0.4165607392787933
1630573741156,0.4919339120388031,1.7580081224441528,0.0101272743195295,0.4096948802471161
1630573741220,0.4933577179908752,1.7580081224441528,0.0096918093040585,0.3963839709758758
1630573741313,0.4857098758220672,1.7580081224441528,0.0149719305336475,0.3845227062702179
1630573741426,0.4734867513179779,1.7580081224441528,0.0237065982073545,0.3785207271575928
1630573741587,0.461805522441864,1.7580081224441528,0.0352472178637981,0.3769623935222626
1630573741655,0.453391432762146,1.7580081224441528,0.0520312935113906,0.3756368160247803
1630573741751,0.4483213126659393,1.7580081224441528,0.0755547657608985,0.3715453147888183
1630573741855,0.4447755217552185,1.7580081224441528,0.1033927053213119,0.3657156527042389
1630573741966,0.4402936697006225,1.7580081224441528,0.1304606944322586,0.3593609035015106
1630573742048,0.4328666031360626,1.7580081224441528,0.1538175344467163,0.3496507704257965
1630573742162,0.4229578375816345,1.7580081224441528,0.1734072118997573,0.3300141096115112
1630573742250,0.4133185446262359,1.7580081224441528,0.1909596472978592,0.2944787442684173
1630573742365,0.4073044955730438,1.7580081224441528,0.2080165147781372,0.2444078028202057
1630573742460,0.4053058326244354,1.7580081224441528,0.2244033813476562,0.1932182013988495
1630573742564,0.4048316180706024,1.7580081224441528,0.2383820116519928,0.1600805670022964
1630573742659,0.4050101041793823,1.7580081224441528,0.2480564713478088,0.1547044962644577
1630573742768,0.407906174659729,1.7580081224441528,0.2533785998821258,0.1693509519100189
1630573742861,0.4155721366405487,1.7580081224441528,0.2549430131912231,0.1911449581384658
1630573742970,0.4255899488925934,1.7580081224441528,0.2526416480541229,0.2119581699371338
1630573743101,0.4330584108829498,1.7580081224441528,0.2438025772571563,0.2276515364646911
1630573743170,0.4349264800548553,1.7580081224441528,0.2260347306728363,0.2371190935373306
1630573743233,0.4323710203170776,1.7580081224441528,0.1994957476854324,0.2422044277191162
1630573743391,0.4291516244411468,1.7580081224441528,0.1676593124866485,0.2461581975221634
1630573743490,0.428678035736084,1.6805678606033323,0.1359653323888778,0.2538048923015594
1630573743571,0.434055894613266,1.6821659803390503,0.1083469167351722,0.2689733207225799
1630573743667,0.4456047713756561,1.6821659803390503,0.0857492387294769,0.2909953594207763
1630573743759,0.4579000174999237,1.6821659803390503,0.0648062974214553,0.3140188753604889
1630573743872,0.4617820978164673,1.6821659803390503,0.0410193912684917,0.3312811851501465
1630573743999,0.4528821110725403,1.6821659803390503,0.0132438847795128,0.3395809531211853
1630573744091,0.4367299079895019,1.6821659803390503,-0.0139880748465657,0.3404433131217956
1630573744202,0.4239370226860046,1.6821659803390503,-0.0339516326785087,0.3372983038425445
1630573744291,0.4202442169189453,1.6821659803390503,-0.0440048687160015,0.3330309689044952
1630573744362,0.423242449760437,1.6821659803390503,-0.0474415048956871,0.3278760910034179
1630573744464,0.428488165140152,1.6821659803390503,-0.0475159771740436,0.3205909729003906
1630573744597,0.4350424110889435,1.6821659803390503,-0.0411777682602405,0.3113677501678467
1630573744687,0.4435053467750549,1.6882555484771729,-0.0246028881520032,0.3021272122859955
1630573744804,0.450801283121109,1.6882555484771729,-0.0008928467868827,0.296392947435379
1630573744888,0.4530051648616791,1.6882555484771729,0.0202059317380189,0.2968751490116119
1630573744986,0.4485046863555908,1.6882555484771729,0.0317034125328063,0.3021923303604126
1630573745070,0.4388840496540069,1.6882555484771729,0.0339793488383293,0.3072235584259033
1630573745237,0.4275949001312256,1.6882555484771729,0.0328831151127815,0.3089590668678283
1630573745336,0.4184122383594513,1.6882555484771729,0.0367269404232502,0.3102312386035919
1630573745399,0.4144661426544189,1.6882555484771729,0.0513341836631298,0.3154242634773254
1630573745516,0.4164946675300598,1.6882555484771729,0.0758945420384407,0.3244305849075317
1630573745644,0.4197124242782593,1.6882555484771729,0.1031574606895446,0.3342848420143127
1630573745740,0.4167807102203369,1.6882555484771729,0.1260222494602203,0.344113826751709
1630573745917,0.3814958035945892,1.6882555484771729,0.1557773202657699,0.3663961887359619
1630573746015,0.3541666269302368,1.6882555484771729,0.1678829342126846,0.385574996471405
1630573746105,0.3265387713909149,1.6882555484771729,0.1768346130847931,0.4160571098327636
1630573746195,0.3040657639503479,1.6882555484771729,0.1801567077636718,0.4532527327537536
1630573746275,0.2929447591304779,1.6882555484771729,0.1808194071054458,0.4834466278553009
1630573746436,0.2945859134197235,1.6882555484771729,0.1869577765464782,0.49657142162323
1630573746539,0.3037871122360229,1.6882555484771729,0.2038448750972747,0.4941606223583221
1630573746618,0.3118115663528442,1.6882555484771729,0.2278273105621338,0.4880474805831909
1630573746720,0.3126991093158722,1.6882555484771729,0.2494130581617355,0.4898890852928161
1630573746841,0.3067741692066192,1.6882555484771729,0.2606101334095001,0.5011398196220398
1630573746916,0.2990253567695617,1.6882555484771729,0.259102463722229,0.5150442123413086
1630573747077,0.2946919500827789,1.6882555484771729,0.2482227236032486,0.5245944857597351
1630573747173,0.2966957688331604,1.6882555484771729,0.2344472706317901,0.5265780687332153
1630573747273,0.3058914840221405,1.6882555484771729,0.222697764635086,0.5214961767196655
1630573747334,0.320608377456665,1.6882555484771729,0.2128385603427887,0.5133090615272522
1630573747437,0.3363704681396484,1.6882555484771729,0.2012832462787628,0.5063326954841614
1630573747542,0.3486533164978027,1.6882555484771729,0.1857843995094299,0.4983346462249756
1630573747688,0.3536922931671142,1.6882555484771729,0.1675276458263397,0.4819920063018799
1630573747734,0.3499973118305206,1.6882555484771729,0.1490404158830642,0.4543827772140503
1630573747826,0.3375468552112579,1.6882555484771729,0.1299928724765777,0.4254688322544098
1630573747938,0.3201969861984253,1.6882555484771729,0.1062938347458839,0.4107597470283508
1630573748054,0.3055706620216369,1.6882555484771729,0.0736551508307457,0.4137070775032043
1630573748155,0.3007281720638275,1.6882555484771729,0.0334435738623142,0.4227279126644134
1630573748287,0.3063717186450958,1.6882555484771729,-0.0056888670660555,0.4275831878185272
1630573748366,0.3184244036674499,1.6882555484771729,-0.0335060022771358,0.4278804957866668
1630573748452,0.3341361582279205,1.6882555484771729,-0.0458920523524284,0.4283019304275512
1630573748589,0.3554422557353973,1.6882555484771729,-0.0473042987287044,0.4325752854347229
1630573748644,0.3843048214912414,1.6882555484771729,-0.0450538583099842,0.4412144422531128
1630573748768,0.4168568849563598,1.6882555484771729,-0.044444017112255,0.4516646564006805
1630573748885,0.4452217817306518,1.6882555484771729,-0.0468719005584716,0.4584117233753204
1630573748981,0.4668496549129486,1.6882555484771729,-0.0496520400047302,0.4568554162979126
1630573749089,0.4856356382369995,1.6882555484771729,-0.0483845882117748,0.4490980207920074
1630573749171,0.5050767660140991,1.6882555484771729,-0.0413589663803577,0.4426661431789398
1630573749289,0.5224045515060425,1.6882555484771729,-0.0301134102046489,0.4419902563095093
1630573749334,0.5327422618865967,1.6882555484771729,-0.014234434813261,0.4435507357120514
1630573749504,0.5351086258888245,1.6882555484771729,0.0081029906868934,0.441025823354721
1630573749599,0.5329384803771973,1.6882555484771729,0.0357244499027729,0.4325729608535766
1630573749662,0.5304906964302063,1.6882555484771729,0.0628367438912391,0.4205251932144165
1630573749738,0.5307427644729614,1.6882555484771729,0.0832546427845954,0.4063745439052582
1630573749910,0.5347881317138672,1.6882555484771729,0.0944029092788696,0.3905251622200012
1630573750023,0.5417354702949524,1.6882555484771729,0.096469447016716,0.3753823041915893
1630573750092,0.5479250550270081,1.6882555484771729,0.09219241887331,0.3651763498783111
1630573750273,0.5418685078620911,1.6882555484771729,0.0875055342912674,0.366555392742157
1630573750295,0.5486541986465454,1.6882555484771729,0.0870416313409805,0.3623826503753662
1630573750385,0.5303568243980408,1.6882555484771729,0.0970729887485504,0.376463383436203
1630573750479,0.5180984139442444,1.6882555484771729,0.1138081476092338,0.3902035057544708
1630573750578,0.5058395266532898,1.6882555484771729,0.1329982429742813,0.4039792418479919
1630573750720,0.4930560290813446,1.6882555484771729,0.1507834643125534,0.4141798615455627
1630573750838,0.4823978841304779,1.6882555484771729,0.1636974513530731,0.4211218357086181
1630573750902,0.4799616932868957,1.6882555484771729,0.1674692183732986,0.4282183945178985
1630573751040,0.4879794716835022,1.6882555484771729,0.1605414152145385,0.4369281530380249
1630573751103,0.5021452903747559,1.6882555484771729,0.1466827392578125,0.4438701868057251
1630573751172,0.5178223848342896,1.6882555484771729,0.1334449797868728,0.4438868463039398
1630573751322,0.5326862931251526,1.6882555484771729,0.1268999129533767,0.4353348314762115
1630573751439,0.5440951585769653,1.6882555484771729,0.127269446849823,0.4213792979717254
1630573751502,0.5480548143386841,1.6882555484771729,0.1305344700813293,0.4066879451274872
1630573751600,0.5428107976913452,1.6882555484771729,0.1332790106534958,0.3935457766056061
1630573751754,0.5316007137298584,1.6882555484771729,0.1340887397527694,0.3814425766468048
1630573751822,0.5214220881462097,1.6882555484771729,0.1317169368267059,0.3685020804405212
1630573751893,0.5187696218490601,1.6882555484771729,0.124174565076828,0.3532866835594177
1630573752056,0.5267680287361145,1.6882555484771729,0.109828419983387,0.3360172212123871
1630573752170,0.5427965521812439,1.6882555484771729,0.0903983786702156,0.3185066282749176
1630573752191,0.559829592704773,1.6882555484771729,0.0716553404927253,0.3036175370216369
1630573752280,0.5711477994918823,1.6882555484771729,0.060879211872816,0.2937997281551361
1630573752393,0.5744036436080933,1.6882555484771729,0.0615620054304599,0.2875282764434814
1630573752538,0.5724381804466248,1.6882555484771729,0.0712171792984008,0.2819773554801941
1630573752621,0.5700275301933289,1.6882555484771729,0.0846792832016944,0.2792191207408905
1630573752703,0.5684499144554138,1.6882555484771729,0.0979926958680152,0.2852161526679992
1630573752799,0.5659745931625366,1.6882555484771729,0.1087718680500984,0.3019967377185821
1630573752934,0.5620575547218323,1.6882555484771729,0.1158624812960624,0.3239776194095611
1630573753024,0.5594417452812195,1.6882555484771729,0.1198591515421867,0.3458447754383087
1630573753153,0.5594615936279297,1.6882555484771729,0.1224432811141014,0.3673502206802368
1630573753247,0.558732807636261,1.6882555484771729,0.1244892627000808,0.3884472846984863
1630573753310,0.552230715751648,1.6882555484771729,0.1255986839532852,0.4056503772735595
1630573753421,0.5379347205162048,1.6882555484771729,0.1261443346738815,0.4163090288639068
1630573753536,0.5159871578216553,1.6882555484771729,0.128142774105072,0.422633558511734
1630573753600,0.4891947209835052,1.6882555484771729,0.1322953104972839,0.4278803169727325
1630573753770,0.4639997780323028,1.6882555484771729,0.1366787999868393,0.4317006170749664
1630573753851,0.4479338824748993,1.6882555484771729,0.1396009773015976,0.4302710294723511
1630573753937,0.4429285228252411,1.6882555484771729,0.1431162357330322,0.4227820932865143
1630573754027,0.4440087676048279,1.6882555484771729,0.1491531580686569,0.4127883613109588
1630573754137,0.4453170895576477,1.6882555484771729,0.1552292257547378,0.4030978977680206
1630573754203,0.4441322386264801,1.6882555484771729,0.1549699902534485,0.3924980759620666
1630573754371,0.439455509185791,1.6882555484771729,0.1449619680643081,0.3779866993427276
1630573754452,0.4329372346401214,1.6882555484771729,0.1286084800958633,0.3588749468326568
1630573754569,0.4314676225185394,1.6882555484771729,0.1127487272024154,0.3361636698246002
1630573754627,0.4420429468154907,1.6882555484771729,0.1014065593481063,0.3118717074394226
1630573754715,0.4646375775337219,1.6882555484771729,0.0937731564044952,0.2895766794681549
1630573754821,0.4922600090503692,1.6882555484771729,0.0874456763267517,0.2748227119445801
1630573754989,0.5171334743499756,1.6882555484771729,0.0800884217023849,0.2719518840312958
1630573755087,0.5360667109489441,1.6882555484771729,0.0705776736140251,0.2797060906887054
1630573755169,0.55039381980896,1.6882555484771729,0.0606034509837627,0.2932346761226654
1630573755270,0.5626830458641052,1.6882555484771729,0.0545751526951789,0.3075104057788849
1630573755349,0.5749788284301758,1.6882555484771729,0.0528318434953689,0.3192728161811828
1630573755442,0.5884396433830261,1.6882555484771729,0.0483919419348239,0.3289112150669098
1630573755567,0.6021221876144409,1.6882555484771729,0.0347984246909618,0.3413079679012298
1630573755721,0.6134485602378845,1.6882555484771729,0.0138251148164272,0.3601101636886596
1630573755781,0.6209477782249451,1.6882555484771729,-0.0037525105290114,0.3825028240680694
1630573755862,0.6244880557060242,1.6882555484771729,-0.0098262261599302,0.4012787640094757
1630573755956,0.6233147978782654,1.6882555484771729,-0.0066429916769266,0.4123750030994415
1630573756071,0.6143946051597595,1.6882555484771729,-0.0024747881107032,0.4180687963962555
1630573756202,0.5955144166946411,1.6882555484771729,-0.0033142773900181,0.4221262633800506
1630573756267,0.5712531208992004,1.6882555484771729,-0.0089762350544333,0.4247199892997741
1630573756373,0.5517313480377197,1.6882555484771729,-0.013519762083888,0.4234553575515747
1630573756466,0.5444306135177612,1.6882555484771729,-0.0104314098134636,0.4166705012321472
1630573756555,0.5479232668876648,1.6882555484771729,0.0005631592939607,0.4054027497768402
1630573756673,0.5540924668312073,1.6882555484771729,0.0124110849574208,0.392204999923706
1630573756803,0.5561511516571045,1.6882555484771729,0.017014030367136,0.3796636760234833
1630573756920,0.5522357225418091,1.6882555484771729,0.0138184782117605,0.3702166080474853
1630573756995,0.5420559644699097,1.6882555484771729,0.0096188178285956,0.3634515702724457
1630573757075,0.5257150530815125,1.6882555484771729,0.011312985792756,0.3540003001689911
1630573757204,0.5043542981147766,1.6882555484771729,0.0203334800899028,0.3375318348407745
1630573757263,0.4802356362342834,1.6882555484771729,0.0315385907888412,0.316199392080307
1630573757405,0.4566684663295746,1.6882555484771729,0.0392996333539485,0.2972789108753204
1630573757499,0.4382495582103729,1.6882555484771729,0.0418551713228225,0.2845063209533691
1630573757587,0.4306568503379822,1.6882555484771729,0.0420035570859909,0.275122731924057
1630573757703,0.4401337504386902,1.6882555484771729,0.043534655123949,0.2658252716064453
1630573757804,0.4650513529777527,1.6882555484771729,0.0485637560486793,0.2584497034549713
1630573757919,0.4955621361732483,1.6882555484771729,0.0561564080417156,0.2549856603145599
1630573758044,0.5216460824012756,1.6882555484771729,0.065619021654129,0.2526715397834778
1630573758110,0.5382588505744934,1.6882555484771729,0.0774578899145126,0.2452343106269836
1630573758221,0.5450736284255981,1.6882555484771729,0.0908798426389694,0.2297389656305313
1630573758342,0.5431810617446899,1.6882555484771729,0.1021319702267646,0.2103820890188217
1630573758416,0.5337358117103577,1.6882555484771729,0.1065115928649902,0.1937333345413208
1630573758499,0.5217389464378357,1.6882555484771729,0.1025522798299789,0.1822388023138046
1630573758638,0.5138652324676514,1.6882555484771729,0.0930208042263984,0.1720179766416549
1630573758714,0.5124951004981995,1.6882555484771729,0.082687459886074,0.1588187962770462
1630573758805,0.5152388215065002,1.6882555484771729,0.0751723945140838,0.1442590802907943
1630573758953,0.5191968083381653,1.6882555484771729,0.0734985843300819,0.1341519504785537
1630573759001,0.5224767327308655,1.6882555484771729,0.0803214609622955,0.1339785456657409
1630573759121,0.5224007368087769,1.6882555484771729,0.0949111357331276,0.1428266018629074
1630573759252,0.513620138168335,1.6882555484771729,0.1132159307599067,0.1543194055557251
1630573759324,0.4915259480476379,1.6882555484771729,0.1310777366161346,0.1620647311210632
1630573759453,0.454956591129303,1.6882555484771729,0.1460098922252655,0.1681391149759292
1630573759559,0.4076891541481018,1.6882555484771729,0.1547538191080093,0.1798194646835327
1630573759624,0.3594281673431396,1.6882555484771729,0.1539853364229202,0.2015499025583267
1630573759692,0.3233166337013244,1.6882555484771729,0.1440589874982834,0.2280683368444442
1630573759836,0.3073529899120331,1.6882555484771729,0.1313515603542328,0.2505116164684295
1630573759934,0.3085068464279175,1.6882555484771729,0.1237794011831283,0.2673994600772857
1630573760035,0.3161855638027191,1.6882555484771729,0.1236509755253791,0.2848052382469177
1630573760164,0.3233096003532409,1.6882555484771729,0.1269795149564743,0.2976081371307373
1630573760215,0.3327196836471557,1.6882555484771729,0.1288868188858032,0.3130778074264526
1630573760355,0.352459043264389,1.6882555484771729,0.128445565700531,0.3294718265533447
1630573760436,0.39078289270401,1.6882555484771729,0.128682404756546,0.3451290130615234
1630573760517,0.4470546841621399,1.6882555484771729,0.1386049091815948,0.3591999113559723
1630573760660,0.5077273845672607,1.6882555484771729,0.1881884336471557,0.3705666065216064
1630573760733,0.5601637959480286,1.6882555484771729,0.2977243959903717,0.3775283992290497
1630573760822,0.6027395129203796,1.6882555484771729,0.4361345171928406,0.3806948065757751
1630573760921,0.6424562335014343,1.6882555484771729,0.5571851134300232,0.3811807334423065
1630573761084,0.6857733726501465,1.6882555484771729,0.6427692174911499,0.3789019286632538
1630573761161,0.7317706942558289,1.6882555484771729,0.6985923647880554,0.3705835044384002
1630573761237,0.7754480242729187,1.6882555484771729,0.738305389881134,0.3705835044384002
1630573761374,0.8130515813827515,1.6882555484771729,0.7627110481262207,0.3705835044384002
1630573761439,0.8435712456703186,1.6882555484771729,0.789718508720398,0.3705835044384002
1630573761552,0.8691093921661377,1.6882555484771729,0.8279629945755005,0.3705835044384002
1630573761708,0.893450140953064,1.6882555484771729,0.8680210709571838,0.3705835044384002
1630573761783,0.9185552000999452,1.6882555484771729,0.9069546461105348,0.3705835044384002
1630573761862,0.9417304396629332,1.6882555484771729,0.9399144649505616,0.3705835044384002
1630573761988,0.9572478532791138,1.6882555484771729,0.9635165333747864,0.3705835044384002
1630573762064,0.9618256092071532,1.6882555484771729,0.976452648639679,0.3705835044384002
1630573762143,0.9579893946647644,1.6882555484771729,0.9762079119682312,0.3705835044384002
1630573762301,0.9511233568191528,1.6882555484771729,0.958227515220642,0.3705835044384002
1630573762409,0.9442524313926696,1.6882555484771729,0.9200610518455504,0.3705835044384002
1630573762466,0.935894787311554,1.6882555484771729,0.8669464588165283,0.3705835044384002
1630573762556,0.922321081161499,1.6882555484771729,0.8111304640769958,0.3705835044384002
1630573762658,0.9015817642211914,1.6882555484771729,0.7632313370704651,0.3705835044384002
1630573762731,0.8748174905776978,1.6882555484771729,0.7241665720939636,0.3705835044384002
1630573762905,0.8473755121231079,1.6882555484771729,0.704845130443573,0.3705835044384002
1630573762983,0.826019823551178,1.6882555484771729,0.6863097548484802,0.3705835044384002
1630573763089,0.8115674257278442,1.6882555484771729,0.643866240978241,0.980351448059082
1630573763170,0.7964546084403992,1.6882555484771729,0.5869273543357849,0.9673263430595398
1630573763316,0.7710893750190735,1.6882555484771729,0.5157783627510071,0.9438438415527344
1630573763363,0.733235239982605,1.6882555484771729,0.4382492005825043,0.9438438415527344
1630573763522,0.6903409957885742,1.6882555484771729,0.3679815232753753,0.9438438415527344
1630573763587,0.654344379901886,1.6882555484771729,0.3162403404712677,0.9438438415527344
1630573763695,0.6322463154792786,1.6882555484771729,0.2815134227275848,0.9438438415527344
1630573763787,0.6213514804840088,1.6882555484771729,0.2555495500564575,0.9438438415527344
1630573763866,0.613045871257782,1.6882555484771729,0.2368014603853225,0.9438438415527344
1630573763970,0.6014042496681213,1.6882555484771729,0.2302627712488174,0.9438438415527344
1630573764120,0.5879337191581726,1.6882555484771729,0.2346278131008148,0.9438438415527344
1630573764237,0.5785316824913025,1.6882555484771729,0.2399138957262039,0.9438438415527344
1630573764321,0.5757720470428467,1.6882555484771729,0.2372394800186157,0.9446425437927246
1630573764398,0.5733039379119873,1.6882555484771729,0.2265851199626922,0.9325855374336244
1630573764532,0.5627687573432922,1.6882555484771729,0.213831141591072,0.9325855374336244
1630573764601,0.5423439741134644,1.6882555484771729,0.2038560658693313,0.9325855374336244
1630573764740,0.5179534554481506,1.6882555484771729,0.1979170441627502,0.9325855374336244
1630573764840,0.4992093443870544,1.6882555484771729,0.195078432559967,0.9325855374336244
1630573764955,0.4917582869529724,1.6882555484771729,0.1934271603822708,0.4564560055732727
1630573764987,0.4935618937015533,1.6882555484771729,0.1909097582101822,0.4431423246860504
1630573765105,0.4968960583209991,1.6882555484771729,0.1879910677671432,0.4436250627040863
1630573765213,0.4948557913303375,1.6882555484771729,0.1881355345249176,0.4481007754802704
1630573765366,0.487867921590805,1.6882555484771729,0.1935536414384842,0.4500739872455597
1630573765430,0.4823824763298034,1.6882555484771729,0.2009023427963256,0.4496764540672302
1630573765538,0.4833322465419769,1.6882555484771729,0.204349547624588,0.4494862854480743
1630573765641,0.4895663261413574,1.6882555484771729,0.2008893340826034,0.4517070353031158
1630573765690,0.4961417019367218,1.6882555484771729,0.1929025202989578,0.4579537212848663
1630573765821,0.5002392530441284,1.6882555484771729,0.1855182498693466,0.4672679603099823
1630573765933,0.5020362138748169,1.6882555484771729,0.1813142448663711,0.4768854081630707
1630573766052,0.5018532872200012,1.6882555484771729,0.1795764416456222,0.4865509271621704
1630573766131,0.5011849999427795,1.6882555484771729,0.1786151975393295,0.4973774254322052
1630573766255,0.503689169883728,1.6882555484771729,0.1766358166933059,0.5206759572029114
1630573766319,0.5113519430160522,1.6882555484771729,0.1729065924882888,0.5554097294807434
1630573766456,0.5215585231781006,1.6882555484771729,0.1672248542308807,0.5895638465881348
1630573766537,0.5291468501091003,1.6882555484771729,0.1601220816373825,0.6124012470245361
1630573766634,0.5308889150619507,1.6882555484771729,0.1527718752622604,0.6223234534263611
1630573766720,0.5277374386787415,1.6882555484771729,0.1438516080379486,0.623784601688385
1630573766844,0.5242800116539001,1.6882555484771729,0.1294212788343429,0.6223575472831726
1630573766932,0.5271817445755005,1.6882555484771729,0.1068118512630462,0.6211699843406677
1630573767029,0.5404288172721863,1.6882555484771729,0.0788964554667472,0.6213076114654541
1630573767139,0.5600182414054871,1.6882555484771729,0.0548311248421669,0.6223054528236389
1630573767268,0.5778823494911194,1.6882555484771729,0.042757362127304,0.6235597133636475
1630573767337,0.5889613032341003,1.6882555484771729,0.0417738556861877,0.6260324716567993
1630573767442,0.5933588743209839,1.6882555484771729,0.0453371591866016,0.6297174692153931
1630573767540,0.5939595699310303,1.6882555484771729,0.0478280708193779,0.6303392052650452
1630573767641,0.5926327705383301,1.6882555484771729,0.0476901978254318,0.6202753186225891
1630573767770,0.5895470976829529,1.6882555484771729,0.0478675663471221,0.594384491443634
1630573767870,0.5853486061096191,1.6882555484771729,0.052885964512825,0.5551498532295227
1630573767972,0.5818009972572327,1.6882555484771729,0.0663342252373695,0.5122816562652588
1630573768030,0.5807591676712036,1.6882555484771729,0.086058422923088,0.47682985663414
1630573768154,0.5832027792930603,1.6882555484771729,0.1032226011157035,0.4547531902790069
1630573768249,0.5881588459014893,1.6882555484771729,0.1109724268317222,0.4451261758804321
1630573768404,0.5907408595085144,1.6882555484771729,0.1110987141728401,0.4442263543605804
1630573768453,0.5852655172348022,1.6882555484771729,0.112479068338871,0.4486966729164123
1630573768556,0.5697985887527466,1.6882555484771729,0.1211328953504562,0.4536939561367035
1630573768680,0.548049807548523,1.6882555484771729,0.133782222867012,0.4537076652050018
1630573768778,0.526409924030304,1.6882555484771729,0.1425545215606689,0.4440825581550598
1630573768848,0.5087092518806458,1.6882555484771729,0.1447871327400207,0.4244625270366668
1630573768971,0.4946467280387878,1.6882555484771729,0.1455556452274322,0.4024605453014374
1630573769088,0.4831014573574066,1.6882555484771729,0.1538497507572174,0.390816867351532
1630573769150,0.4729577004909515,1.6882555484771729,0.1741319298744201,0.3985558450222015
1630573769270,0.4631262421607971,1.6882555484771729,0.2016974240541458,0.424014002084732
1630573769381,0.4533122479915619,1.6882555484771729,0.2267873883247375,0.4588939249515533
1630573769444,0.4446388185024261,1.6882555484771729,0.2440686225891113,0.4953280985355377
1630573769587,0.4394487738609314,1.6882555484771729,0.2567129135131836,0.5275458693504333
1630573769686,0.4387858510017395,1.6882555484771729,0.2724755704402923,0.5512429475784302
1630573769781,0.4399985671043396,1.6882555484771729,0.2967085540294647,0.5664515495300293
1630573769897,0.4390542507171631,1.6882555484771729,0.3275098502635956,0.5760206580162048
1630573769965,0.4317870438098907,1.6882555484771729,0.3592932224273681,0.5829319357872009
1630573770136,0.4171426296234131,1.6882555484771729,0.3877238631248474,0.5880762934684753
1630573770208,0.3994679749011993,1.6882555484771729,0.4112123548984527,0.5910667777061462
1630573770268,0.3852341771125793,1.6882555484771729,0.4305547177791595,0.5914316177368164
1630573770381,0.3806769251823425,1.6882555484771729,0.4477144181728363,0.5885092616081238
1630573770474,0.3877388834953308,1.6882555484771729,0.4631229341030121,0.5813342928886414
1630573770602,0.4034165143966675,1.6882555484771729,0.4746175706386566,0.5703380703926086
1630573770650,0.4241779446601867,1.6882555484771729,0.4809108674526214,0.5581077337265015
1630573770805,0.4469797611236572,1.6882555484771729,0.4842427968978882,0.5478891730308533
1630573770902,0.4703944325447082,1.6882555484771729,0.4896327555179596,0.5403842329978943
1630573770996,0.4932524859905243,1.6882555484771729,0.4983004927635193,0.5328977704048157
1630573771075,0.5162091255187988,1.6882555484771729,0.5055205225944519,0.5232087969779968
1630573771186,0.5398963093757629,1.6882555484771729,0.506706953048706,0.5124682188034058
1630573771305,0.5624003410339355,1.6882555484771729,0.5013771653175354,0.5027422308921814
1630573771415,0.5809162855148315,1.6882555484771729,0.4929852783679962,0.4948377609252929
1630573771504,0.5942336916923523,1.6882555484771729,0.4844803214073181,0.4892343580722809
1630573771651,0.6077433824539185,1.6882555484771729,0.4765152633190155,0.4799762964248657
1630573771715,0.6247053146362305,1.6882555484771729,0.4691294431686401,0.4743973910808563
1630573771858,0.6415994167327881,1.6882555484771729,0.462864339351654,0.4787872731685638
1630573771900,0.6565038561820984,1.6882555484771729,0.4580748379230499,0.4943282008171081
1630573772023,0.6701095700263977,1.6882555484771729,0.4550461173057556,0.5167127251625061
1630573772100,0.6840635538101196,1.6882555484771729,0.456274539232254,0.5398269891738892
1630573772215,0.6991505026817322,1.6882555484771729,0.4588448405265808,0.5581536293029785
1630573772306,0.7156281471252441,1.6882555484771729,0.4603801965713501,0.566011369228363
1630573772402,0.7322890162467957,1.6882555484771729,0.4567566215991974,0.5588322281837463
1630573772528,0.7483007311820984,1.6882555484771729,0.4472122192382812,0.5379042625427246
1630573772626,0.75921231508255,1.6882555484771729,0.4375077486038208,0.5124562978744507
1630573772737,0.75921231508255,1.6882555484771729,0.4347722232341766,0.5124562978744507
1630573772835,0.75921231508255,1.6882555484771729,0.4404180347919464,0.5124562978744507
1630573772937,0.75921231508255,1.6882555484771729,0.4479016959667206,0.5124562978744507
1630573773037,0.75921231508255,1.6882555484771729,0.4494329392910003,0.5124562978744507
1630573773136,0.75921231508255,1.6882555484771729,0.442274659872055,0.5124562978744507
1630573773245,0.75921231508255,1.6882555484771729,0.442274659872055,0.5124562978744507
1630573773354,0.75921231508255,1.6882555484771729,0.442274659872055,0.5124562978744507
1630573773446,0.75921231508255,1.6882555484771729,0.442274659872055,0.5124562978744507
1630573773524,0.75921231508255,1.6882555484771729,0.442274659872055,0.5124562978744507
1630573773626,0.75921231508255,1.6882555484771729,0.442274659872055,0.5124562978744507
1630573773691,0.75921231508255,1.6882555484771729,0.442274659872055,0.5124562978744507
1630573773871,0.75921231508255,1.6882555484771729,0.442274659872055,0.5124562978744507
1630573773951,0.75921231508255,1.6882555484771729,0.442274659872055,0.5124562978744507
1630573774043,0.75921231508255,1.6882555484771729,0.442274659872055,0.5124562978744507
1630573774149,0.75921231508255,1.6882555484771729,0.442274659872055,0.5124562978744507
1630573774234,0.75921231508255,1.6882555484771729,0.442274659872055,0.5124562978744507
1630573774326,0.75921231508255,1.6882555484771729,0.7311052083969116,0.5124562978744507
1630573774504,0.9920820593833924,1.6882555484771729,0.7430434226989746,0.5124562978744507
1630573774565,0.9932031631469728,1.6882555484771729,0.7417119741439819,0.5124562978744507
1630573774659,0.9879294037818908,1.6882555484771729,0.7251293659210205,0.5124562978744507
1630573774739,0.980432629585266,1.6882555484771729,0.6998870372772217,0.5124562978744507
1630573774833,0.9691519141197203,1.6882555484771729,0.675025999546051,0.5124562978744507
1630573774930,0.9519225358963012,1.6882555484771729,0.6545283794403076,0.5124562978744507
1630573775052,0.92986398935318,1.6882555484771729,0.6365989446640015,0.5124562978744507
1630573775156,0.92986398935318,1.6882555484771729,0.6187461614608765,0.5124562978744507
1630573775234,0.92986398935318,1.6882555484771729,0.6016114354133606,0.5124562978744507
1630573775354,0.92986398935318,1.6882555484771729,0.5873870253562927,0.5124562978744507
1630573775437,0.92986398935318,1.6882555484771729,0.5765215754508972,0.5124562978744507
1630573775554,0.92986398935318,1.6882555484771729,0.5582928657531738,0.5124562978744507
1630573775678,0.9330127239227296,1.6882555484771729,0.537026047706604,0.5124562978744507
1630573775788,0.9262245893478394,1.6882555484771729,0.511506974697113,0.5124562978744507
1630573775905,0.9082533717155457,1.6882555484771729,0.4788655340671539,0.5124562978744507
1630573775967,0.8828073143959045,1.6882555484771729,0.4391668438911438,0.5124562978744507
1630573776062,0.8556836247444153,1.6882555484771729,0.3989356458187103,0.5124562978744507
1630573776178,0.8249682188034058,1.6882555484771729,0.37912118434906,0.5124562978744507
1630573776288,0.8249682188034058,1.6882555484771729,0.3718377351760864,0.5124562978744507
1630573776412,0.8249682188034058,1.6882555484771729,0.3695650994777679,0.5124562978744507
1630573776459,0.8249682188034058,1.6882555484771729,0.3660356104373932,0.5124562978744507
1630573776596,0.8249682188034058,1.6882555484771729,0.3626064360141754,0.5124562978744507
1630573776677,0.8249682188034058,1.6882555484771729,0.3640012145042419,0.5124562978744507
1630573776753,0.8249682188034058,1.6882555484771729,0.3697359561920166,0.5124562978744507
1630573776889,0.8249682188034058,1.6882555484771729,0.3736776113510132,0.5124562978744507
1630573777024,0.8249682188034058,1.6882555484771729,0.3715383410453796,0.5124562978744507
1630573777101,0.8249682188034058,1.6882555484771729,0.363960862159729,0.5124562978744507
1630573777204,0.8249682188034058,1.6882555484771729,0.3516542911529541,0.5124562978744507
1630573777341,0.8249682188034058,1.6882555484771729,0.3516542911529541,0.5124562978744507
1630573777362,0.8249682188034058,1.6882555484771729,0.3516542911529541,0.5124562978744507
1630573777522,0.8249682188034058,1.6882555484771729,0.3516542911529541,0.5124562978744507
1630573777598,0.8249682188034058,1.6882555484771729,0.3516542911529541,0.5124562978744507
1630573777808,0.4243951737880707,1.6882555484771729,0.1609033644199371,0.2211612462997436
1630573777873,0.4290060997009277,1.6882555484771729,0.178315132856369,0.2118483781814575
1630573777981,0.4216405749320984,1.6882555484771729,0.195386067032814,0.237853541970253
1630573778125,0.4057936668395996,1.6882555484771729,0.2100194245576858,0.2875140607357025
1630573778204,0.3888566493988037,1.6882555484771729,0.2240262627601623,0.3405095636844635
1630573778324,0.3789000511169433,1.6882555484771729,0.2391327619552612,0.3838408291339874
1630573778438,0.380167007446289,1.6882555484771729,0.2531662285327911,0.4166736900806427
1630573778500,0.3908780515193939,1.6882555484771729,0.2626464366912842,0.4428811073303222
1630573778637,0.4033851325511932,1.6882555484771729,0.2671508491039276,0.4638925194740295
1630573778732,0.4140546917915344,1.6882555484771729,0.2696519196033478,0.4638925194740295
1630573778838,0.4261305630207062,1.6882555484771729,0.2736756801605224,0.4638925194740295
1630573778918,0.4435152411460876,1.6882555484771729,0.2883047461509704,0.4685674905776977
1630573779038,0.4665128886699676,1.6882555484771729,0.3086726665496826,0.480032742023468
1630573779139,0.4877794086933136,1.6882555484771729,0.3325687050819397,0.5011284351348877
1630573779201,0.5038366913795471,1.6882555484771729,0.3541422188282013,0.5311251878738403
1630573779355,0.5156355500221252,1.6882555484771729,0.3675913512706756,0.5668764114379883
1630573779418,0.5255457758903503,1.6882555484771729,0.3718002438545227,0.6029524207115173
1630573779571,0.5355952382087708,1.6882555484771729,0.3707217574119568,0.6565165519714355
1630573779649,0.5468997955322266,1.6882555484771729,0.3689103722572326,0.7047048211097717
1630573779754,0.5591743588447571,1.6882555484771729,0.3665384650230407,0.753716230392456
1630573779849,0.5692235827445984,1.6882555484771729,0.3606802225112915,0.7937313318252563
1630573779971,0.5737707018852234,1.6882555484771729,0.3504953682422638,0.8154143691062927
1630573780088,0.5729430913925171,1.6882555484771729,0.339698851108551,0.8367906808853149
1630573780149,0.5718318223953247,1.6882555484771729,0.3336741328239441,0.865044891834259
1630573780228,0.5736016631126404,1.6882555484771729,0.335541695356369,0.865044891834259
1630573780322,0.5750600695610046,1.6882555484771729,0.3441239595413208,0.8516650199890137
1630573780417,0.5717143416404724,1.6882555484771729,0.352736234664917,0.8465172052383423
1630573780567,0.5622199177742004,1.6882555484771729,0.3533168733119964,0.8392584323883057
1630573780664,0.549562394618988,1.6882555484771729,0.3415088951587677,0.8392584323883057
1630573780772,0.5362472534179688,1.6882555484771729,0.3201701045036316,0.8392584323883057
1630573780866,0.524698793888092,1.6882555484771729,0.2989591956138611,0.8392584323883057
1630573780943,0.5167903900146484,1.6882555484771729,0.2866469621658325,0.8392584323883057
1630573781044,0.5134757161140442,1.6882555484771729,0.2838862836360931,0.8420499563217163
1630573781174,0.5118970274925232,1.6882555484771729,0.2849039733409881,0.836713969707489
1630573781253,0.508101761341095,1.6882555484771729,0.2846571505069732,0.8142468929290771
1630573781345,0.5011476874351501,1.6882555484771729,0.2832951247692108,0.7807155847549438
1630573781457,0.4924385547637939,1.6882555484771729,0.2849857807159424,0.7481004595756531
1630573781552,0.4832792282104492,1.6882555484771729,0.2919824421405792,0.7194064259529114
1630573781651,0.4770685732364654,1.6882555484771729,0.299972265958786,0.6942741870880127
1630573781801,0.4794215559959411,1.6882555484771729,0.3001485168933868,0.6790586113929749
1630573781862,0.4918464720249176,1.6882555484771729,0.285879373550415,0.6663827896118164
1630573781970,0.5085248947143555,1.6882555484771729,0.2600097358226776,0.6604081988334656
1630573782054,0.5232405662536621,1.6882555484771729,0.2358865588903427,0.6618972420692444
1630573782165,0.533782422542572,1.6882555484771729,0.2276856154203415,0.6696199774742126
1630573782256,0.5424279570579529,1.6882555484771729,0.2369861006736755,0.6673248410224915
1630573782376,0.5507086515426636,1.6882555484771729,0.2520219385623932,0.6585572957992554
1630573782470,0.5576602220535278,1.6882555484771729,0.2597104012966156,0.6475428938865662
1630573782606,0.5625140070915222,1.6882555484771729,0.2545314729213714,0.6227741837501526
1630573782670,0.5679089426994324,1.6882555484771729,0.239278644323349,0.5963886976242065
1630573782768,0.5793729424476624,1.6882555484771729,0.2229058742523193,0.5778354406356812
1630573782868,0.5906505584716797,1.6882555484771729,0.2167344689369201,0.5723751783370972
1630573783021,0.6056947112083435,1.6882555484771729,0.2248378247022628,0.5767310261726379
1630573783102,0.6232326626777649,1.6882555484771729,0.2421391755342483,0.5899198651313782
1630573783201,0.6379953026771545,1.6882555484771729,0.234499305486679,0.6058207750320435
1630573783291,0.6425594091415405,1.6882555484771729,0.2259449809789657,0.6160516142845154
1630573783366,0.6336455941200256,1.6882555484771729,0.2233888953924179,0.6119115948677063
1630573783455,0.6164334416389465,1.6882555484771729,0.229243665933609,0.5883083343505859
1630573783597,0.6010697484016418,1.6882555484771729,0.2375651150941848,0.5482680797576904
1630573783709,0.5942621827125549,1.6882555484771729,0.2388434708118438,0.5042170286178589
1630573783809,0.5938156247138977,1.6882555484771729,0.2293519824743271,0.4714605212211609
1630573783888,0.5935356616973877,1.6882555484771729,0.2146017998456955,0.4570412635803222
1630573783970,0.5935356616973877,1.6882555484771729,0.2079492062330246,0.4570412635803222
1630573784069,0.5935356616973877,1.6882555484771729,0.2151910662651062,0.4570412635803222
1630573784217,0.5935356616973877,1.6882555484771729,0.2443707585334777,0.4570412635803222
1630573784320,0.5935356616973877,1.6882555484771729,0.2764436900615692,0.4570412635803222
1630573784422,0.5935356616973877,1.6882555484771729,0.2915090322494507,0.4570412635803222
1630573784500,0.5935356616973877,1.6882555484771729,0.2789327502250671,0.4570412635803222
1630573784584,0.5935356616973877,1.6882555484771729,0.2320877760648727,0.4570412635803222
1630573784691,0.5935356616973877,1.6882555484771729,0.2254117429256439,0.4570412635803222
1630573784841,0.473660945892334,1.6882555484771729,0.2096780985593795,0.3918061852455139
1630573784934,0.4588983654975891,1.6882555484771729,0.192766860127449,0.4116539657115936
1630573785034,0.4398427605628967,1.6882555484771729,0.182470753788948,0.4610462784767151
1630573785108,0.4201238453388214,1.6882555484771729,0.1804127395153045,0.510234534740448
1630573785223,0.4008201658725738,1.6882555484771729,0.1830130815505981,0.5372368097305298
1630573785341,0.3814919888973236,1.6882555484771729,0.1877435147762298,0.542036771774292
1630573785454,0.3630431592464447,1.6882555484771729,0.1953689604997635,0.5384581089019775
1630573785555,0.3479174375534057,1.6882555484771729,0.2057584375143051,0.5396507978439331
1630573785632,0.3372564911842346,1.6882555484771729,0.2181752026081085,0.5463512539863586
1630573785735,0.3303503394126892,1.6882555484771729,0.22345831990242,0.5511305332183838
1630573785819,0.3279387950897217,1.6882555484771729,0.2214785814285278,0.5490095615386963
1630573785904,0.3351641297340393,1.6882555484771729,0.2161062210798263,0.541756272315979
1630573786053,0.3421050608158111,1.6882555484771729,0.2135307937860489,0.5380329489707947
1630573786161,0.356169581413269,1.6882555484771729,0.2205785065889358,0.5424617528915405
1630573786239,0.3646179735660553,1.6882555484771729,0.2396952956914901,0.5536935329437256
1630573786321,0.3629343807697296,1.6882555484771729,0.2668952047824859,0.564660906791687
1630573786466,0.3547452390193939,1.6882555484771729,0.2964663505554199,0.565658688545227
1630573786515,0.3458006680011749,1.6882555484771729,0.3243986666202545,0.5501569509506226
1630573786687,0.3392297923564911,1.6882555484771729,0.3474124073982239,0.5210022330284119
1630573786772,0.3364973962306976,1.6882555484771729,0.3618774116039276,0.4896749258041382
1630573786837,0.3405521512031555,1.6882555484771729,0.3653682172298431,0.4657669067382812
1630573786937,0.3521291613578796,1.6882555484771729,0.3584988713264465,0.4480397403240204
1630573787016,0.3687126934528351,1.6882555484771729,0.3444209396839142,0.4284625649452209
1630573787105,0.3848234713077545,1.6882555484771729,0.3276801705360412,0.4048328697681427
1630573787254,0.4003274440765381,1.6882555484771729,0.3134056031703949,0.3846776485443115
1630573787354,0.4156213700771332,1.6882555484771729,0.3040183186531067,0.3794344365596771
1630573787433,0.4265490472316742,1.6882555484771729,0.2965380251407623,0.3981283009052276
1630573787544,0.4267522692680359,1.6882555484771729,0.2842613160610199,0.4385329484939575
1630573787639,0.4147096872329712,1.6882555484771729,0.2619417607784271,0.4867221117019653
1630573787738,0.3974784910678863,1.6882555484771729,0.2300199270248413,0.5281670093536377
1630573787874,0.386274516582489,1.6882555484771729,0.193503737449646,0.5567528605461121
1630573787989,0.3866885900497436,1.6882555484771729,0.1550204753875732,0.5751038789749146
1630573788081,0.3973113298416137,1.6882555484771729,0.1129899099469184,0.5887913107872009
1630573788155,0.4121163785457611,1.6882555484771729,0.067621573805809,0.6004102826118469
1630573788271,0.4258180558681488,1.6882555484771729,0.0272065978497266,0.6092888116836548
1630573788333,0.4337210357189178,1.6882555484771729,0.0026054449845105,0.6164450645446777
1630573788524,0.4335153996944427,1.6882555484771729,-0.006137894000858,0.6245391964912415
1630573788584,0.4261940121650696,1.6882555484771729,-0.0087911318987607,0.6354772448539734
1630573788710,0.4173514544963836,1.6882555484771729,-0.0136249847710132,0.6491796374320984
1630573788765,0.410456508398056,1.6882555484771729,-0.0212209932506084,0.6641241312026978
1630573788887,0.408219039440155,1.6882555484771729,-0.026591258123517,0.6764761805534363
1630573789002,0.4109237492084503,1.6882555484771729,-0.0261762719601392,0.6785594820976257
1630573789079,0.4176594614982605,1.6882555484771729,-0.0213040690869092,0.6644421815872192
1630573789170,0.4268253445625305,1.6882555484771729,-0.0155366668477654,0.6357311010360718
1630573789281,0.4343729615211487,1.6882555484771729,-0.0088059147819876,0.6020855903625488
1630573789420,0.4354349970817566,1.6882555484771729,0.0011801099171862,0.5734920501708984
1630573789482,0.4293833374977112,1.6882555484771729,0.0145283509045839,0.5526578426361084
1630573789545,0.4196171462535858,1.6882555484771729,0.0282309353351593,0.5376295447349548
1630573789708,0.4127018749713897,1.6882555484771729,0.0386765263974666,0.5277934074401855
1630573789783,0.4140279591083526,1.6882555484771729,0.0431928895413875,0.5240121483802795
1630573789901,0.4240968823432922,1.6882555484771729,0.040886066854,0.5233510732650757
1630573789982,0.4396190941333771,1.6882555484771729,0.0343353748321533,0.5218210220336914
1630573790104,0.4548947811126709,1.6882555484771729,0.0293331183493137,0.5183801054954529
1630573790164,0.4642774164676666,1.6882555484771729,0.0307050719857215,0.5126184225082397
1630573790316,0.4635170400142669,1.6882555484771729,0.0386008992791175,0.5023298263549805
1630573790420,0.4499563872814178,1.6882555484771729,0.0497442036867141,0.4861017763614654
1630573790538,0.4251790344715118,1.6882555484771729,0.0609896406531333,0.4669768512248993
1630573790646,0.3963942229747772,1.6882555484771729,0.0709082558751106,0.4502734541893005
1630573790677,0.37395179271698,1.6882555484771729,0.0800750851631164,0.4377588331699371
1630573790773,0.3661001920700073,1.6882555484771729,0.0865822359919548,0.426067441701889
1630573790915,0.3731359839439392,1.6882555484771729,0.0863338261842727,0.4134559333324432
1630573791046,0.3886464238166809,1.6882555484771729,0.0774033218622207,0.4025969803333282
1630573791096,0.4064202904701233,1.6882555484771729,0.0632437244057655,0.3957681953907013
1630573791219,0.4273088872432709,1.6882555484771729,0.0516765415668487,0.3912405371665954
1630573791307,0.4544247090816498,1.6882555484771729,0.0493264161050319,0.3851810991764068
1630573791380,0.4855837821960449,1.6882555484771729,0.0576092600822448,0.3756913542747497
1630573791562,0.5117586851119995,1.6882555484771729,0.0736694633960723,0.3622980117797851
1630573791637,0.527418315410614,1.6882555484771729,0.0927404388785362,0.3439830243587494
1630573791709,0.5344119071960449,1.6882555484771729,0.1101600974798202,0.322790265083313
1630573791817,0.5397871732711792,1.6882555484771729,0.1224204897880554,0.3050993084907532
1630573791924,0.5496470928192139,1.6882555484771729,0.1288002878427505,0.2962953448295593
1630573791983,0.5659270286560059,1.6882555484771729,0.1316857039928436,0.2954002916812897
1630573792143,0.5852540731430054,1.6882555484771729,0.1345939934253692,0.2979538738727569
1630573792247,0.6020342111587524,1.6882555484771729,0.1395790129899978,0.3030568063259125
1630573792323,0.6123685836791992,1.6882555484771729,0.1488005071878433,0.3139593601226806
1630573792413,0.6185389757156372,1.6882555484771729,0.1641482710838318,0.3304443359375
1630573792510,0.6255938410758972,1.6882555484771729,0.186831921339035,0.3468883335590362
1630573792583,0.6351684927940369,1.6882555484771729,0.2152895182371139,0.3575796782970428
1630573792747,0.6403388381004333,1.6882555484771729,0.2436858564615249,0.3620335161685943
1630573792861,0.6322062611579895,1.6882555484771729,0.2655860781669616,0.3640434741973877
1630573792957,0.6091967821121216,1.6882555484771729,0.2780305743217468,0.3681970238685608
1630573793035,0.5813516974449158,1.6882555484771729,0.2811471223831177,0.3774848282337188
1630573793148,0.561805009841919,1.6882555484771729,0.276879608631134,0.3919565081596374
1630573793238,0.5561874508857727,1.6882555484771729,0.2680294811725616,0.4079408943653106
1630573793349,0.5571042895317078,1.6882555484771729,0.2570101916790008,0.4211545884609222
1630573793434,0.5543465614318848,1.6882555484771729,0.2457134127616882,0.4306634068489074
1630573793542,0.5428182482719421,1.6882555484771729,0.2358063906431198,0.4388225078582763
1630573793619,0.525139331817627,1.6882555484771729,0.2309605777263641,0.4464867711067199
1630573793735,0.5092564821243286,1.6882555484771729,0.2345112264156341,0.4515752494335174
1630573793848,0.5012620687484741,1.6882555484771729,0.2437224090099334,0.4526941180229187
1630573793999,0.4993025064468384,1.6882555484771729,0.2511205077171325,0.45258429646492
1630573794063,0.4998495876789093,1.6882555484771729,0.2500860393047333,0.4549255967140198
1630573794157,0.5015904307365417,1.6882555484771729,0.2394031733274459,0.4606617093086242
1630573794257,0.50592440366745,1.6882555484771729,0.2237886041402816,0.4676909446716308
1630573794355,0.5122346878051758,1.6882555484771729,0.2099694907665252,0.4736185669898987
1630573794471,0.5171842575073242,1.6882555484771729,0.2016388326883316,0.4761607646942138
1630573794573,0.5178091526031494,1.6882555484771729,0.1988338977098465,0.4727284610271454
1630573794704,0.5150159597396851,1.6882555484771729,0.2004919350147247,0.4618276357650757
1630573794771,0.51170814037323,1.6882555484771729,0.206568568944931,0.4453599154949188
1630573794865,0.5130396485328674,1.6882555484771729,0.2167131900787353,0.4284712672233581
1630573794938,0.5214437246322632,1.6882555484771729,0.2281459420919418,0.416975736618042
1630573795053,0.5364571809768677,1.6882555484771729,0.2374623417854309,0.4130638241767883
1630573795187,0.5539076924324036,1.6882555484771729,0.2407858818769455,0.4130974113941192
1630573795285,0.5683020353317261,1.6882555484771729,0.235111728310585,0.4111445248126983
1630573795405,0.5759220719337463,1.6882555484771729,0.2213709503412246,0.4027935564517975
1630573795469,0.576967716217041,1.6882555484771729,0.205009713768959,0.3868814706802368
1630573795583,0.571098804473877,1.6882555484771729,0.1908610016107559,0.3663574457168579
1630573795696,0.5580359101295471,1.6882555484771729,0.1775176227092743,0.3468414545059204
1630573795839,0.539008378982544,1.6882555484771729,0.159766599535942,0.3366841077804565
1630573795900,0.5188593864440918,1.6882555484771729,0.1366403847932815,0.3421186208724975
1630573796007,0.5059072375297546,1.6882555484771729,0.1135957166552543,0.3615898191928863
1630573796069,0.5034991502761841,1.6882555484771729,0.0964720547199249,0.3861639499664306
1630573796170,0.5062958598136902,1.6882555484771729,0.0854945927858352,0.4058114886283874
1630573796287,0.5063607692718506,1.6882555484771729,0.0762972012162208,0.4163564443588257
1630573796398,0.4988646209239959,1.6882555484771729,0.0670916438102722,0.4191940724849701
1630573796521,0.4845216572284698,1.6882555484771729,0.0606393180787563,0.4178802371025085
1630573796568,0.4646413624286651,1.6882555484771729,0.0605305954813957,0.4157987236976623
1630573796701,0.4407613277435303,1.6882555484771729,0.066249743103981,0.4174802899360657
1630573796803,0.415737897157669,1.6882555484771729,0.0755962654948234,0.4245416522026062
1630573796862,0.3948634564876556,1.6882555484771729,0.0871276557445526,0.4334338009357452
1630573797014,0.3807563781738281,1.6882555484771729,0.1009245291352272,0.4392576813697815
1630573797137,0.3720107972621918,1.6882555484771729,0.1168699637055397,0.4416900277137756
1630573797202,0.3660697638988495,1.6882555484771729,0.1347004026174545,0.445782870054245
1630573797304,0.366558164358139,1.6882555484771729,0.1549699157476425,0.4530738592147827
1630573797387,0.378823459148407,1.6882555484771729,0.1771401613950729,0.4578047096729278
1630573797496,0.3981038630008697,1.6882555484771729,0.1982784271240234,0.454245001077652
1630573797637,0.4184873700141907,1.6882555484771729,0.214958444237709,0.4447654485702514
1630573797704,0.4406428635120392,1.6882555484771729,0.2256841212511062,0.4387904405593872
1630573797839,0.4695729315280914,1.6882555484771729,0.231237456202507,0.4422219395637512
1630573797945,0.5042933225631714,1.6882555484771729,0.2330806702375412,0.4519308805465698
1630573798010,0.5366625785827637,1.6882555484771729,0.2320516556501388,0.4606724679470062
1630573798151,0.5589694976806641,1.6882555484771729,0.2287254780530929,0.4629340171813965
1630573798232,0.5723860859870911,1.6882555484771729,0.2243233174085617,0.4567376971244812
1630573798337,0.5817093849182129,1.6882555484771729,0.2199328243732452,0.4455461502075195
1630573798463,0.5899263620376587,1.6882555484771729,0.2165323942899704,0.4382052719593048
1630573798556,0.5953525304794312,1.6882555484771729,0.2155345380306244,0.4425500631332397
1630573798628,0.5975754857063293,1.6882555484771729,0.2205307781696319,0.4575429260730743
1630573798689,0.5987042784690857,1.6882555484771729,0.2335909754037857,0.4735832810401916
1630573798847,0.5995124578475952,1.6882555484771729,0.2498624175786972,0.4828743934631347
1630573798925,0.5999001264572144,1.6882555484771729,0.2604918777942657,0.4879173338413238
1630573799070,0.6015596389770508,1.6882555484771729,0.260232001543045,0.4970220923423767
1630573799117,0.6055882573127747,1.6882555484771729,0.251836746931076,0.514399528503418
1630573799205,0.6082255244255066,1.6882555484771729,0.2430296093225479,0.5350409150123596
1630573799310,0.6041978001594543,1.6882555484771729,0.2397244572639465,0.5504432320594788
1630573799473,0.592897891998291,1.6882555484771729,0.2433054894208908,0.5562865138053894
1630573799563,0.5802600979804993,1.6882555484771729,0.251620888710022,0.5542107820510864
1630573799615,0.5720747113227844,1.6882555484771729,0.260265052318573,0.5491970777511597
1630573799732,0.5661786794662476,1.6882555484771729,0.2651810050010681,0.5461555123329163
1630573799814,0.5585132241249084,1.6882555484771729,0.2640740275382995,0.5465856194496155
1630573799910,0.5501080751419067,1.6882555484771729,0.2564140260219574,0.5469163656234741
1630573800062,0.5501495599746704,1.6882555484771729,0.2413668185472488,0.5423404574394226
1630573800173,0.5634704828262329,1.6882555484771729,0.2165137827396392,0.5304710268974304
1630573800232,0.5838630199432373,1.6882555484771729,0.1806506663560867,0.5136727094650269
1630573800350,0.6000385880470276,1.6882555484771729,0.1389175057411193,0.4985833764076233
1630573800431,0.6055493354797363,1.6882555484771729,0.1044010147452354,0.4887371957302093
1630573800527,0.6010228395462036,1.6882555484771729,0.0946289077401161,0.4805799722671509
1630573800665,0.5905226469039917,1.6882555484771729,0.1172346845269203,0.4683424830436706
1630573800754,0.5781837105751038,1.6882555484771729,0.1596030443906784,0.4531790018081665
1630573800851,0.5670393705368042,1.6882555484771729,0.1996949762105941,0.4439541399478912
1630573800937,0.5593550205230713,1.6882555484771729,0.2219370156526565,0.4462563991546631
1630573801036,0.5554668307304382,1.6882555484771729,0.2235477864742279,0.4458574056625366
1630573801175,0.5559879541397095,1.6882555484771729,0.2123127728700637,0.450749933719635
1630573801314,0.5635603666305542,1.6882555484771729,0.1997700780630111,0.4565887749195099
1630573801384,0.5794093608856201,1.6882555484771729,0.2023241966962814,0.4614771604537964
1630573801511,0.5998285412788391,1.6882555484771729,0.2105206102132797,0.4674704968929291
1630573801622,0.6146348118782043,1.6882555484771729,0.2228122502565384,0.4781718850135803
1630573801661,0.6141719222068787,1.6882555484771729,0.2382320612668991,0.496459811925888
1630573801757,0.5967360138893127,1.6882555484771729,0.2574857175350189,0.5211740732192993
1630573801879,0.572833240032196,1.6882555484771729,0.2814692556858063,0.54525226354599
1630573801988,0.5570546984672546,1.6882555484771729,0.3084342777729034,0.5616697072982788
1630573802087,0.5549709796905518,1.6882555484771729,0.3291159868240356,0.5708659887313843
1630573802170,0.5549709796905518,1.6882555484771729,0.327759712934494,0.5708659887313843
1630573802269,0.5549709796905518,1.6882555484771729,0.290511280298233,0.5708659887313843
1630573802364,0.5549709796905518,1.6882555484771729,0.2153711169958114,0.5708659887313843
1630573802537,0.5549709796905518,1.6882555484771729,0.2153711169958114,0.5708659887313843
1630573802599,0.5549709796905518,1.6882555484771729,0.2153711169958114,0.5708659887313843
1630573802683,0.5549709796905518,1.6882555484771729,0.2153711169958114,0.5708659887313843
1630573802784,0.5549709796905518,1.6882555484771729,0.2153711169958114,0.5708659887313843
1630573802885,0.5549709796905518,1.6882555484771729,0.2153711169958114,0.5708659887313843
1630573803003,0.5549709796905518,1.6882555484771729,0.2153711169958114,0.5708659887313843
1630573803125,0.5549709796905518,1.6882555484771729,0.2153711169958114,0.5708659887313843
1630573803220,0.5549709796905518,1.6882555484771729,0.2153711169958114,0.5708659887313843
1630573803282,0.5549709796905518,1.6882555484771729,0.2153711169958114,0.5708659887313843
1630573803387,0.5549709796905518,1.6882555484771729,0.2153711169958114,0.5708659887313843
1630573803467,0.5549709796905518,1.6882555484771729,0.2153711169958114,0.5708659887313843
1630573803553,0.5549709796905518,1.6882555484771729,0.2153711169958114,0.5708659887313843
1630573803719,0.5549709796905518,1.6882555484771729,0.2153711169958114,0.5708659887313843
1630573803819,0.5549709796905518,1.6882555484771729,0.2153711169958114,0.5708659887313843
1630573803921,0.5549709796905518,1.6882555484771729,0.6679710745811462,0.5708659887313843
1630573804002,0.5549709796905518,1.6882555484771729,0.6006401777267456,0.5708659887313843
1630573804122,0.5549709796905518,1.6882555484771729,0.53312087059021,0.5708659887313843
1630573804184,0.5549709796905518,1.6882555484771729,0.3772383630275726,0.5708659887313843
1630573804330,0.5549709796905518,1.6882555484771729,0.052897211164236,0.5708659887313843
1630573804437,0.5549709796905518,1.6882555484771729,0.0565298944711685,0.5708659887313843
1630573804499,0.5549709796905518,1.6882555484771729,0.0731713771820068,0.5708659887313843
1630573804589,0.5549709796905518,1.6882555484771729,0.0898958295583725,0.5708659887313843
1630573804698,0.5549709796905518,1.6882555484771729,0.1015212535858154,0.5708659887313843
1630573804817,0.5549709796905518,1.6882555484771729,0.1110478043556213,0.5708659887313843
1630573804953,0.5549709796905518,1.6882555484771729,0.1231326833367347,0.5708659887313843
1630573805034,0.5549709796905518,1.6882555484771729,0.1381935775279998,0.8232971429824829
1630573805139,0.5549709796905518,1.6882555484771729,0.1533276587724685,0.8163986206054688
1630573805230,0.9370075464248656,1.6882555484771729,0.1689961552619934,0.811147928237915
1630573805307,0.9318899512290956,1.6882555484771729,0.1876555830240249,0.8075692057609558
1630573805433,0.9346423745155334,1.6882555484771729,0.2152227759361267,0.8027366399765015
1630573805543,0.9394627809524536,1.6882555484771729,0.2432413101196289,0.7934942841529846
1630573805664,0.9444011449813844,1.6882555484771729,0.268559068441391,0.7789244055747986
1630573805727,0.9444011449813844,1.6882555484771729,0.2893758416175842,0.7789244055747986
1630573805838,0.9444011449813844,1.6882555484771729,0.3046452403068542,0.7789244055747986
1630573805900,0.9444011449813844,1.6882555484771729,0.3132577538490295,0.7789244055747986
1630573806022,0.9444011449813844,1.6882555484771729,0.3161498606204986,0.7789244055747986
1630573806153,0.9444011449813844,1.6882555484771729,0.3158688545227051,0.7789244055747986
1630573806236,0.9444011449813844,1.6882555484771729,0.3137993812561035,0.7692959904670715
1630573806338,0.9444011449813844,1.6882555484771729,0.3083818554878235,0.7625534534454346
1630573806420,0.9441629648208618,1.6882555484771729,0.2975730895996094,0.7551541328430176
1630573806502,0.9407398700714112,1.6882555484771729,0.2824169993400574,0.7466053366661072
1630573806618,0.941913366317749,1.6882555484771729,0.2809204459190368,0.737908661365509
1630573806755,0.9516709446907043,1.6882555484771729,0.2765955626964569,0.7256079912185669
1630573806866,0.9516709446907043,1.6882555484771729,0.2658021748065948,0.7256079912185669
1630573806953,0.9516709446907043,1.6882555484771729,0.244384691119194,0.7256079912185669
1630573807085,0.9516709446907043,1.6882555484771729,0.2136889994144439,0.7256079912185669
1630573807121,0.9516709446907043,1.6882555484771729,0.1806847751140594,0.7256079912185669
1630573807273,0.9516709446907043,1.6882555484771729,0.151391327381134,0.7256079912185669
1630573807380,0.9516709446907043,1.6882555484771729,0.1251958757638931,0.7256079912185669
1630573807503,0.9516709446907043,1.6882555484771729,0.0995950475335121,0.7256079912185669
1630573807572,0.9516709446907043,1.6882555484771729,0.071136474609375,0.7256079912185669
1630573807648,0.9516709446907043,1.6882555484771729,0.036902479827404,0.7256079912185669
1630573807750,0.9516709446907043,1.6882555484771729,0.036902479827404,0.7256079912185669
1630573807850,0.9516709446907043,1.6882555484771729,0.036902479827404,0.7256079912185669
1630573807987,0.9516709446907043,1.6882555484771729,0.036902479827404,0.7256079912185669
1630573808136,0.9516709446907043,1.6882555484771729,0.036902479827404,0.7256079912185669
1630573808183,0.9516709446907043,1.6882555484771729,0.036902479827404,0.7256079912185669
1630573808275,0.9516709446907043,1.6882555484771729,0.036902479827404,0.7256079912185669
1630573808369,0.9516709446907043,1.6882555484771729,0.036902479827404,0.7256079912185669
1630573808464,0.9516709446907043,1.6882555484771729,0.036902479827404,0.7256079912185669
1630573808559,0.9516709446907043,1.6882555484771729,0.036902479827404,0.7256079912185669
1630573808694,0.9516709446907043,1.6882555484771729,0.036902479827404,0.7256079912185669
1630573808798,0.9516709446907043,1.6882555484771729,0.6003301739692688,0.7256079912185669
1630573808904,0.9516709446907043,1.6882555484771729,0.5704469084739685,0.7256079912185669
1630573808971,0.9516709446907043,1.6882555484771729,0.5426161289215088,0.7256079912185669
1630573809087,0.9516709446907043,1.6882555484771729,0.5179480314254761,0.7256079912185669
1630573809205,0.9516709446907043,1.6882555484771729,0.497693806886673,0.7256079912185669
1630573809310,0.9516709446907043,1.6882555484771729,0.480443924665451,0.7256079912185669
1630573809404,0.9516709446907043,1.6882555484771729,0.4637554585933685,0.7256079912185669
1630573809481,0.9516709446907043,1.6882555484771729,0.446363091468811,0.7256079912185669
1630573809638,0.9516709446907043,1.6882555484771729,0.428698182106018,0.7256079912185669
1630573809672,0.9516709446907043,1.6882555484771729,0.4119820296764374,0.7256079912185669
1630573809801,0.9516709446907043,1.6882555484771729,0.3983384966850281,0.7256079912185669
1630573809884,0.9516709446907043,1.6882555484771729,0.3893387913703918,0.7256079912185669
1630573809989,0.9516709446907043,1.6882555484771729,0.3506529927253723,0.7256079912185669
1630573810089,0.9516709446907043,1.6882555484771729,0.3260951042175293,0.7256079912185669
1630573810218,0.9516709446907043,1.6882555484771729,0.3113178610801697,0.7256079912185669
1630573810263,0.9516709446907043,1.6882555484771729,0.3012218177318573,0.7256079912185669
1630573810421,0.9516709446907043,1.6882555484771729,0.2956381440162658,0.7256079912185669
1630573810483,0.9516709446907043,1.6882555484771729,0.2957788109779358,0.7256079912185669
1630573810605,0.9516709446907043,1.6882555484771729,0.3002610206604004,0.7256079912185669
1630573810709,0.9516709446907043,1.6882555484771729,0.3051048815250397,0.7256079912185669
1630573810788,0.5943441987037659,1.6882555484771729,0.3088326454162597,0.7256079912185669
1630573810920,0.607490599155426,1.6882555484771729,0.3125462830066681,0.7864450216293335
1630573811020,0.6171823740005493,1.6882555484771729,0.3169397115707397,0.7864450216293335
1630573811156,0.6171823740005493,1.6882555484771729,0.3210010826587677,0.7864450216293335
1630573811222,0.6171823740005493,1.6882555484771729,0.324038416147232,0.7864450216293335
1630573811300,0.6171823740005493,1.6882555484771729,0.3273201584815979,0.7864450216293335
1630573811436,0.6171823740005493,1.6882555484771729,0.3322749733924866,0.7864450216293335
1630573811514,0.6171823740005493,1.6882555484771729,0.3375136256217956,0.7864450216293335
1630573811653,0.6214081645011902,1.6882555484771729,0.3406298756599426,0.7864450216293335
1630573811745,0.6194157004356384,1.6882555484771729,0.3421256244182586,0.7338120341300964
1630573811855,0.6097366213798523,1.6882555484771729,0.3451533913612366,0.712783694267273
1630573811948,0.5959911346435547,1.6882555484771729,0.3521530330181122,0.6957882046699524
1630573811995,0.581271231174469,1.6882555484771729,0.3616310954093933,0.6794058680534363
1630573812105,0.5733339190483093,1.6882555484771729,0.3699237108230591,0.6891406774520874
1630573812237,0.5734586715698242,1.6882555484771729,0.3749258816242218,0.6891406774520874
1630573812322,0.5688473582267761,1.6882555484771729,0.3755461275577545,0.6891406774520874
1630573812416,0.5547595024108887,1.6882555484771729,0.3785229921340942,0.7062854170799255
1630573812518,0.5338540077209473,1.6882555484771729,0.3844158351421356,0.7062854170799255
1630573812737,0.5338540077209473,1.6882555484771729,0.4083382189273834,0.7062854170799255
1630573812850,0.5338540077209473,1.6882555484771729,0.4226276278495788,0.7062854170799255
1630573812972,0.5338540077209473,1.6882555484771729,0.4325079321861267,0.7062854170799255
1630573813072,0.5338540077209473,1.6882555484771729,0.4373044967651367,0.7062854170799255
1630573813132,0.5074958205223083,1.6882555484771729,0.4408097863197326,0.7062854170799255
1630573813238,0.4791998267173767,1.6882555484771729,0.446615606546402,0.6991936564445496
1630573813336,0.4791998267173767,1.6882555484771729,0.4535868763923645,0.6991936564445496
1630573813483,0.4791998267173767,1.6882555484771729,0.4545835554599762,0.6991936564445496
1630573813606,0.4791998267173767,1.6882555484771729,0.4545835554599762,0.6991936564445496
1630573813639,0.4791998267173767,1.6882555484771729,0.4545835554599762,0.6991936564445496
1630573813752,0.4791998267173767,1.6882555484771729,0.4545835554599762,0.6991936564445496
1630573813823,0.4791998267173767,1.6882555484771729,0.4545835554599762,0.6991936564445496
1630573813938,0.4791998267173767,1.6882555484771729,0.4545835554599762,0.6991936564445496
1630573814069,0.4791998267173767,1.6882555484771729,0.4545835554599762,0.6991936564445496
1630573814187,0.4791998267173767,1.6882555484771729,0.4545835554599762,0.6991936564445496
1630573814302,0.4791998267173767,1.6882555484771729,0.4545835554599762,0.6991936564445496
1630573814367,0.4791998267173767,1.6882555484771729,0.3028863966464996,0.6991936564445496
1630573814494,0.4791998267173767,1.6882555484771729,0.3579570055007934,0.6991936564445496
1630573814573,0.4791998267173767,1.6882555484771729,0.3779083490371704,0.6991936564445496
1630573814705,0.4791998267173767,1.6882555484771729,0.3702593445777893,0.6991936564445496
1630573814771,0.4791998267173767,1.6882555484771729,0.3482133150100708,0.6991936564445496
1630573814890,0.4791998267173767,1.6882555484771729,0.3245692551136017,0.6991936564445496
1630573814980,0.4791998267173767,1.6882555484771729,0.3050817549228668,0.6991936564445496
1630573815090,0.4791998267173767,1.6882555484771729,0.2883698940277099,0.6991936564445496
1630573815137,0.5150007605552673,1.6882555484771729,0.2714121341705322,0.6991936564445496
1630573815288,0.5066319108009338,1.6882555484771729,0.2533860206604004,0.6991936564445496
1630573815379,0.4988962411880493,1.6882555484771729,0.2369149327278137,0.6611711978912354
1630573815506,0.495807409286499,1.6882555484771729,0.2248153686523437,0.6491010785102844
1630573815596,0.5026326179504395,1.6882555484771729,0.2292624562978744,0.6347124576568604
1630573815691,0.5162729024887085,1.6882555484771729,0.2284624725580215,0.622538685798645
1630573815752,0.5270644426345825,1.6882555484771729,0.2155538201332092,0.6187718510627747
1630573815889,0.5290541648864746,1.6882555484771729,0.1885284185409546,0.6223214864730835
1630573815987,0.5242738723754883,1.6882555484771729,0.1544950157403946,0.6247708797454834
1630573816081,0.518108606338501,1.6882555484771729,0.1263609528541565,0.6192303895950317
1630573816202,0.508253276348114,1.6882555484771729,0.1127231866121292,0.6050116419792175
1630573816263,0.5047674179077148,1.6882555484771729,0.110626570880413,0.5864748358726501
1630573816369,0.5096667408943176,1.6882555484771729,0.1105822399258613,0.5682237148284912
1630573816512,0.5141962170600891,1.6882555484771729,0.1088571026921272,0.5533884167671204
1630573816639,0.5192368626594543,1.6882555484771729,0.1105115339159965,0.5334932208061218
1630573816717,0.5254439115524292,1.6882555484771729,0.1205066666007042,0.5226098895072937
1630573816769,0.5269308686256409,1.6882555484771729,0.1376154124736786,0.5219642519950867
1630573816920,0.5261190533638,1.6882555484771729,0.1547514796257019,0.5263136625289917
1630573816986,0.5239406824111938,1.6882555484771729,0.1658638268709182,0.5320396423339844
1630573817125,0.5172566175460815,1.6882555484771729,0.1675958633422851,0.5385595560073853
1630573817201,0.5032041668891907,1.6882555484771729,0.1604800820350647,0.5426682233810425
1630573817346,0.4845793843269348,1.6882555484771729,0.1467774361371994,0.537407398223877
1630573817399,0.4688479900360107,1.6882555484771729,0.1301203370094299,0.5194694399833679
1630573817488,0.4600077271461487,1.6882555484771729,0.1128705963492393,0.4953542053699493
1630573817605,0.4547843933105469,1.6882555484771729,0.0997047647833824,0.4765057563781738
1630573817737,0.4479661285877228,1.6882555484771729,0.1004892140626907,0.4698933362960815
1630573817872,0.4365150034427643,1.6882555484771729,0.120396040380001,0.4747993946075439
1630573817940,0.4206717014312744,1.6882555484771729,0.1525270640850067,0.4891444742679596
1630573818056,0.4025480151176452,1.6882555484771729,0.183683156967163,0.5109570622444153
1630573818101,0.3876756131649017,1.6882555484771729,0.2059605419635772,0.5334781408309937
1630573818193,0.3818835318088531,1.6882555484771729,0.2196570932865142,0.5475161075592041
1630573818353,0.3851070702075958,1.6882555484771729,0.2283672988414764,0.5487732887268066
1630573818445,0.3900122344493866,1.6882555484771729,0.2351409941911697,0.5400881171226501
1630573818512,0.3889537155628204,1.6882555484771729,0.2423925846815109,0.5266784429550171
1630573818649,0.3815463185310364,1.6882555484771729,0.2512438297271728,0.5112704038619995
1630573818723,0.3732426166534424,1.6882555484771729,0.2603719234466553,0.4956571757793426
1630573818798,0.3686738908290863,1.6882555484771729,0.268071174621582,0.4838813245296478
1630573818957,0.3674410283565521,1.6882555484771729,0.2737984359264374,0.479804664850235
1630573819056,0.3689477443695068,1.6882555484771729,0.2793121337890625,0.4816678762435913
1630573819136,0.3761919438838959,1.6882555484771729,0.2850188016891479,0.4836491644382477
1630573819271,0.3937621414661407,1.6882555484771729,0.2881000638008117,0.4814774394035339
1630573819317,0.4195707738399505,1.6882555484771729,0.2873952686786651,0.4735308587551117
1630573819435,0.4452168047428131,1.6882555484771729,0.2863820493221283,0.457143634557724
1630573819555,0.4630208909511566,1.6882555484771729,0.2888091504573822,0.4278088808059692
1630573819648,0.4691896140575409,1.6882555484771729,0.2925111055374145,0.3843370974063873
1630573819755,0.4648874998092651,1.6882555484771729,0.2924998104572296,0.3318652510643005
1630573819867,0.4545490443706512,1.6882555484771729,0.2872048914432525,0.2802290916442871
1630573819939,0.4464799463748932,1.6882555484771729,0.2808061242103576,0.2375658750534057
1630573820051,0.4487376511096954,1.6882555484771729,0.2782427072525024,0.2079828828573227
1630573820285,0.485596626996994,1.6882555484771729,0.2864984571933746,0.2066270411014557
1630573820370,0.5079095363616943,1.6882555484771729,0.2929651439189911,0.236519381403923
1630573820454,0.5248660445213318,1.6882555484771729,0.2994135320186615,0.2745151817798614
1630573820532,0.5323919653892517,1.6882555484771729,0.3060478568077087,0.311316579580307
1630573820634,0.5284871459007263,1.6882555484771729,0.3128137290477752,0.3458288908004761
1630573820768,0.5136604905128479,1.6882555484771729,0.3186078667640686,0.3797632157802582
1630573820921,0.4928650856018066,1.6882555484771729,0.3211371302604675,0.4106189906597137
1630573820985,0.473043829202652,1.6882555484771729,0.3177360892295837,0.4336150884628296
1630573821098,0.4585358500480652,1.6882555484771729,0.3074019849300384,0.4489291310310364
1630573821162,0.4503825008869171,1.6882555484771729,0.2938283085823059,0.4611425995826721
1630573821270,0.4478638768196106,1.6882555484771729,0.2849130928516388,0.4755234718322754
1630573821381,0.4490894973278045,1.6882555484771729,0.2864403128623962,0.4953964948654175
1630573821496,0.4484274089336395,1.6882555484771729,0.2948294281959533,0.5203890204429626
1630573821579,0.440348207950592,1.6882555484771729,0.3005137145519256,0.5471966862678528
1630573821704,0.4234955906867981,1.6882555484771729,0.2970438301563263,0.5701561570167542
1630573821764,0.4033938348293304,1.6882555484771729,0.286273181438446,0.5845774412155151
1630573821837,0.3880800604820251,1.6882555484771729,0.2752671837806701,0.5890669226646423
1630573822006,0.3816362917423248,1.6882555484771729,0.2682114839553833,0.585828423500061
1630573822082,0.3832534551620483,1.6882555484771729,0.2633330821990967,0.5775740742683411
1630573822168,0.3919492661952972,1.6882555484771729,0.2552127540111542,0.5652806162834167
1630573822271,0.4073109924793243,1.6882555484771729,0.2393141686916351,0.5497318506240845
1630573822402,0.4260058999061584,1.6882555484771729,0.2145823240280151,0.5346063375473022
1630573822466,0.4437625706195831,1.6882555484771729,0.1842502057552337,0.5253189206123352
1630573822605,0.4583246111869812,1.6882555484771729,0.1552691012620926,0.5225193500518799
1630573822767,0.4695411324501037,1.6882555484771729,0.1331748217344284,0.5223320126533508
1630573822812,0.4780230522155761,1.6882555484771729,0.1161369457840919,0.5215084552764893
1630573822924,0.4844601452350616,1.6882555484771729,0.0965112894773483,0.5187515020370483
1630573822973,0.4906170964241028,1.6882555484771729,0.0705674365162849,0.5124997496604919
1630573823099,0.4971630275249481,1.6882555484771729,0.0443139187991619,0.5002772808074951
1630573823209,0.502942681312561,1.6882555484771729,0.0320519469678401,0.4826591610908508
1630573823313,0.5051922798156738,1.6882555484771729,0.0421516820788383,0.4652260243892669
1630573823414,0.5029030442237854,1.6882555484771729,0.0676089078187942,0.4486980736255646
1630573823504,0.5001652240753174,1.6882555484771729,0.0951887965202331,0.4347372651100158
1630573823583,0.5019967555999756,1.6882555484771729,0.116188995540142,0.4255017638206482
1630573823670,0.5081191658973694,1.6882555484771729,0.1294678896665573,0.4232790470123291
1630573823840,0.5114433765411377,1.6882555484771729,0.1375587433576584,0.4276259243488312
1630573823900,0.5075013637542725,1.6882555484771729,0.1440563052892685,0.4342884123325348
1630573824021,0.5004268884658813,1.6882555484771729,0.1510551571846008,0.4392675161361694
1630573824104,0.4983222782611847,1.6882555484771729,0.1577705442905426,0.4444850087165832
1630573824220,0.5039358735084534,1.6882555484771729,0.1610295176506042,0.4556026458740234
1630573824289,0.5129881501197815,1.6882555484771729,0.1589155495166778,0.4724919497966766
1630573824427,0.5210261344909668,1.6882555484771729,0.153919979929924,0.4724919497966766
1630573824572,0.5274469256401062,1.6882555484771729,0.1504877209663391,0.4724919497966766
1630573824613,0.5348432064056396,1.6882555484771729,0.1553868353366851,0.4724919497966766
1630573824715,0.547404944896698,1.6882555484771729,0.1566705554723739,0.4724919497966766
1630573824809,0.56528639793396,1.6882555484771729,0.148897185921669,0.4724919497966766
1630573824907,0.5831303596496582,1.6882555484771729,0.1282126158475875,0.4724919497966766
1630573825053,0.5906661748886108,1.6882555484771729,0.0947400331497192,0.4724919497966766
1630573825139,0.5950537323951721,1.6882555484771729,0.0530815199017524,0.4724919497966766
1630573825218,0.5967018604278564,1.6882555484771729,0.0116520822048187,0.4724919497966766
1630573825300,0.5996471643447876,1.6882555484771729,-0.0204079579561948,0.4724919497966766
1630573825404,0.6074555516242981,1.6882555484771729,-0.0406533852219581,0.4724919497966766
1630573825514,0.6180887818336487,1.6882555484771729,-0.0543837957084178,0.4724919497966766
1630573825670,0.6256202459335327,1.6882555484771729,-0.0657805800437927,0.4724919497966766
1630573825766,0.6270267367362976,1.6882555484771729,-0.0657805800437927,0.4724919497966766
1630573825870,0.6255601048469543,1.6882555484771729,-0.0657805800437927,0.4724919497966766
1630573825931,0.6285035014152527,1.6882555484771729,-0.0657805800437927,0.4724919497966766
1630573826093,0.6415035128593445,1.6882555484771729,-0.0657805800437927,0.4724919497966766
1630573826158,0.6415035128593445,1.6882555484771729,-0.0657805800437927,0.4724919497966766
1630573826289,0.6415035128593445,1.6882555484771729,-0.0657805800437927,0.4724919497966766
1630573826337,0.6415035128593445,1.6882555484771729,-0.0657805800437927,0.4724919497966766
1630573826447,0.6415035128593445,1.6882555484771729,-0.0657805800437927,0.4724919497966766
1630573826576,0.6415035128593445,1.6882555484771729,0.102696917951107,0.5896190404891968
1630573826656,0.6415035128593445,1.6882555484771729,0.0584827624261379,0.5699335932731628
1630573826756,0.6415035128593445,1.6882555484771729,0.0227396208792924,0.5556931495666504
1630573826866,0.6415035128593445,1.6882555484771729,0.0071554668247699,0.5455954074859619
1630573826988,0.702899694442749,1.6882555484771729,0.0168260019272565,0.5360198020935059
1630573827055,0.6848353743553162,1.6882555484771729,0.0482781156897544,0.526258647441864
1630573827133,0.6531780958175659,1.6882555484771729,0.0883811488747596,0.5183067917823792
1630573827236,0.6177407503128052,1.6882555484771729,0.1214374527335167,0.51326984167099
1630573827336,0.5858936905860901,1.6882555484771729,0.137789100408554,0.5108940601348877
1630573827504,0.5598443150520325,1.6882555484771729,0.1371332108974456,0.512249767780304
1630573827598,0.5399352312088013,1.6882555484771729,0.1258308887481689,0.5191183686256409
1630573827672,0.5261421203613281,1.6882555484771729,0.1116937920451164,0.5302616953849792
1630573827771,0.5179116129875183,1.6882555484771729,0.093123935163021,0.5337528586387634
1630573827869,0.4828538298606872,1.6882555484771729,0.0783846974372863,0.5367038249969482
1630573827975,0.4851846992969513,1.6882555484771729,0.0717176645994186,0.5390695333480835
1630573828103,0.4885253608226776,1.6882555484771729,0.0749715194106102,0.5425607562065125
1630573828182,0.4907654523849487,1.6882555484771729,0.0854170173406601,0.5458722114562988
1630573828265,0.4801959991455078,1.6882555484771729,0.0979503244161605,0.5461453199386597
1630573828387,0.4648200571537018,1.6882555484771729,0.1065470203757286,0.5447478294372559
1630573828465,0.4525116980075836,1.6882555484771729,0.1067937165498733,0.5458570122718811
1630573828604,0.4529621303081512,1.6882555484771729,0.0985116064548492,0.5502858757972717
1630573828695,0.4660602211952209,1.6882555484771729,0.0878436863422393,0.5543880462646484
1630573828822,0.4829398691654205,1.6882555484771729,0.0845376551151275,0.5553336143493652
1630573828886,0.4959022104740143,1.6882555484771729,0.0941982194781303,0.5531288981437683
1630573829002,0.5031132698059082,1.6882555484771729,0.113294743001461,0.5482695698738098
1630573829081,0.5057250261306763,1.6882555484771729,0.1342058777809143,0.5392149686813354
1630573829175,0.5061825513839722,1.6882555484771729,0.1530234664678573,0.5248256921768188
1630573829287,0.5067785978317261,1.6882555484771729,0.1711145192384719,0.506503164768219
1630573829404,0.507823646068573,1.6882555484771729,0.19127057492733,0.4943172931671142
1630573829490,0.508629560470581,1.6882555484771729,0.2138048559427261,0.4843273162841797
1630573829586,0.5096487402915955,1.6882555484771729,0.2356101870536804,0.4758931696414947
1630573829689,0.513510525226593,1.6882555484771729,0.2528446316719055,0.4701182246208191
1630573829793,0.5205367207527161,1.6882555484771729,0.263430655002594,0.4689847230911255
1630573829913,0.5277593731880188,1.6882555484771729,0.2745286226272583,0.4705747663974762
1630573830012,0.5247970223426819,1.6882555484771729,0.286281019449234,0.4691224694252014
1630573830104,0.5176168084144592,1.6882555484771729,0.2965189218521118,0.4618237912654876
1630573830176,0.5086392164230347,1.6882555484771729,0.3012260496616363,0.4527539014816284
1630573830297,0.501924991607666,1.6882555484771729,0.2979180514812469,0.4477977752685547
1630573830425,0.5018334984779358,1.6882555484771729,0.2891848683357239,0.4489582777023315
1630573830526,0.5101763606071472,1.6882555484771729,0.2824989557266235,0.4489582777023315
1630573830614,0.5257552266120911,1.6882555484771729,0.2850129306316376,0.4489582777023315
1630573830705,0.5443959832191467,1.6882555484771729,0.2971818447113037,0.4489582777023315
1630573830788,0.5613107681274414,1.6882555484771729,0.31263068318367,0.4489582777023315
1630573830907,0.5746244192123413,1.6882555484771729,0.3219339251518249,0.4489582777023315
1630573830992,0.5864014029502869,1.6882555484771729,0.3219339251518249,0.4489582777023315
1630573831116,0.5864014029502869,1.6882555484771729,0.3219339251518249,0.4489582777023315
1630573831235,0.5864014029502869,1.6882555484771729,0.3219339251518249,0.4489582777023315
1630573831320,0.5864014029502869,1.6882555484771729,0.3219339251518249,0.4489582777023315
1630573831443,0.5864014029502869,1.6882555484771729,0.3219339251518249,0.4489582777023315
1630573831523,0.5864014029502869,1.6882555484771729,0.3219339251518249,0.4489582777023315
1630573831627,0.5864014029502869,1.6882555484771729,0.3219339251518249,0.4489582777023315
1630573831738,0.5864014029502869,1.6882555484771729,0.3219339251518249,0.4489582777023315
1630573831831,0.5864014029502869,1.6882555484771729,0.3219339251518249,0.4489582777023315
1630573831917,0.5864014029502869,1.6882555484771729,0.3219339251518249,0.4489582777023315
1630573832009,0.5864014029502869,1.6882555484771729,0.3219339251518249,0.4489582777023315
1630573832102,0.5864014029502869,1.6882555484771729,0.3219339251518249,0.4489582777023315
1630573832189,0.5864014029502869,1.6882555484771729,0.3219339251518249,0.4489582777023315
1630573832331,0.5864014029502869,1.6882555484771729,0.051582533866167,0.4489582777023315
1630573832444,0.5864014029502869,1.6882555484771729,0.0741760358214378,0.4489582777023315
1630573832560,0.5864014029502869,1.6882555484771729,0.0824103057384491,0.4489582777023315
1630573832631,0.5864014029502869,1.6882555484771729,0.0926008820533752,0.4489582777023315
1630573832706,0.5864014029502869,1.6882555484771729,0.1315266489982605,0.4489582777023315
1630573832815,0.6735910177230835,1.6882555484771729,0.1797123551368713,0.4489582777023315
1630573832989,0.6896026730537415,1.6882555484771729,0.2199155390262603,0.66689532995224
1630573833051,0.6901274919509888,1.6882555484771729,0.2293773293495178,0.6500756144523621
1630573833158,0.6775413751602173,1.6882555484771729,0.2305772453546524,0.6340389251708984
1630573833289,0.6562528610229492,1.6882555484771729,0.2300718277692794,0.617020845413208
1630573833351,0.631953775882721,1.6882555484771729,0.2323996871709823,0.5984562039375305
1630573833444,0.6092712879180908,1.6882555484771729,0.237515777349472,0.5814067125320435
1630573833587,0.5908222198486328,1.6882555484771729,0.2425020933151245,0.570924699306488
1630573833706,0.5774869322776794,1.6882555484771729,0.244126483798027,0.570357084274292
1630573833767,0.5698453783988953,1.6882555484771729,0.2401613295078277,0.5757604837417603
1630573833891,0.5706263184547424,1.6882555484771729,0.2316202819347381,0.5799587965011597
1630573833936,0.5833368897438049,1.6882555484771729,0.2232358306646347,0.5793333053588867
1630573834116,0.6080803275108337,1.6882555484771729,0.2173035144805908,0.5752537250518799
1630573834179,0.6297132968902588,1.6882555484771729,0.2128729671239853,0.5597922205924988
1630573834290,0.6366558074951172,1.6882555484771729,0.2065019756555557,0.549936056137085
1630573834385,0.6262651085853577,1.6882555484771729,0.1964102983474731,0.5491967797279358
1630573834469,0.6056074500083923,1.6882555484771729,0.1843238770961761,0.5554564595222473
1630573834558,0.5845447182655334,1.6882555484771729,0.1735485941171646,0.5629210472106934
1630573834667,0.5691643953323364,1.6882555484771729,0.166075512766838,0.5687152147293091
1630573834869,0.5755607485771179,1.6882555484771729,0.1615242660045623,0.5753436088562012
1630573834906,0.5882532596588135,1.6882555484771729,0.1572434306144714,0.5867396593093872
1630573835017,0.6044816374778748,1.6882555484771729,0.149629071354866,0.6018339991569519
1630573835077,0.6219507455825806,1.6882555484771729,0.1381317973136901,0.6145804524421692
1630573835204,0.6276637315750122,1.6882555484771729,0.1279119104146957,0.6185058355331421
