timestamp,TP9,AF7,AF8,TP10
1630573698989,0.3007550537586212,1.052668213844299,-0.0706265270709991,0.4721744060516357
1630573699034,0.2915658950805664,1.052668213844299,-0.0556012652814388,0.4647983908653259
1630573699157,0.2884066104888916,1.052668213844299,-0.0388917401432991,0.4578261077404022
1630573699236,0.2904834449291229,1.052668213844299,-0.0259351208806037,0.4513344466686249
1630573699296,0.2937820255756378,1.052668213844299,-0.015572584234178,0.4502016305923462
1630573699388,0.2993692755699157,1.052668213844299,-0.0088055664673447,0.4558846056461334
1630573699547,0.3065924346446991,1.052668213844299,-0.0096385162323713,0.4581228494644165
1630573699626,0.3153863847255707,1.052668213844299,-0.0190865695476531,0.4606017768383026
1630573699739,0.3220376372337341,1.052668213844299,-0.0363175719976425,0.4630813598632812
1630573699818,0.3285894691944122,1.052668213844299,-0.0548270195722579,0.4634002149105072
1630573699898,0.3346523344516754,1.052668213844299,-0.0668523386120796,0.4621464610099792
1630573700077,0.3402734696865082,1.052668213844299,-0.0698020979762077,0.4586808383464813
1630573700187,0.3482754230499267,1.052668213844299,-0.0658830031752586,0.4469771087169647
1630573700250,0.3585450351238251,1.052668213844299,-0.0646860376000404,0.4303033649921417
1630573700345,0.3734139204025268,1.052668213844299,-0.0712902173399925,0.4137466251850128
1630573700407,0.3925701379776001,1.052668213844299,-0.0851665213704109,0.39529749751091
1630573700519,0.415833055973053,1.052668213844299,-0.1007938906550407,0.3819145560264587
1630573700652,0.4433688819408417,1.052668213844299,-0.1127850636839866,0.3701425492763519
1630573700791,0.4511365592479706,1.052668213844299,-0.1196647137403488,0.3658981621265411
1630573700872,0.4612837135791778,1.052668213844299,-0.115405187010765,0.3633060157299042
1630573700971,0.4714399874210357,1.052668213844299,-0.0896234437823295,0.3558446764945984
1630573701067,0.5485609173774719,1.052668213844299,-0.0437736250460147,0.3494327068328857
1630573701117,0.6218891739845276,1.052668213844299,0.0065792864188551,0.3407249450683594
1630573701267,0.6742625832557678,1.052668213844299,0.0478571876883506,0.3327943980693817
1630573701368,0.6965553760528564,1.052668213844299,0.0761943832039833,0.3258788883686065
1630573701467,0.7000011801719666,1.052668213844299,0.0955861583352088,0.3202286660671234
1630573701531,0.6951833963394165,1.052668213844299,0.1074311733245849,0.313358724117279
1630573701670,0.6887470483779907,1.052668213844299,0.1109304949641227,0.3033857643604278
1630573701738,0.6837905049324036,1.052668213844299,0.1085151433944702,0.2934679388999939
1630573701819,0.6799733638763428,1.052668213844299,0.1039029359817504,0.2934679388999939
1630573701988,0.6753300428390503,1.052668213844299,0.1001095548272132,0.2934679388999939
1630573702064,0.6662071347236633,1.052668213844299,0.0978442877531051,0.2934679388999939
1630573702192,0.6499386429786682,1.052668213844299,0.0962243527173996,0.2934679388999939
1630573702270,0.6342785954475403,1.052668213844299,0.094268225133419,0.1526299566030502
1630573702389,0.6206850409507751,1.052668213844299,0.0882932692766189,0.1512407660484314
1630573702420,0.6095906496047974,1.052668213844299,0.0721203163266182,0.154831051826477
1630573702633,0.5594834089279175,1.052668213844299,0.0432099774479866,0.1635219156742096
1630573702681,0.4900156855583191,1.052668213844299,0.0058479653671383,0.1776446998119354
1630573702764,0.420387715101242,1.052668213844299,-0.0329430326819419,0.1946902424097061
1630573702920,0.3838960528373718,1.052668213844299,-0.0692591816186904,0.2109029442071914
1630573702997,0.3842082321643829,1.052668213844299,-0.1042536869645118,0.2246271818876266
1630573703044,0.4070647060871124,1.052668213844299,-0.1323739439249038,0.2338898181915283
1630573703201,0.4325104653835296,1.052668213844299,-0.1439960747957229,0.2406376898288726
1630573703337,0.4468608796596527,1.052668213844299,-0.137848287820816,0.2445770800113678
1630573703368,0.4462522268295288,1.052668213844299,-0.122161254286766,0.2445996403694152
1630573703554,0.4340961277484894,1.052668213844299,-0.1064391806721687,0.2468043267726898
1630573703589,0.4194273352622986,1.052668213844299,-0.0956294760107994,0.25225830078125
1630573703666,0.4201522767543793,1.052668213844299,-0.0904344916343689,0.2579751312732696
1630573703837,0.4229526221752167,1.052668213844299,-0.0889907553791999,0.2657843828201294
1630573703939,0.4256601929664612,1.052668213844299,-0.0901042520999908,0.2752227485179901
1630573704023,0.4266834259033203,1.052668213844299,-0.0955184400081634,0.2842871248722076
1630573704147,0.4276596307754516,1.052668213844299,-0.1066281497478485,0.2915957570075989
1630573704194,0.422156423330307,1.052668213844299,-0.1220531612634658,0.2947600185871124
1630573704257,0.4181537926197052,1.052668213844299,-0.1369397789239883,0.2923497259616852
1630573704436,0.4090688824653625,1.052668213844299,-0.145914077758789,0.2848745882511139
1630573704499,0.3868232667446136,1.052668213844299,-0.1481117308139801,0.2724295556545257
1630573704577,0.344187468290329,1.052668213844299,-0.1478890925645828,0.2583615481853485
1630573704769,0.2844401895999908,1.052668213844299,-0.1511669754981994,0.2583615481853485
1630573704798,0.2267884761095047,1.052668213844299,-0.1609473079442978,0.2583615481853485
1630573704904,0.2025820016860962,1.052668213844299,-0.1740081161260604,0.2583615481853485
1630573705066,0.2216504663228988,1.052668213844299,-0.18333201110363,0.2583615481853485
1630573705146,0.2576695382595062,1.052668213844299,-0.1855495721101761,0.2459682077169418
1630573705209,0.2782240211963653,1.052668213844299,-0.1822898089885711,0.2395959198474884
1630573705367,0.2880874872207641,1.052668213844299,-0.1776123195886612,0.2232731580734253
1630573705415,0.294199526309967,1.052668213844299,-0.1733119785785675,0.2038660049438476
1630573705494,0.3033832907676697,1.052668213844299,-0.1685815304517746,0.1825455278158188
1630573705638,0.3148315846920013,1.052668213844299,-0.1634798347949981,0.1593578606843948
1630573705736,0.3234703242778778,1.052668213844299,-0.1580835133790969,0.1386869102716446
1630573705812,0.3274198770523071,1.052668213844299,-0.1512055695056915,0.1386869102716446
1630573705936,0.3274759352207184,1.052668213844299,-0.141414925456047,0.1386869102716446
1630573706068,0.3262480497360229,1.052668213844299,-0.1271903067827224,0.1386869102716446
1630573706116,0.3284157514572143,1.052668213844299,-0.1087464764714241,0.1386869102716446
1630573706262,0.3351007401943207,1.052668213844299,-0.0897168591618537,0.1386869102716446
1630573706324,0.3428649306297302,1.052668213844299,-0.0761517882347107,0.2263261973857879
1630573706426,0.3447222113609314,1.052668213844299,-0.0732923150062561,0.2237199991941452
1630573706518,0.337906539440155,1.052668213844299,-0.08208479732275,0.2678208649158478
1630573706629,0.3273170590400696,1.052668213844299,-0.0989979803562164,0.2650414705276489
1630573706721,0.3205943405628204,1.052668213844299,-0.1181340590119361,0.2719758450984955
1630573706847,0.3196932375431061,1.052668213844299,-0.1356613487005233,0.2915951907634735
1630573706965,0.3228432536125183,1.052668213844299,-0.149234265089035,0.325577974319458
1630573707043,0.328366756439209,1.052668213844299,-0.1565457284450531,0.3799985945224762
1630573707164,0.3355124592781067,1.052668213844299,-0.157040849328041,0.4178200364112854
1630573707228,0.3419723808765411,1.052668213844299,-0.1550389379262924,0.4678584635257721
1630573707315,0.3446239233016968,1.052668213844299,-0.1576418578624725,0.4464744925498962
1630573707480,0.3439467847347259,1.052668213844299,-0.1686786413192749,0.4291573762893677
1630573707544,0.3414052724838257,1.052668213844299,-0.1890381425619125,0.4099850654602051
1630573707668,0.3358124494552612,1.052668213844299,-0.2170364558696746,0.3893793225288391
1630573707720,0.3258843719959259,1.052668213844299,-0.2475560754537582,0.3695329129695892
1630573707896,0.3133090138435364,1.052668213844299,-0.2724624276161194,0.3029631972312927
1630573707944,0.2990574240684509,1.052668213844299,-0.2872794866561889,0.2856336832046509
1630573708068,0.2825921773910522,1.052668213844299,-0.2950673699378967,0.222939983010292
1630573708165,0.2659769058227539,1.052668213844299,-0.2967339754104614,0.206011563539505
1630573708255,0.2574852406978607,1.052668213844299,-0.2868160009384155,0.1914995461702346
1630573708368,0.2644323706626892,1.052668213844299,-0.2638193964958191,0.1824614405632019
1630573708450,0.2790466248989105,1.052668213844299,-0.2403080016374588,0.1803940385580063
1630573708547,0.2843765914440155,1.052668213844299,-0.2311613410711288,0.1838092058897018
1630573708657,0.2706751227378845,1.052668213844299,-0.2369267642498016,0.1854088306427002
1630573708809,0.2458799630403518,1.052668213844299,-0.2432893216609954,0.1758336424827575
1630573708876,0.2267355173826217,1.052668213844299,-0.2368144243955612,0.1561342030763626
1630573708937,0.2211636900901794,1.052668213844299,-0.2207261323928833,0.1336487978696823
1630573709077,0.2258719354867935,1.052668213844299,-0.205416664481163,0.1154792979359626
1630573709144,0.2362732589244842,1.052668213844299,-0.1946305334568023,0.1044782549142837
1630573709316,0.2497585415840149,1.052668213844299,-0.1864767074584961,0.1029692217707634
1630573709411,0.2628023326396942,1.052668213844299,-0.1806317716836929,0.1156574785709381
1630573709500,0.2740322649478912,1.052668213844299,-0.1778219491243362,0.1435119658708572
1630573709590,0.2849688827991485,1.052668213844299,-0.1760866045951843,0.1793442964553833
1630573709697,0.2948064804077148,1.052668213844299,-0.1739718466997146,0.2119166105985641
1630573709748,0.2964056432247162,1.052668213844299,-0.1747695654630661,0.2339846044778823
1630573709905,0.284082680940628,1.052668213844299,-0.1813168376684188,0.2436593770980835
1630573710212,0.2431302815675735,1.052668213844299,-0.1776382029056549,0.2281754612922668
1630573710259,0.2485250532627105,1.052668213844299,-0.171087235212326,0.2194416671991348
1630573710399,0.253219723701477,1.052668213844299,-0.1726983785629272,0.2128648906946182
1630573710502,0.2556886672973633,1.052668213844299,-0.1762966811656952,0.2098340690135955
1630573710622,0.2565876543521881,1.052668213844299,-0.174476757645607,0.2094512730836868
1630573710736,0.2568704783916473,1.052668213844299,-0.1687674820423126,0.2082190960645675
1630573710773,0.2582711279392242,1.052668213844299,-0.164638876914978,0.2019534856081009
1630573710962,0.2667312026023865,1.052668213844299,-0.160562664270401,0.1886808276176452
1630573711022,0.2827260792255401,1.052668213844299,-0.1514408588409423,0.1685906499624252
1630573711132,0.2982678711414337,1.052668213844299,-0.1381351202726364,0.1440748870372772
1630573711194,0.3060198128223419,1.052668213844299,-0.1282031238079071,0.1198777630925178
1630573711341,0.3049216866493225,1.052668213844299,-0.1260477602481842,0.103518545627594
1630573711403,0.2986887693405151,1.052668213844299,-0.1298497468233108,0.1011114194989204
1630573711535,0.2901156842708587,1.052668213844299,-0.1365345120429992,0.1131191924214363
1630573711616,0.280993103981018,1.052668213844299,-0.1456064730882644,0.132824033498764
1630573711708,0.2743616104125976,1.052668213844299,-0.1567694544792175,0.1534458696842193
1630573711835,0.2732241451740265,1.052668213844299,-0.1666567623615265,0.171292170882225
1630573711915,0.2757913768291473,1.052668213844299,-0.1718831658363342,0.1846963912248611
1630573711989,0.2768530547618866,1.052668213844299,-0.1716053634881973,0.1932539790868759
1630573712086,0.2755597233772278,1.052668213844299,-0.1670864224433899,0.1998580992221832
1630573712203,0.2724257111549377,1.052668213844299,-0.1602577418088913,0.2084582597017288
1630573712319,0.2676373124122619,1.052668213844299,-0.1534446030855178,0.2190734297037124
1630573712420,0.2570531368255615,1.052668213844299,-0.1507549583911895,0.2272495329380035
1630573712510,0.238668754696846,1.052668213844299,-0.1556623429059982,0.230405643582344
1630573712634,0.2182575017213821,1.052668213844299,-0.1688569337129593,0.2312302142381668
1630573712736,0.2045000791549682,1.052668213844299,-0.1864637285470962,0.2348714470863342
1630573712798,0.2024215459823608,1.052668213844299,-0.2043766975402832,0.2433851212263107
1630573712971,0.2036290764808654,1.052668213844299,-0.2193417102098465,0.2546303868293762
1630573713062,0.2056132555007934,1.052668213844299,-0.2301344275474548,0.2633897364139557
1630573713138,0.2015263140201568,1.052668213844299,-0.2360460311174392,0.2652096152305603
1630573713258,0.1876468807458877,1.052668213844299,-0.2367554903030395,0.2591418325901031
1630573713300,0.1733010560274124,1.052668213844299,-0.2359919995069503,0.2481075227260589
1630573713434,0.1707155555486679,1.052668213844299,-0.2368685156106948,0.2357905060052871
1630573713529,0.1843398660421371,1.052668213844299,-0.2381657212972641,0.2229808717966079
1630573713652,0.2041461169719696,1.052668213844299,-0.2345098257064819,0.2076075971126556
1630573713743,0.2171873152256012,1.052668213844299,-0.2209962457418441,0.189237967133522
1630573713901,0.2180803269147873,1.052668213844299,-0.199571818113327,0.1723588854074478
1630573713933,0.2122253030538559,1.052668213844299,-0.1776779890060424,0.1630480736494064
1630573714027,0.2085542678833007,1.052668213844299,-0.1622531563043594,0.1617740541696548
1630573714164,0.2084809243679046,1.052668213844299,-0.1542283147573471,0.1618587225675583
1630573714286,0.2066155225038528,1.052668213844299,-0.1494027525186538,0.1558011621236801
1630573714385,0.1976539194583892,1.052668213844299,-0.1411548256874084,0.1411873698234558
1630573714469,0.1884626448154449,1.052668213844299,-0.1279532313346862,0.1195090413093566
1630573714548,0.1769799292087555,1.052668213844299,-0.1142602786421775,0.0941963270306587
1630573714651,0.1637542843818664,1.052668213844299,-0.1061627119779586,0.0701335072517395
1630573714768,0.1540832370519638,1.052668213844299,-0.1046667098999023,0.0525575429201126
1630573714867,0.1438149362802505,1.052668213844299,-0.1026035994291305,0.0462050251662731
1630573714964,0.1310001462697982,1.052668213844299,-0.0926707312464714,0.0529767759144306
1630573715015,0.1209418177604675,1.052668213844299,-0.0773392543196678,0.0731232017278671
1630573715134,0.1220525801181793,1.052668213844299,-0.0674321949481964,0.1032032743096351
1630573715225,0.1361280530691146,1.052668213844299,-0.0726127326488494,0.1348328441381454
1630573715424,0.1558101922273636,1.052668213844299,-0.0947770178318023,0.1589564532041549
1630573715500,0.1718738824129104,1.052668213844299,-0.1272508651018142,0.1717661470174789
1630573715587,0.1824238747358322,1.052668213844299,-0.1582629680633545,0.1763543933629989
1630573715656,0.1901379376649856,1.052668213844299,-0.1778139621019363,0.1794878542423248
1630573715782,0.1968438178300857,1.052668213844299,-0.1844253540039062,0.1854657679796219
1630573715845,0.2036391496658325,1.052668213844299,-0.1857244670391082,0.1951749473810196
1630573715988,0.2094157934188842,1.052668213844299,-0.1888208091259002,0.209134355187416
1630573716180,0.213734745979309,1.052668213844299,-0.193038672208786,0.2265387624502182
1630573716225,0.2167483121156692,1.052668213844299,-0.1911051720380783,0.2441885471343994
1630573716287,0.2196525782346725,1.052668213844299,-0.1786003857851028,0.2577639818191528
1630573716353,0.2242296636104583,1.052668213844299,-0.1631594151258468,0.2636486291885376
1630573716487,0.2264205515384674,1.052668213844299,-0.1590531319379806,0.2614009082317352
1630573716670,0.2184178829193115,1.052668213844299,-0.1743538826704025,0.2520421743392944
1630573716748,0.1957316696643829,1.052668213844299,-0.2037231624126434,0.2384882867336273
1630573716804,0.1633879095315933,1.052668213844299,-0.2296999245882034,0.2272644788026809
1630573716931,0.1342359185218811,1.052668213844299,-0.2337380647659301,0.2256538420915603
1630573716982,0.1163409873843193,1.052668213844299,-0.2125783413648605,0.2339426726102829
1630573717203,0.1045776680111885,1.052668213844299,-0.1784631609916687,0.2451606839895248
1630573717321,0.0906073376536369,1.052668213844299,-0.1439887285232544,0.2520359456539154
1630573717353,0.0717457309365272,1.052668213844299,-0.1143927052617073,0.2516362369060516
1630573717383,0.0544161200523376,1.052668213844299,-0.090006984770298,0.2433312684297561
1630573717480,0.047589935362339,1.052668213844299,-0.0708952695131301,0.225919708609581
1630573717604,0.05387494713068,1.052668213844299,-0.0589426346123218,0.1992414593696594
1630573717706,0.0693993344902992,1.052668213844299,-0.0563120879232883,0.1680488437414169
1630573717803,0.0879244804382324,1.052668213844299,-0.064363956451416,0.1407053023576736
1630573717935,0.1060076877474784,1.052668213844299,-0.0816411450505256,0.1245501413941383
1630573718021,0.123577281832695,1.052668213844299,-0.1019101589918136,0.1193628087639808
1630573718105,0.1372681260108947,1.052668213844299,-0.115798145532608,0.1182496771216392
1630573718235,0.1454803496599197,1.052668213844299,-0.1166382879018783,0.1132504269480705
1630573718268,0.1483650058507919,1.052668213844299,-0.1032871603965759,0.0983131229877471
1630573718448,0.1455810815095901,1.052668213844299,-0.0806362852454185,0.069485604763031
1630573718569,0.1411090940237045,1.052668213844299,-0.0579855404794216,0.0289777852594852
1630573718601,0.1382046490907669,1.052668213844299,-0.04382836073637,-0.011828688904643
1630573718711,0.1382341831922531,1.052668213844299,-0.0434248372912406,-0.0355517752468586
1630573718807,0.1402966231107711,1.052668213844299,-0.0564920268952846,-0.032334879040718
1630573718913,0.13973468542099,1.052668213844299,-0.0781561285257339,-0.0109128439798951
1630573719019,0.134942352771759,1.052668213844299,-0.1009737253189086,0.0125637026503682
1630573719102,0.1279374957084655,1.052668213844299,-0.1169630363583564,0.0316147468984127
1630573719214,0.1223539784550666,1.052668213844299,-0.1194354742765426,0.048264380544424
1630573719303,0.120181567966938,1.052668213844299,-0.1071882620453834,0.0666963905096054
1630573719410,0.1167890280485153,1.052668213844299,-0.0850581973791122,0.0850763693451881
1630573719476,0.1069369465112686,1.052668213844299,-0.0608213953673839,0.0982621163129806
1630573719633,0.0933753326535224,1.052668213844299,-0.0407851077616214,0.1059013605117797
1630573719753,0.0850755721330642,1.052668213844299,-0.0279940534383058,0.1120722070336341
1630573719840,0.0894654244184494,1.052668213844299,-0.0253716111183166,0.1194381564855575
1630573719909,0.1050872802734375,1.052668213844299,-0.0353399142622947,0.1275624781847
1630573720036,0.1226159781217575,1.052668213844299,-0.0554600954055786,0.1338012665510177
1630573720113,0.1389148831367492,1.052668213844299,-0.0780187472701072,0.1374132186174392
1630573720239,0.1569533795118332,1.052668213844299,-0.0929159373044967,0.137168288230896
1630573720339,0.1780329793691635,1.052668213844299,-0.0947971194982528,0.1305035054683685
1630573720420,0.1977351456880569,1.052668213844299,-0.0857634246349334,0.1159369871020317
1630573720544,0.2095963209867477,1.052668213844299,-0.0721954107284545,0.0961490496993064
1630573720599,0.2138904184103012,1.052668213844299,-0.0608751215040683,0.076877512037754
1630573720689,0.2164665907621383,1.052668213844299,-0.0569401979446411,0.0636054649949073
1630573720852,0.2220911532640457,1.052668213844299,-0.0604992508888244,0.0596048049628734
1630573720969,0.2311989814043045,1.052668213844299,-0.0675076320767402,0.0681994333863258
1630573721028,0.2422641813755035,1.052668213844299,-0.0740520134568214,0.0907342880964279
1630573721139,0.2533250451087951,1.052668213844299,-0.0803102552890777,0.1200888156890869
1630573721232,0.2626979649066925,1.052668213844299,-0.0893245488405227,0.1457334905862808
1630573721342,0.2680526971817016,1.052668213844299,-0.102907009422779,0.1622520685195922
1630573721451,0.2675051093101501,1.052668213844299,-0.118096575140953,0.1706499755382537
1630573721544,0.2615309655666351,1.052668213844299,-0.1298774778842926,0.1749770194292068
1630573721633,0.2506991922855377,1.052668213844299,-0.1357875168323516,0.1757545471191406
1630573721738,0.2348363101482391,1.052668213844299,-0.1374212354421615,0.1715639382600784
1630573721818,0.2161138504743576,1.052668213844299,-0.1366723477840423,0.1641797125339508
1630573721938,0.2027507871389389,1.052668213844299,-0.1354228407144546,0.1589736342430114
1630573722057,0.2023114562034607,1.052668213844299,-0.1370054334402084,0.1595243364572525
1630573722155,0.2116370201110839,1.052668213844299,-0.1442307233810424,0.1623729914426803
1630573722269,0.2180230468511581,1.052668213844299,-0.1573284715414047,0.1606350988149643
1630573722350,0.2114280313253402,1.052668213844299,-0.1748939007520675,0.1491113305091858
1630573722455,0.1932964473962783,1.052668213844299,-0.1954153031110763,0.1273535192012787
1630573722539,0.1720277667045593,1.052668213844299,-0.2161460518836975,0.0987671166658401
1630573722709,0.1571649610996246,1.052668213844299,-0.2326956391334533,0.0688007101416587
1630573722786,0.1546211391687393,1.052668213844299,-0.2422744482755661,0.0426068194210529
1630573722865,0.163936972618103,1.052668213844299,-0.2457076162099838,0.0220664758235216
1630573722986,0.1805492341518402,1.052668213844299,-0.2463354170322418,0.0044031697325408
1630573723049,0.197994202375412,1.052668213844299,-0.2463127374649047,-0.0132835004478693
1630573723137,0.2133860141038894,1.052668213844299,-0.246865838766098,-0.0286920834332704
1630573723299,0.2289818227291107,1.052668213844299,-0.2486257404088974,-0.0353667214512825
1630573723398,0.2469753921031952,1.052668213844299,-0.2529069185256958,-0.0304140765219926
1630573723487,0.2628130316734314,1.052668213844299,-0.2588897347450256,-0.0192924402654171
1630573723553,0.2735907137393951,1.052668213844299,-0.2617068290710449,-0.0089297546073794
1630573723638,0.2814310491085052,1.052668213844299,-0.257004052400589,-0.0004815600113943
1630573723768,0.2932414710521698,1.052668213844299,-0.2451630383729934,0.010101499967277
1630573723893,0.3129242658615112,1.052668213844299,-0.2292602360248565,0.0268092025071382
1630573724055,0.3344288468360901,1.052668213844299,-0.2138172388076782,0.0506070926785469
1630573724082,0.3485428690910339,1.052668213844299,-0.2028700858354568,0.081054538488388
1630573724179,0.3507139384746551,1.052668213844299,-0.1980480849742889,0.1163130030035972
1630573724270,0.341289609670639,1.052668213844299,-0.1971402764320373,0.152652695775032
1630573724409,0.3254260122776031,1.052668213844299,-0.1969779431819915,0.1873789429664611
1630573724522,0.3083941340446472,1.052668213844299,-0.1955718696117401,0.2209192067384719
1630573724624,0.2933691143989563,1.052668213844299,-0.1902126222848892,0.2537612915039062
1630573724704,0.2823487222194671,1.052668213844299,-0.1728400737047195,0.2835540473461151
1630573724838,0.27442267537117,1.052668213844299,-0.1401513069868087,0.3057175278663635
1630573724892,0.2673390507698059,1.052668213844299,-0.1007487922906875,0.3185575008392334
1630573724971,0.2603848576545715,1.052668213844299,-0.0668067261576652,0.3241999447345733
1630573725118,0.2512261867523193,1.052668213844299,-0.0449277646839618,0.3263190984725952
1630573725234,0.238419234752655,1.052668213844299,-0.0343740507960319,0.3280237019062042
1630573725297,0.220872014760971,1.052668213844299,-0.0305236261337995,0.3305657804012298
1630573725430,0.2018068432807922,1.052668213844299,-0.0280123129487037,0.3334891200065613
1630573725504,0.1906182616949081,1.052668213844299,-0.0210787449032068,0.3340278565883636
1630573725568,0.1934863924980163,1.052668213844299,-0.0072763324715197,0.3291829228401184
1630573725733,0.2082153260707855,1.052668213844299,0.0100923096761107,0.318788468837738
1630573725818,0.2235619872808456,1.052668213844299,0.0250894483178854,0.305491179227829
1630573725905,0.228918969631195,1.052668213844299,0.0346959754824638,0.2916033864021301
1630573725987,0.2236488312482834,1.052668213844299,0.0384956113994121,0.276582270860672
1630573726105,0.2140365242958068,1.052668213844299,0.0347512625157833,0.2584269642829895
1630573726222,0.2060142904520034,1.052668213844299,0.018758624792099,0.237725481390953
1630573726371,0.2010732442140579,1.052668213844299,-0.0118698608130216,0.2195270955562591
1630573726418,0.1963052153587341,1.052668213844299,-0.0537773482501506,0.2088261395692825
1630573726511,0.1910341084003448,1.052668213844299,-0.0981626436114311,0.2077814936637878
1630573726614,0.1880300194025039,1.052668213844299,-0.1338138431310653,0.2133532613515854
1630573726683,0.1893864125013351,1.052668213844299,-0.1518889367580413,0.2184949666261673
1630573726829,0.1927346885204315,1.052668213844299,-0.1516688168048858,0.2170093059539795
1630573726941,0.1911131292581558,1.052668213844299,-0.1409353166818618,0.206729456782341
1630573727074,0.1799046546220779,1.052668213844299,-0.1265949755907058,0.1893811523914337
1630573727138,0.1614097952842712,1.052668213844299,-0.1096859574317932,0.1674770712852478
1630573727237,0.1413594782352447,1.052668213844299,-0.0878572389483451,0.1415078788995742
1630573727317,0.1271794587373733,1.052668213844299,-0.0616427809000015,0.1118324026465416
1630573727457,0.123831570148468,1.052668213844299,-0.0354590453207492,0.0816344618797302
1630573727575,0.1331238001585006,1.052668213844299,-0.0125728426501154,0.055793147534132
1630573727670,0.1569789350032806,1.052668213844299,0.0074380184523761,0.0402004271745681
1630573727748,0.1955081224441528,1.052668213844299,0.0258914530277252,0.0355517268180847
1630573727852,0.2424865067005157,1.052668213844299,0.0422551557421684,0.0345839187502861
1630573727914,0.2867932021617889,1.052668213844299,0.0547171644866466,0.0273924581706523
1630573728035,0.3191837966442108,1.052668213844299,0.0610697455704212,0.0069813346490263
1630573728153,0.3364472389221191,1.052668213844299,0.0600242353975772,-0.0249659121036529
1630573728255,0.3413801193237304,1.052668213844299,0.0520792268216609,-0.0579321980476379
1630573728386,0.3404135406017303,1.052668213844299,0.0385286509990692,-0.0796409621834755
1630573728457,0.3390551209449768,1.052668213844299,0.0200279485434293,-0.0849784314632415
1630573728536,0.3407570719718933,1.052668213844299,-0.0058687515556812,-0.0784951746463775
1630573728651,0.345815509557724,1.052668213844299,-0.0431892350316047,-0.0686028376221656
1630573728789,0.3525838255882263,1.052668213844299,-0.0927504524588584,-0.0580621473491191
1630573728853,0.3621552586555481,1.052668213844299,-0.1506539434194564,-0.0449931062757968
1630573728932,0.375069797039032,1.052668213844299,-0.2112889587879181,-0.0276178047060966
1630573729047,0.3875783085823059,1.052668213844299,-0.2714377045631408,-0.0062550222501158
1630573729198,0.3915775716304779,1.052668213844299,-0.3306953907012939,0.0155995776876807
1630573729244,0.3784087002277374,1.052668213844299,-0.3861666321754455,0.0347244441509246
1630573729357,0.3467038571834564,1.052668213844299,-0.4297555685043335,0.0528118349611759
1630573729485,0.3053337335586548,1.052668213844299,-0.4518511891365051,0.0747810453176498
1630573729566,0.2684928476810455,1.052668213844299,-0.4498678147792816,0.1033218502998352
1630573729702,0.248244971036911,1.052668213844299,-0.433081716299057,0.1336023956537246
1630573729765,0.2474121302366256,1.052668213844299,-0.4100261628627777,0.1593562960624694
1630573729881,0.2609387338161468,1.052668213844299,-0.3766919076442718,0.1793815493583679
1630573729992,0.2819714546203613,1.052668213844299,-0.3299880027770996,0.1957353353500366
1630573730087,0.3017236888408661,1.052668213844299,-0.2778351008892059,0.2096437513828277
1630573730302,0.3200286626815796,1.052668213844299,-0.1971042156219482,0.2279288321733474
1630573730385,0.3176020681858063,1.052668213844299,-0.1698428988456726,0.2323413491249084
1630573730470,0.3070417046546936,1.052668213844299,-0.1445328891277313,0.2332209795713424
1630573730598,0.289706140756607,1.052668213844299,-0.1170743927359581,0.2296346724033355
1630573730692,0.2705203890800476,1.052668213844299,-0.0854860916733741,0.2212673276662826
1630573730788,0.2581063508987427,1.052668213844299,-0.0520772598683834,0.2082210481166839
1630573730869,0.2591983377933502,1.052668213844299,-0.0210932586342096,0.1893823742866516
1630573730977,0.2754960656166076,1.052668213844299,0.0058537973091006,0.1624247133731842
1630573731101,0.3033295571804046,1.052668213844299,0.0301977545022964,0.1281374096870422
1630573731241,0.3311135172843933,1.052668213844299,0.054345566779375,0.0939898639917373
1630573731300,0.3456809818744659,1.052668213844299,0.0771890357136726,0.0692616775631904
1630573731388,0.339941143989563,1.052668213844299,0.0950169935822486,0.0566353686153888
1630573731471,0.3160828649997711,1.052668213844299,0.1078233942389488,0.0516293011605739
1630573731570,0.2859262824058532,1.052668213844299,0.1185371428728103,0.0505979731678962
1630573731686,0.263591468334198,1.052668213844299,0.1307398080825805,0.052308801561594
1630573731826,0.2556329071521759,1.052668213844299,0.1453032940626144,0.0569547675549984
1630573731905,0.2596868872642517,1.052668213844299,0.1599330008029937,0.0653064474463462
1630573731988,0.2682509422302246,1.052668213844299,0.1722184866666793,0.0778254196047782
1630573732105,0.2764127850532532,1.052668213844299,0.1811515837907791,0.09370818734169
1630573732195,0.2825482487678528,1.052668213844299,0.1872788369655609,0.1090341210365295
1630573732272,0.284770518541336,1.052668213844299,0.1930626034736633,0.1215895935893058
1630573732448,0.2805429399013519,1.052668213844299,0.1996360421180725,0.1333343386650085
1630573732527,0.2656548321247101,1.052668213844299,0.2041449546813964,0.1490708291530609
1630573732589,0.2377759367227554,1.052668213844299,0.2029017359018325,0.1708806455135345
1630573732696,0.204147070646286,1.052668213844299,0.1958802640438079,0.1961853504180908
1630573732823,0.1797235906124115,1.052668213844299,0.1865949928760528,0.2189393788576126
1630573732941,0.175784483551979,1.052668213844299,0.1771886348724365,0.2324065268039703
1630573733056,0.1867268234491348,1.052668213844299,0.1650687158107757,0.2337463647127151
1630573733138,0.1960637122392654,1.052668213844299,0.1491214334964752,0.224927082657814
1630573733221,0.1932263225317001,1.052668213844299,0.1334543973207473,0.2120492309331894
1630573733348,0.1782124936580658,1.052668213844299,0.1238166838884353,0.1994782090187072
1630573733413,0.1605399996042251,1.052668213844299,0.1218800991773605,0.1879216432571411
1630573733538,0.1558516174554824,1.052668213844299,0.1237986087799072,0.1758326143026352
1630573733644,0.1749959141016006,1.052668213844299,0.123525246977806,0.1605775356292724
1630573733752,0.2180003672838211,1.052668213844299,0.1160789877176284,0.1425472646951675
1630573733835,0.2717750966548919,1.052668213844299,0.0987543612718582,0.125234916806221
1630573733970,0.3171471059322357,1.052668213844299,0.0728688016533851,0.1146338358521461
1630573734016,0.3437194228172302,1.052668213844299,0.0449347160756588,0.1138055473566055
1630573734129,0.3510825634002685,1.052668213844299,0.0221667308360338,0.1180830150842666
1630573734269,0.3455438315868377,1.052668213844299,0.0065392581745982,0.1192083582282066
1630573734329,0.3356460034847259,1.052668213844299,-0.0034435901325196,0.1160786226391792
1630573734445,0.3259882926940918,1.052668213844299,-0.0073959063738584,0.1176945492625236
1630573734553,0.3205547332763672,1.052668213844299,-0.0030941704753786,0.1358570754528045
1630573734652,0.3232211172580719,1.052668213844299,0.0057738991454243,0.1721095889806747
1630573734737,0.3347815573215484,1.052668213844299,0.0090092094615101,0.2153841257095337
1630573734853,0.3518105745315552,1.052668213844299,-0.0028641892131417,0.2530421018600464
1630573734931,0.3659204244613647,1.052668213844299,-0.0306032914668321,0.2790375351905823
1630573735052,0.3688219785690307,1.052668213844299,-0.0650407448410987,0.2940935790538788
1630573735144,0.3569267988204956,1.052668213844299,-0.0921838954091072,0.30237478017807
1630573735230,0.3293133676052093,1.052668213844299,-0.1033250242471695,0.3070817589759826
1630573735373,0.2902657389640808,1.052668213844299,-0.1004728898406028,0.3088974058628082
1630573735483,0.2513909637928009,1.052668213844299,-0.0905782207846641,0.3082507848739624
1630573735588,0.2277102619409561,1.052668213844299,-0.076733112335205,0.306177943944931
1630573735650,0.2261605411767959,1.052668213844299,-0.0581924468278884,0.3029221594333648
1630573735753,0.2388177067041397,1.052668213844299,-0.0375348106026649,0.2975314855575561
1630573735853,0.2523480951786041,1.052668213844299,-0.0231485944241285,0.2887454628944397
1630573735948,0.2626074552536011,1.052668213844299,-0.0205192007124423,0.2751144170761108
1630573736052,0.2712145447731018,1.052668213844299,-0.0270209889858961,0.2540663182735443
1630573736185,0.2778846025466919,1.7743799686431885,-0.0346304289996624,0.2226187735795974
1630573736303,0.2793472707271576,1.779745101928711,-0.0373520664870739,0.181883230805397
1630573736367,0.2728173732757568,1.779745101928711,-0.0325912758708,0.1395223885774612
1630573736488,0.2618398368358612,1.779745101928711,-0.0217901282012462,0.1039676740765571
1630573736549,0.254662811756134,1.779745101928711,-0.0089537864550948,0.0788655877113342
1630573736737,0.255892664194107,1.779745101928711,0.0013560672523453,0.0648997724056243
1630573736801,0.2646024227142334,1.779745101928711,0.0082656554877758,0.0625651255249977
1630573736906,0.2772280573844909,1.779745101928711,0.0141765810549259,0.0686862170696258
1630573736984,0.2899288535118103,1.779745101928711,0.0200362540781497,0.0734535530209541
1630573737187,0.3039281070232391,1.779745101928711,0.0152910836040973,0.0747060626745224
1630573737283,0.3025179505348205,1.779745101928711,0.00218366086483,0.0959348604083061
1630573737379,0.296897292137146,1.785994529724121,-0.0101373372599482,0.1333658844232559
1630573737497,0.2885003983974457,1.785994529724121,-0.0164998229593038,0.1721504777669906
1630573737628,0.2778623700141907,1.785994529724121,-0.0207087974995374,0.2020530551671981
1630573737708,0.2663604915142059,1.785994529724121,-0.0292889736592769,0.2233248054981231
1630573737788,0.255725622177124,1.785994529724121,-0.0439724326133728,0.2390765994787216
1630573737904,0.2474300414323806,1.785994529724121,-0.0624774135649204,0.2509641647338867
1630573737989,0.2413860857486724,1.785994529724121,-0.0810384750366211,0.2597958445549011
1630573738086,0.2362156808376312,1.785994529724121,-0.0953764617443084,0.2668096721172333
1630573738206,0.2294814884662628,1.785994529724121,-0.1005186885595321,0.2722910940647125
1630573738339,0.2213120311498642,1.785994529724121,-0.0964328721165657,0.2752243280410766
1630573738366,0.2126339077949524,1.785994529724121,-0.0894873142242431,0.2763152718544006
1630573738536,0.2030533850193023,1.785994529724121,-0.0850857570767402,0.2771942913532257
1630573738622,0.1916276812553405,1.785994529724121,-0.0829999819397926,0.2771707773208618
1630573738703,0.1796315908432006,1.785994529724121,-0.0809075906872749,0.2720258235931396
1630573738804,0.1728082150220871,1.785994529724121,-0.0787274688482284,0.2586490213871002
1630573738901,0.1764590144157409,1.785994529724121,-0.0788382217288017,0.2388896346092224
1630573738997,0.187559425830841,1.785994529724121,-0.0836372002959251,0.2183424830436706
1630573739124,0.1993542462587356,1.785994529724121,-0.0919623374938964,0.2007167041301727
1630573739215,0.2057159394025802,1.785994529724121,-0.0995234176516532,0.1868574172258377
1630573739339,0.2050000578165054,1.785994529724121,-0.0987870693206787,0.1769897192716598
1630573739418,0.1995423734188079,1.785994529724121,-0.082395352423191,0.1693427860736847
1630573739480,0.1906627565622329,1.785994529724121,-0.0528512671589851,0.162662073969841
1630573739592,0.1781469136476516,1.785994529724121,-0.0235616900026798,0.1567902565002441
1630573739747,0.163125529885292,1.785994529724121,-0.0086235459893941,0.1522613614797592
1630573739809,0.1465853452682495,1.785994529724121,-0.0104258861392736,0.1481503248214721
1630573739906,0.1285901814699173,1.785994529724121,-0.0185947939753532,0.1426933407783508
1630573740014,0.112848125398159,1.785994529724121,-0.0198251903057098,0.1381569802761078
1630573740108,0.1051379963755607,1.785994529724121,-0.0094637693837285,0.1401018351316452
1630573740198,0.1076461374759674,1.785994529724121,0.0077948826365172,0.150096595287323
1630573740347,0.1157518923282623,1.785994529724121,0.0259669590741395,0.1630936414003372
1630573740483,0.1198207810521125,1.785994529724121,0.0417746491730213,0.1741526126861572
1630573740549,0.1157334819436073,1.785994529724121,0.0537268184125423,0.1830722391605377
1630573740610,0.1068927943706512,1.785994529724121,0.0614407248795032,0.1912183910608291
1630573740709,0.1010177284479141,1.785994529724121,0.0657633319497108,0.1970579028129577
1630573740811,0.1038720309734344,1.785994529724121,0.0659500658512115,0.198612093925476
1630573740929,0.1188419759273529,1.785994529724121,0.0589453428983688,0.2005413025617599
1630573741044,0.1441685110330581,1.785994529724121,0.0459018647670745,0.2084163278341293
1630573741156,0.1740205883979797,1.785994529724121,0.0361749045550823,0.221488282084465
1630573741220,0.201070100069046,1.785994529724121,0.0400184988975524,0.2331024408340454
1630573741323,0.2190023064613342,1.785994529724121,0.0551133789122104,0.2398301213979721
1630573741427,0.2294668108224868,1.785994529724121,0.0683339685201644,0.2443209290504455
1630573741587,0.23786062002182,1.785994529724121,0.0701955258846283,0.2476496547460556
1630573741652,0.2472092658281326,1.785994529724121,0.0623635128140449,0.2462026625871658
1630573741739,0.254379540681839,1.785994529724121,0.0498208738863468,0.2361913919448852
1630573741852,0.2556796669960022,1.785994529724121,0.0348934307694435,0.2198350578546524
1630573741965,0.2506808638572693,1.785994529724121,0.017546372488141,0.2019581198692321
1630573742047,0.2429829835891723,1.785994529724121,-0.0001451413991162,0.1840184330940246
1630573742164,0.2360872477293014,1.785994529724121,-0.0141867026686668,0.1667346954345703
1630573742249,0.2312366813421249,1.785994529724121,-0.0224764049053192,0.1548046171665191
1630573742370,0.2262003123760223,1.785994529724121,-0.0248016212135553,0.1538548469543457
1630573742455,0.2157325148582458,1.785994529724121,-0.0219820160418748,0.1608804613351822
1630573742564,0.1981880366802215,1.785994529724121,-0.0186289921402931,0.1652176827192306
1630573742648,0.1776774227619171,1.785994529724121,-0.0221859104931354,0.1600880324840545
1630573742767,0.1628071516752243,1.785994529724121,-0.0358576998114585,0.1488410830497741
1630573742866,0.158854529261589,1.785994529724121,-0.0544001534581184,0.1386467069387436
1630573742969,0.162382572889328,1.785994529724121,-0.0686816200613975,0.1323520988225937
1630573743101,0.1676527708768844,1.785994529724121,-0.0761533752083778,0.1305214464664459
1630573743171,0.1699842810630798,1.785994529724121,-0.0843062400817871,0.1340937912464141
1630573743233,0.1679131835699081,1.785994529724121,-0.0972224920988082,0.1422133445739746
1630573743392,0.1614403277635574,1.785994529724121,-0.1115429699420929,0.1506553590297699
1630573743478,0.1544949114322662,1.6893340349197388,-0.120810180902481,0.1576835215091705
1630573743573,0.1527254283428192,1.698580622673035,-0.1221311315894126,0.1674583703279495
1630573743668,0.1573428511619568,1.698580622673035,-0.1168710887432098,0.1846119612455368
1630573743742,0.1643044799566269,1.698580622673035,-0.1080607622861862,0.2071472406387329
1630573743874,0.1713810116052627,1.698580622673035,-0.1002943962812423,0.2274784743785858
1630573743999,0.1799991726875305,1.698580622673035,-0.0994859486818313,0.2399755269289016
1630573744090,0.1906278580427169,1.698580622673035,-0.1085973680019378,0.244277536869049
1630573744202,0.1977537870407104,1.698580622673035,-0.1253561973571777,0.2437623143196106
1630573744289,0.1957996785640716,1.698580622673035,-0.1450071185827255,0.2429667562246322
1630573744358,0.1886243969202041,1.698580622673035,-0.1634077876806259,0.2462509125471115
1630573744464,0.1859466731548309,1.698580622673035,-0.1772742569446563,0.2567012012004852
1630573744598,0.1938364207744598,1.698580622673035,-0.1817410439252853,0.2739683091640472
1630573744687,0.2099757939577102,1.7124735116958618,-0.1712072193622589,0.2924593091011047
1630573744804,0.2296188473701477,1.7124735116958618,-0.1459121406078338,0.307248592376709
1630573744886,0.2519397735595703,1.7124735116958618,-0.1141355484724044,0.318598210811615
1630573744985,0.2783983051776886,1.7124735116958618,-0.0865723341703414,0.329597532749176
1630573745068,0.3087103962898254,1.7124735116958618,-0.0697586685419082,0.3407326340675354
1630573745237,0.3390063643455505,1.7124735116958618,-0.0637349709868431,0.3472311198711395
1630573745353,0.3655299842357635,1.7124735116958618,-0.0650020837783813,0.3450041711330414
1630573745399,0.3879430890083313,1.7124735116958618,-0.0698578655719757,0.335578441619873
1630573745516,0.4071153700351715,1.7124735116958618,-0.075171984732151,0.3252155184745788
1630573745645,0.4228062927722931,1.7124735116958618,-0.0788872316479682,0.3215565085411072
1630573745739,0.4338372051715851,1.7124735116958618,-0.0812565013766288,0.326923668384552
1630573745847,0.4399235248565674,1.7124735116958618,-0.0849415436387062,0.3389685451984405
1630573745918,0.441504955291748,1.7124735116958618,-0.0927073433995246,0.3545525372028351
1630573746015,0.438816636800766,1.7124735116958618,-0.1051215752959251,0.3705925643444061
1630573746110,0.4312702417373657,1.7124735116958618,-0.1218537166714668,0.3833262026309967
1630573746195,0.4208508133888244,1.7124735116958618,-0.1431809216737747,0.3905981183052063
1630573746275,0.4106791019439697,1.7124735116958618,-0.1690770983695984,0.3921772837638855
1630573746435,0.4013163447380066,1.7124735116958618,-0.1969348490238189,0.3903708159923553
1630573746557,0.3901317715644836,1.7124735116958618,-0.2209248840808868,0.3855659663677215
1630573746618,0.3734348714351654,1.7124735116958618,-0.2357544302940368,0.3773771524429321
1630573746720,0.3507832288742065,1.7124735116958618,-0.2411570847034454,0.3667697012424469
1630573746841,0.3237334787845611,1.7124735116958618,-0.2383963763713836,0.355485200881958
1630573746915,0.2923263609409332,1.7124735116958618,-0.2284643799066543,0.3444754481315613
1630573747077,0.2558943927288055,1.7124735116958618,-0.2130666226148605,0.3334660232067108
1630573747171,0.2186202406883239,1.7124735116958618,-0.1962579786777496,0.3215106725692749
1630573747272,0.1911387145519256,1.7124735116958618,-0.1829268932342529,0.308045357465744
1630573747348,0.1818257123231887,1.7124735116958618,-0.1739299297332763,0.2907055616378784
1630573747437,0.1873416304588318,1.7124735116958618,-0.1678216159343719,0.2649325132369995
1630573747528,0.1935867369174957,1.7124735116958618,-0.1635808497667312,0.2275039255619049
1630573747688,0.1904548406600952,1.7124735116958618,-0.1600314378738403,0.1801929473876953
1630573747736,0.175138846039772,1.7124735116958618,-0.1561638563871383,0.129218116402626
1630573747827,0.1534613966941833,1.7124735116958618,-0.1493780761957168,0.0822360515594482
1630573747939,0.1363200396299362,1.7124735116958618,-0.135569155216217,0.0407179966568946
1630573748037,0.1272652298212051,1.7124735116958618,-0.1118219569325447,0.0055046235211193
1630573748155,0.1248718798160553,1.7124735116958618,-0.0812332406640052,-0.0203143339604139
1630573748288,0.1277041733264923,1.7124735116958618,-0.0527002587914466,-0.0301120486110448
1630573748364,0.1399998068809509,1.7124735116958618,-0.0362752564251422,-0.021590668708086
1630573748473,0.1659867763519287,1.7124735116958618,-0.0365505255758762,0.0014655548147857
1630573748590,0.1989139914512634,1.7124735116958618,-0.0510782338678836,0.0282914768904447
1630573748644,0.2282580733299255,1.7124735116958618,-0.0720989182591438,0.0489571429789066
1630573748771,0.2496991157531738,1.7124735116958618,-0.0897414833307266,0.0605435371398925
1630573748867,0.2659071385860443,1.7124735116958618,-0.0980908647179603,0.0668274387717247
1630573748981,0.2819339334964752,1.7124735116958618,-0.0974415019154548,0.0792262256145477
1630573749089,0.2999449074268341,1.7124735116958618,-0.0924344360828399,0.1049453541636467
1630573749169,0.3181732892990112,1.7124735116958618,-0.0877133682370185,0.139352947473526
1630573749289,0.3353960216045379,1.7124735116958618,-0.084840141236782,0.1704140156507492
1630573749336,0.3496879637241363,1.7124735116958618,-0.0842437967658042,0.189854696393013
1630573749504,0.358969122171402,1.7124735116958618,-0.086892232298851,0.1982364654541015
1630573749599,0.3624106049537658,1.7124735116958618,-0.0942127481102943,0.2020934969186782
1630573749663,0.3602111637592315,1.7124735116958618,-0.1048776358366012,0.2070618569850921
1630573749738,0.3530300259590149,1.7124735116958618,-0.1118450909852981,0.2135890424251556
1630573749905,0.3408238291740417,1.7124735116958618,-0.1073959246277809,0.2188349962234497
1630573750007,0.3229801654815674,1.7124735116958618,-0.0926464274525642,0.2190565019845962
1630573750091,0.3032253086566925,1.7124735116958618,-0.0751198977231979,0.215650126338005
1630573750273,0.2734014093875885,1.7124735116958618,-0.0506743900477886,0.2147839218378067
1630573750297,0.2864702045917511,1.7124735116958618,-0.0607052370905876,0.21342433989048
1630573750386,0.2587189078330993,1.7124735116958618,-0.0437147505581378,0.2174327075481414
1630573750479,0.2386288940906524,1.7124735116958618,-0.0386096388101577,0.2135936319828033
1630573750571,0.2190265208482742,1.7124735116958618,-0.0333533287048339,0.1982864439487457
1630573750720,0.2086912989616394,1.7124735116958618,-0.0272185113281011,0.1740336865186691
1630573750838,0.2073453664779663,1.7124735116958618,-0.0221653562039136,0.1528383791446685
1630573750907,0.2081290632486343,1.7124735116958618,-0.0212937854230403,0.1475000977516174
1630573751038,0.2073162943124771,1.7124735116958618,-0.0271253660321235,0.1584572046995163
1630573751103,0.207891896367073,1.7124735116958618,-0.0409092046320438,0.173045128583908
1630573751172,0.2120291590690612,1.7124735116958618,-0.0624261796474456,0.1784841567277908
1630573751337,0.2167685329914093,1.7124735116958618,-0.088966280221939,0.1719342619180679
1630573751438,0.2192203551530838,1.7124735116958618,-0.1141843125224113,0.1600848138332367
1630573751502,0.2189180254936218,1.7124735116958618,-0.129689559340477,0.1524138450622558
1630573751602,0.2155750840902328,1.7124735116958618,-0.1320343017578125,0.1518273204565048
1630573751754,0.2095712274312973,1.7124735116958618,-0.1253077387809753,0.1555137485265731
1630573751824,0.2006690055131912,1.7124735116958618,-0.1173477992415428,0.162821888923645
1630573751909,0.1891247183084488,1.7124735116958618,-0.1141368076205253,0.176596000790596
1630573752056,0.173018530011177,1.7124735116958618,-0.116524763405323,0.1991948336362838
1630573752170,0.1488852351903915,1.7124735116958618,-0.1211607083678245,0.2265208065509796
1630573752192,0.1182358637452125,1.7124735116958618,-0.1220883652567863,0.2517191767692566
1630573752281,0.0902808755636215,1.7124735116958618,-0.1167372465133667,0.269271582365036
1630573752393,0.0775764659047126,1.7124735116958618,-0.10906433314085,0.2768448293209076
1630573752538,0.0818670243024826,1.7124735116958618,-0.1046142354607582,0.2775327861309051
1630573752621,0.092323251068592,1.7124735116958618,-0.1026324778795242,0.2801786363124847
1630573752702,0.0994075089693069,1.7124735116958618,-0.0980802178382873,0.2926357090473175
1630573752799,0.1044016554951667,1.7124735116958618,-0.0905531346797943,0.3134116530418396
1630573752935,0.1131844073534011,1.7124735116958618,-0.0863921642303466,0.3332375884056091
1630573753024,0.1275738328695297,1.7124735116958618,-0.0888706147670745,0.3441579341888428
1630573753153,0.1434908509254455,1.7124735116958618,-0.090842492878437,0.3465016484260559
1630573753247,0.1564435213804245,1.7124735116958618,-0.0817474573850631,0.3454967439174652
1630573753326,0.1678089946508407,1.7124735116958618,-0.0618821531534194,0.3442395329475403
1630573753435,0.1812277734279632,1.7124735116958618,-0.0423323437571525,0.3408271670341491
1630573753518,0.1977458596229553,1.7124735116958618,-0.0329844169318676,0.3303709030151367
1630573753602,0.2161461263895034,1.7124735116958618,-0.0366753228008747,0.3115773499011993
1630573753788,0.2336893528699875,1.7124735116958618,-0.0508738309144973,0.2896453142166137
1630573753849,0.2475418299436569,1.7124735116958618,-0.0702826082706451,0.2720451354980469
1630573753943,0.2556265294551849,1.7124735116958618,-0.088374562561512,0.2622848153114319
1630573754027,0.2591405808925628,1.7124735116958618,-0.0990050062537193,0.2562687397003174
1630573754142,0.2629693150520324,1.7124735116958618,-0.101708322763443,0.2455330342054367
1630573754202,0.2712317705154419,1.7124735116958618,-0.100382924079895,0.2255682647228241
1630573754371,0.2816275954246521,1.7124735116958618,-0.0981633439660072,0.1991057991981506
1630573754468,0.2882678806781769,1.7124735116958618,-0.0943289548158645,0.1742099523544311
1630573754569,0.2898842692375183,1.7124735116958618,-0.0896502658724784,0.1598886549472808
1630573754627,0.2907270193099975,1.7124735116958618,-0.0911554768681526,0.1562762856483459
1630573754714,0.2945328950881958,1.7124735116958618,-0.1059576869010925,0.1557817459106445
1630573754821,0.2999167442321777,1.7124735116958618,-0.1287748366594314,0.1522126793861389
1630573754988,0.303553968667984,1.7124735116958618,-0.1394014805555343,0.146851897239685
1630573755088,0.3039273023605346,1.7124735116958618,-0.1214669048786163,0.1469307690858841
1630573755168,0.3025523126125335,1.7124735116958618,-0.0822616070508956,0.157380998134613
1630573755270,0.3017696440219879,1.7124735116958618,-0.0412656031548976,0.1747531145811081
1630573755349,0.3018263280391693,1.7124735116958618,-0.0082007953897118,0.1920303404331207
1630573755442,0.300397127866745,1.7124735116958618,0.0173633825033903,0.2055874615907669
1630573755580,0.2934199273586273,1.7124735116958618,0.0382112003862857,0.2149534970521927
1630573755722,0.2819619178771972,1.7124735116958618,0.0543899498879909,0.2220274657011032
1630573755784,0.2692116498947143,1.7124735116958618,0.0653282850980758,0.2278282791376114
1630573755862,0.2588401436805725,1.7124735116958618,0.0717100128531456,0.2327297180891037
1630573755956,0.2522647976875305,1.7124735116958618,0.0735188722610473,0.2377651929855346
1630573756071,0.2479269504547119,1.7124735116958618,0.0713982209563255,0.2438421696424484
1630573756214,0.244952380657196,1.7124735116958618,0.0690707936882972,0.2513040006160736
1630573756267,0.2445370703935623,1.7124735116958618,0.0707979872822761,0.2591672241687774
1630573756373,0.2483056038618087,1.7124735116958618,0.0756914764642715,0.266178548336029
1630573756465,0.2590872645378113,1.7124735116958618,0.0769419148564338,0.2714600265026092
1630573756552,0.2764939963817596,1.7124735116958618,0.0679978877305984,0.2745423316955566
1630573756672,0.2942609190940857,1.7124735116958618,0.0490857921540737,0.2758885622024536
1630573756805,0.3050648868083954,1.7124735116958618,0.0262420922517776,0.2763678729534149
1630573756920,0.3047199547290802,1.7124735116958618,0.0057798130437731,0.2759408354759216
1630573756995,0.2957448363304138,1.7124735116958618,-0.0090988650918006,0.2727288603782654
1630573757075,0.2864407300949096,1.7124735116958618,-0.0192387215793132,0.2664586901664734
1630573757187,0.2809253334999084,1.7124735116958618,-0.0260172374546527,0.2579826116561889
1630573757281,0.2809466123580932,1.7124735116958618,-0.0302362162619829,0.2507020235061645
1630573757409,0.2871128916740417,1.7124735116958618,-0.03188331797719,0.2474834471940994
1630573757504,0.2996314764022827,1.7124735116958618,-0.0295903086662292,0.2480612248182296
1630573757588,0.314962089061737,1.7124735116958618,-0.0218811742961406,0.2503610551357269
1630573757703,0.3279799520969391,1.7124735116958618,-0.0105444425716996,0.2522136569023132
1630573757804,0.3340480923652649,1.7124735116958618,-0.0003993033024016,0.2531881332397461
1630573757920,0.3316100239753723,1.7124735116958618,0.0041635888628661,0.2539866268634796
1630573758044,0.3213937878608703,1.7124735116958618,0.0025244932621717,0.2558461725711822
1630573758110,0.3075424432754516,1.7124735116958618,-0.0013411168474704,0.2600940465927124
1630573758205,0.297339916229248,1.7124735116958618,-0.0026842486113309,0.2671416699886322
1630573758342,0.2940691411495209,1.7124735116958618,-0.0007219956023618,0.2756226062774658
1630573758407,0.2974529564380646,1.7124735116958618,0.0014058743836358,0.2847645878791809
1630573758482,0.3043067753314972,1.7124735116958618,0.000352383358404,0.2967745065689087
1630573758638,0.3121000826358795,1.7124735116958618,-0.0049013597890734,0.3125016093254089
1630573758714,0.3179996609687805,1.7124735116958618,-0.0134362392127513,0.3286195695400238
1630573758804,0.3186646699905395,1.7124735116958618,-0.0231680776923894,0.3397464454174042
1630573758936,0.3108014464378357,1.7124735116958618,-0.0316870883107185,0.344695508480072
1630573759000,0.2933563888072967,1.7124735116958618,-0.0368380881845951,0.3473300635814667
1630573759122,0.2707531452178955,1.7124735116958618,-0.0397250764071941,0.3502677977085113
1630573759237,0.2478713542222976,1.7124735116958618,-0.0431461594998836,0.3526521027088165
1630573759324,0.2290685474872589,1.7124735116958618,-0.0485548451542854,0.3536233901977539
1630573759453,0.2162413299083709,1.7124735116958618,-0.0537054426968097,0.3554005920886993
1630573759558,0.2082608491182327,1.7124735116958618,-0.0528132319450378,0.3599212765693664
1630573759625,0.2019166797399521,1.7124735116958618,-0.0406427308917045,0.3649218380451202
1630573759706,0.1918933540582656,1.7124735116958618,-0.0186589416116476,0.3654348254203796
1630573759836,0.1773376017808914,1.7124735116958618,0.0059584681876003,0.3580628037452698
1630573759935,0.1613297760486602,1.7124735116958618,0.0250697135925292,0.3434457778930664
1630573760035,0.1485816985368728,1.7124735116958618,0.0349532216787338,0.3267190158367157
1630573760159,0.1399722546339035,1.7124735116958618,0.0365184396505355,0.3196153938770294
1630573760216,0.1371105909347534,1.7124735116958618,0.0339113287627697,0.3165697753429413
1630573760354,0.1404204219579696,1.7124735116958618,0.0303562562912702,0.3190898001194
1630573760435,0.1560291647911071,1.7124735116958618,0.031745821237564,0.3249700963497162
1630573760519,0.1901789903640747,1.7124735116958618,0.0487397573888301,0.328479140996933
1630573760648,0.2403470426797866,1.7124735116958618,0.0943304747343063,0.3258318901062011
1630573760734,0.3024390935897827,1.7124735116958618,0.1727615147829055,0.3189911544322967
1630573760822,0.3650199770927429,1.7124735116958618,0.2691226005554199,0.3121898472309112
1630573760921,0.4197873771190643,1.7124735116958618,0.36367067694664,0.3051224052906036
1630573761084,0.4681818783283233,1.7124735116958618,0.445994108915329,0.2926297485828399
1630573761146,0.517288863658905,1.7124735116958618,0.5133846402168274,0.270517349243164
1630573761237,0.57183837890625,1.7124735116958618,0.5670852065086365,0.270517349243164
1630573761374,0.6282160878181458,1.7124735116958618,0.583602786064148,0.270517349243164
1630573761453,0.6774658560752869,1.7124735116958618,0.6029756665229797,0.270517349243164
1630573761537,0.714677095413208,1.7124735116958618,0.6296097040176392,0.270517349243164
1630573761709,0.7409498691558838,1.7124735116958618,0.6549947261810303,0.270517349243164
1630573761766,0.7604010105133057,1.7124735116958618,0.6835107207298279,0.270517349243164
1630573761862,0.7772092223167419,1.7124735116958618,0.7127261161804199,0.270517349243164
1630573761988,0.791796863079071,1.7124735116958618,0.7368631958961487,0.270517349243164
1630573762065,0.8028805255889893,1.7124735116958618,0.7510350942611694,0.270517349243164
1630573762145,0.8100124001502991,1.7124735116958618,0.7523613572120667,0.270517349243164
1630573762287,0.8124123811721802,1.7124735116958618,0.7397430539131165,0.270517349243164
1630573762405,0.8110091090202332,1.7124735116958618,0.7145335674285889,0.270517349243164
1630573762466,0.806997537612915,1.7124735116958618,0.6807809472084045,0.270517349243164
1630573762556,0.7990396022796631,1.7124735116958618,0.6421043872833252,0.270517349243164
1630573762649,0.7844473123550415,1.7124735116958618,0.600722074508667,0.270517349243164
1630573762730,0.7600489854812622,1.7124735116958618,0.558631956577301,0.270517349243164
1630573762904,0.726433277130127,1.7124735116958618,0.5542656779289246,0.270517349243164
1630573762984,0.6895620822906494,1.7124735116958618,0.5475952625274658,0.270517349243164
1630573763072,0.6559427380561829,1.7124735116958618,0.5283385515213013,0.7755018472671509
1630573763170,0.6269636154174805,1.7124735116958618,0.5063883662223816,0.742434024810791
1630573763316,0.5988914966583252,1.7124735116958618,0.4755154848098755,0.7225742340087891
1630573763363,0.5686100721359253,1.7124735116958618,0.4366652369499206,0.7225742340087891
1630573763521,0.5369348526000977,1.7124735116958618,0.3962766528129577,0.7225742340087891
1630573763588,0.5052680373191833,1.7124735116958618,0.3613593578338623,0.7225742340087891
1630573763712,0.472145676612854,1.7124735116958618,0.3344365060329437,0.7225742340087891
1630573763791,0.4356042146682739,1.7124735116958618,0.3120273053646087,0.7225742340087891
1630573763866,0.3969126939773559,1.7124735116958618,0.2892911732196808,0.7225742340087891
1630573763968,0.3624365329742431,1.7124735116958618,0.2616825103759765,0.7225742340087891
1630573764120,0.3396371304988861,1.7124735116958618,0.2264649718999862,0.7225742340087891
1630573764237,0.3268276751041412,1.7124735116958618,0.1828671544790268,0.7225742340087891
1630573764321,0.3181003928184509,1.7124735116958618,0.13043774664402,0.6373917460441589
1630573764398,0.3077666759490967,1.7124735116958618,0.0725737437605857,0.5842512845993042
1630573764532,0.2970533072948456,1.7124735116958618,0.016897702589631,0.5842512845993042
1630573764601,0.2912497222423553,1.7124735116958618,-0.0292416680604219,0.5842512845993042
1630573764740,0.2949444949626922,1.7124735116958618,-0.0620376355946064,0.5842512845993042
1630573764838,0.3083694279193878,1.7124735116958618,-0.0811602845788002,0.5842512845993042
1630573764955,0.3243107199668884,1.7124735116958618,-0.0895212739706039,0.3117459714412689
1630573764989,0.3348729908466339,1.7124735116958618,-0.0904102548956871,0.2919288575649261
1630573765105,0.3369933664798736,1.7124735116958618,-0.0850786194205284,0.2776135504245758
1630573765205,0.3339738547801971,1.7124735116958618,-0.072105199098587,0.2717731893062591
1630573765366,0.3323613405227661,1.7124735116958618,-0.0522444173693656,0.2786686718463897
1630573765429,0.3350454866886139,1.7124735116958618,-0.0306482855230569,0.2948454022407532
1630573765538,0.337839663028717,1.7124735116958618,-0.0116451997309923,0.3135553896427154
1630573765639,0.3346756994724273,1.7124735116958618,0.0053772944957017,0.3298211395740509
1630573765688,0.3254603743553161,1.7124735116958618,0.0228606443852186,0.340897649526596
1630573765807,0.3145874440670013,1.7124735116958618,0.0409912317991256,0.3460882008075714
1630573765933,0.305745393037796,1.7124735116958618,0.0570272579789161,0.3466980457305908
1630573766052,0.2970565259456634,1.7124735116958618,0.0688594505190849,0.3456668555736542
1630573766129,0.284440279006958,1.7124735116958618,0.0767925456166267,0.3390723466873169
1630573766254,0.2669503092765808,1.7124735116958618,0.0815091431140899,0.3354502916336059
1630573766333,0.2459810972213745,1.7124735116958618,0.083871990442276,0.3307577967643738
1630573766455,0.2260269075632095,1.7124735116958618,0.0853886008262634,0.3232946395874023
1630573766539,0.2124158591032028,1.7124735116958618,0.0864246189594268,0.31624835729599
1630573766635,0.2120280414819717,1.7124735116958618,0.0842785462737083,0.312838464975357
1630573766720,0.2255094498395919,1.7124735116958618,0.0747757852077484,0.3104269504547119
1630573766844,0.2466837018728256,1.7124735116958618,0.0556736998260021,0.3040307164192199
1630573766915,0.2675853669643402,1.7124735116958618,0.0287093929946422,0.2930347919464111
1630573767029,0.2848123013973236,1.7124735116958618,-0.0014276803703978,0.2806882262229919
1630573767139,0.3005282282829284,1.7124735116958618,-0.0302309542894363,0.2692831456661224
1630573767286,0.3162935674190521,1.7124735116958618,-0.0557756349444389,0.2576154768466949
1630573767337,0.3332536518573761,1.7124735116958618,-0.0776289254426956,0.2432234287261963
1630573767444,0.3531047403812408,1.7124735116958618,-0.0943520292639732,0.2265029698610305
1630573767538,0.3770600855350494,1.7124735116958618,-0.1052449569106102,0.2100020349025726
1630573767642,0.4026931822299957,1.7124735116958618,-0.1134540066123008,0.197604164481163
1630573767771,0.4279955327510834,1.7124735116958618,-0.1237153559923172,0.1940197497606277
1630573767854,0.4554213881492615,1.7124735116958618,-0.1388749480247497,0.2023864686489105
1630573767987,0.4848736822605133,1.7124735116958618,-0.1584001630544662,0.219453290104866
1630573768047,0.5120224952697754,1.7124735116958618,-0.1776995211839676,0.2363374829292297
1630573768154,0.5296963453292847,1.7124735116958618,-0.1916375458240509,0.2451917380094528
1630573768250,0.5349821448326111,1.7124735116958618,-0.1961717307567596,0.2453589588403701
1630573768404,0.5306782722473145,1.7124735116958618,-0.190139502286911,0.2412670850753784
1630573768452,0.522733747959137,1.7124735116958618,-0.1743313670158386,0.2364704310894012
1630573768556,0.515471339225769,1.7124735116958618,-0.1521695405244827,0.2306726276874542
1630573768679,0.510240375995636,1.7124735116958618,-0.1308274418115615,0.2247770130634308
1630573768772,0.5063798427581787,1.7124735116958618,-0.1177523136138916,0.2243023812770843
1630573768833,0.5013458728790283,1.7124735116958618,-0.115279734134674,0.2334904372692108
1630573768972,0.4914748966693878,1.7124735116958618,-0.1212007254362106,0.2475148439407348
1630573769088,0.4741230010986328,1.7124735116958618,-0.1285834163427353,0.2570205628871918
1630573769151,0.4503758549690246,1.7124735116958618,-0.1303896009922027,0.2580658793449402
1630573769270,0.4222652316093445,1.7124735116958618,-0.1250841915607452,0.2546803653240204
1630573769382,0.3896999657154083,1.7124735116958618,-0.1175097078084945,0.2527340352535248
1630573769445,0.3527449071407318,1.7124735116958618,-0.1140326485037803,0.25384521484375
1630573769600,0.3163530230522156,1.7124735116958618,-0.1162056624889373,0.2558254301548004
1630573769689,0.2889820635318756,1.7124735116958618,-0.1196028739213943,0.2580915987491607
1630573769782,0.2720701694488525,1.7124735116958618,-0.1209055259823799,0.2617797553539276
1630573769882,0.2579338848590851,1.7124735116958618,-0.1208085641264915,0.2658579051494598
1630573769973,0.2388129234313964,1.7124735116958618,-0.1228400021791458,0.268459290266037
1630573770136,0.2129812091588974,1.7124735116958618,-0.1292722225189209,0.2693994045257568
1630573770205,0.1845970153808593,1.7124735116958618,-0.1387142539024353,0.2689796388149261
1630573770285,0.1579515784978866,1.7124735116958618,-0.1465165019035339,0.2678056061267853
1630573770383,0.1351391822099685,1.7124735116958618,-0.1497479230165481,0.2695090472698211
1630573770476,0.1237570643424987,1.7124735116958618,-0.1467075645923614,0.2801235318183899
1630573770603,0.1277196258306503,1.7124735116958618,-0.1359325647354126,0.3012332022190094
1630573770659,0.1450085788965225,1.7124735116958618,-0.1148703321814537,0.3262608349323272
1630573770804,0.1688141822814941,1.7124735116958618,-0.0845416039228439,0.3448844850063324
1630573770903,0.1863626539707183,1.7124735116958618,-0.0524840466678142,0.3538839817047119
1630573770996,0.1916919350624084,1.7124735116958618,-0.0270285755395889,0.3567888736724853
1630573771075,0.1841204464435577,1.7124735116958618,-0.0127553520724177,0.3583035171031952
1630573771186,0.1671068370342254,1.7124735116958618,-0.0092822210863232,0.3599322736263275
1630573771304,0.1515951603651046,1.7124735116958618,-0.0115599343553185,0.3592517375946045
1630573771432,0.1505602300167083,1.7124735116958618,-0.0142826382070779,0.355486661195755
1630573771504,0.1704240441322326,1.7124735116958618,-0.013046178035438,0.3523023128509521
1630573771633,0.1790173500776291,1.7124735116958618,-0.007932998239994,0.3593973815441131
1630573771716,0.188881054520607,1.7124735116958618,-0.002094984985888,0.3663215041160583
1630573771854,0.1962351649999618,1.7124735116958618,0.0020298957824707,0.3719953000545501
1630573771900,0.2032198309898376,1.7124735116958618,0.0043349540792405,0.3729687929153442
1630573772022,0.2085745483636856,1.7124735116958618,0.0044113281182944,0.3647363185882568
1630573772100,0.2120900750160217,1.7124735116958618,0.0083364127203822,0.3456643223762512
1630573772213,0.212624967098236,1.7124735116958618,-0.0009511899552308,0.3191786706447601
1630573772307,0.2079658508300781,1.7124735116958618,-0.0258578173816204,0.2950536012649536
1630573772402,0.2036729156970977,1.7124735116958618,-0.0585369579493999,0.276128888130188
1630573772527,0.2060251235961914,1.7124735116958618,-0.0842200592160224,0.2545122504234314
1630573772625,0.2217183858156204,1.7124735116958618,-0.0930366367101669,0.2221911698579788
1630573772737,0.2217183858156204,1.7124735116958618,-0.0879055485129356,0.2221911698579788
1630573772819,0.2217183858156204,1.7124735116958618,-0.0803921446204185,0.2221911698579788
1630573772937,0.2217183858156204,1.7124735116958618,-0.078364796936512,0.2221911698579788
1630573773037,0.2217183858156204,1.7124735116958618,-0.0880645513534545,0.2221911698579788
1630573773137,0.2217183858156204,1.7124735116958618,-0.1115697994828224,0.2221911698579788
1630573773246,0.2217183858156204,1.7124735116958618,-0.1115697994828224,0.2221911698579788
1630573773353,0.2217183858156204,1.7124735116958618,-0.1115697994828224,0.2221911698579788
1630573773446,0.2217183858156204,1.7124735116958618,-0.1115697994828224,0.2221911698579788
1630573773509,0.2217183858156204,1.7124735116958618,-0.1115697994828224,0.2221911698579788
1630573773625,0.2217183858156204,1.7124735116958618,-0.1115697994828224,0.2221911698579788
1630573773707,0.2217183858156204,1.7124735116958618,-0.1115697994828224,0.2221911698579788
1630573773871,0.2217183858156204,1.7124735116958618,-0.1115697994828224,0.2221911698579788
1630573773950,0.2217183858156204,1.7124735116958618,-0.1115697994828224,0.2221911698579788
1630573774037,0.2217183858156204,1.7124735116958618,-0.1115697994828224,0.2221911698579788
1630573774149,0.2217183858156204,1.7124735116958618,-0.1115697994828224,0.2221911698579788
1630573774231,0.2217183858156204,1.7124735116958618,-0.1115697994828224,0.2221911698579788
1630573774326,0.2217183858156204,1.7124735116958618,0.3095740079879761,0.2221911698579788
1630573774505,0.6588791012763977,1.7124735116958618,0.2984470427036285,0.2221911698579788
1630573774565,0.7192156910896301,1.7124735116958618,0.2972148358821869,0.2221911698579788
1630573774659,0.7460770010948181,1.7124735116958618,0.3005983829498291,0.2221911698579788
1630573774740,0.7485804557800293,1.7124735116958618,0.3017033636569977,0.2221911698579788
1630573774833,0.7368910908699036,1.7124735116958618,0.2973960340023041,0.2221911698579788
1630573774926,0.7211161255836487,1.7124735116958618,0.2887577414512634,0.2221911698579788
1630573775053,0.7037398219108582,1.7124735116958618,0.2798440158367157,0.2221911698579788
1630573775154,0.7037398219108582,1.7124735116958618,0.2733829021453857,0.2221911698579788
1630573775234,0.7037398219108582,1.7124735116958618,0.270713061094284,0.2221911698579788
1630573775354,0.7037398219108582,1.7124735116958618,0.2718295753002167,0.2221911698579788
1630573775437,0.7037398219108582,1.7124735116958618,0.2764400243759155,0.2221911698579788
1630573775553,0.7037398219108582,1.7124735116958618,0.2762716114521026,0.2221911698579788
1630573775678,0.7240086793899536,1.7124735116958618,0.2776864767074585,0.2221911698579788
1630573775788,0.742781937122345,1.7124735116958618,0.2777867317199707,0.2221911698579788
1630573775904,0.7495033144950867,1.7124735116958618,0.2743005752563476,0.2221911698579788
1630573775967,0.731263279914856,1.7124735116958618,0.2657718956470489,0.2221911698579788
1630573776076,0.6876919865608215,1.7124735116958618,0.2510988116264343,0.2221911698579788
1630573776154,0.6313194632530212,1.7124735116958618,0.2457015216350555,0.2221911698579788
1630573776284,0.6313194632530212,1.7124735116958618,0.2403952926397323,0.2221911698579788
1630573776416,0.6313194632530212,1.7124735116958618,0.2386063337326049,0.2221911698579788
1630573776460,0.6313194632530212,1.7124735116958618,0.241774097084999,0.2221911698579788
1630573776596,0.6313194632530212,1.7124735116958618,0.2475870996713638,0.2221911698579788
1630573776675,0.6313194632530212,1.7124735116958618,0.2530425190925598,0.2221911698579788
1630573776753,0.6313194632530212,1.7124735116958618,0.2549677789211273,0.2221911698579788
1630573776888,0.6313194632530212,1.7124735116958618,0.2503340542316437,0.2221911698579788
1630573777022,0.6313194632530212,1.7124735116958618,0.2341894507408142,0.2221911698579788
1630573777101,0.6313194632530212,1.7124735116958618,0.2026406079530716,0.2221911698579788
1630573777206,0.6313194632530212,1.7124735116958618,0.1562739908695221,0.2221911698579788
1630573777338,0.6313194632530212,1.7124735116958618,0.1562739908695221,0.2221911698579788
1630573777362,0.6313194632530212,1.7124735116958618,0.1562739908695221,0.2221911698579788
1630573777526,0.6313194632530212,1.7124735116958618,0.1562739908695221,0.2221911698579788
1630573777598,0.6313194632530212,1.7124735116958618,0.1562739908695221,0.2221911698579788
1630573777809,0.1834231466054916,1.7124735116958618,0.1351073980331421,0.2392210066318512
1630573777870,0.2188756763935089,1.7124735116958618,0.106131412088871,0.2266699075698852
1630573777984,0.2483235299587249,1.7124735116958618,0.080903060734272,0.2152640223503112
1630573778126,0.2608045637607574,1.7124735116958618,0.0593254491686821,0.2014641910791397
1630573778221,0.2581442892551422,1.7124735116958618,0.0426343232393264,0.1817440688610077
1630573778324,0.2516266107559204,1.7124735116958618,0.0325933843851089,0.1623469740152359
1630573778438,0.2495128214359283,1.7124735116958618,0.0290907304733991,0.1536858975887298
1630573778501,0.2513652741909027,1.7124735116958618,0.0302382707595825,0.163489818572998
1630573778637,0.2533096969127655,1.7124735116958618,0.0342676267027854,0.1915464252233505
1630573778731,0.2541640102863312,1.7124735116958618,0.040228608995676,0.1915464252233505
1630573778837,0.2574152648448944,1.7124735116958618,0.0467389337718486,0.1915464252233505
1630573778918,0.2651548981666565,1.7124735116958618,0.0481866523623466,0.1860249191522598
1630573779036,0.2761683762073517,1.7124735116958618,0.0456729047000408,0.1770379394292831
1630573779138,0.290618896484375,1.7124735116958618,0.0437759943306446,0.1669849455356598
1630573779202,0.3030924797058105,1.7124735116958618,0.0453502312302589,0.160742774605751
1630573779355,0.3081705570220947,1.7124735116958618,0.0482398681342601,0.1588525474071502
1630573779423,0.3035991489887237,1.7124735116958618,0.0521538816392421,0.1590000689029693
1630573779571,0.2943266332149505,1.7124735116958618,0.061050284653902,0.3724989295005798
1630573779648,0.2877753376960754,1.7124735116958618,0.076040968298912,0.4810126423835754
1630573779755,0.2862544357776642,1.7124735116958618,0.0917076840996742,0.5642879009246826
1630573779846,0.2848328948020935,1.7124735116958618,0.1019889563322067,0.6334449052810669
1630573779974,0.279600977897644,1.7124735116958618,0.106190912425518,0.6915792226791382
1630573780090,0.2727050185203552,1.7124735116958618,0.1083870232105255,0.7349936366081238
1630573780149,0.2660679817199707,1.7124735116958618,0.1118275746703147,0.7763134837150574
1630573780227,0.2588087618350982,1.7124735116958618,0.1186152994632721,0.7763134837150574
1630573780322,0.246170312166214,1.7124735116958618,0.1316750347614288,0.7955141067504883
1630573780417,0.2308414876461029,1.7124735116958618,0.151911199092865,0.7961512207984924
1630573780568,0.2172404080629348,1.7124735116958618,0.1746882200241089,0.789216935634613
1630573780664,0.208787128329277,1.7124735116958618,0.1926105469465255,0.789216935634613
1630573780769,0.2058812081813812,1.7124735116958618,0.2026190757751464,0.789216935634613
1630573780868,0.2101696580648422,1.7124735116958618,0.2066932320594787,0.789216935634613
1630573780943,0.2244549542665481,1.7124735116958618,0.2064606100320816,0.789216935634613
1630573781043,0.246623083949089,1.7124735116958618,0.2014788836240768,0.7759652733802795
1630573781154,0.2711488902568817,1.7124735116958618,0.19190514087677,0.7760334610939026
1630573781249,0.2918634712696075,1.7124735116958618,0.1808593720197677,0.7859440445899963
1630573781345,0.3084065616130829,1.7124735116958618,0.1728275120258331,0.8028583526611328
1630573781453,0.3205851018428802,1.7124735116958618,0.1683524399995803,0.8161186575889587
1630573781550,0.3296436965465545,1.7124735116958618,0.1631717979907989,0.8113797307014465
1630573781651,0.3366364538669586,1.7124735116958618,0.1527284383773803,0.800356388092041
1630573781801,0.341474324464798,1.7124735116958618,0.1342976242303848,0.7882651686668396
1630573781862,0.3470528125762939,1.7124735116958618,0.1065712124109268,0.7677975296974182
1630573781970,0.3534615337848663,1.7124735116958618,0.0689135715365409,0.7541239857673645
1630573782054,0.3591395020484924,1.7124735116958618,0.0232651904225349,0.7400987148284912
1630573782165,0.3617571592330932,1.7124735116958618,-0.0216444749385118,0.7197631597518921
1630573782253,0.3595454394817352,1.7124735116958618,-0.0530172474682331,0.6976914405822754
1630573782392,0.3504938185214996,1.7124735116958618,-0.062352567911148,0.6780003309249878
1630573782470,0.3350264132022857,1.7124735116958618,-0.0506742522120475,0.6632155179977417
1630573782608,0.3151176571846008,1.7124735116958618,-0.0263029020279645,0.6416739225387573
1630573782671,0.2972111701965332,1.7124735116958618,0.0004397702869027,0.6242958903312683
1630573782754,0.2901224493980407,1.7124735116958618,0.0195485018193721,0.602750301361084
1630573782852,0.2798649072647095,1.7124735116958618,0.0243507903069257,0.577065110206604
1630573783017,0.2744569182395935,1.7124735116958618,0.0162899084389209,0.547339677810669
1630573783103,0.2706368863582611,1.7124735116958618,0.0032488591969013,0.5221776366233826
1630573783202,0.2681532204151153,1.7124735116958618,0.0084912069141864,0.5036882758140564
1630573783291,0.2706511318683624,1.7124735116958618,0.018482856452465,0.4867733716964721
1630573783368,0.2763617038726806,1.7124735116958618,0.0307939909398555,0.463876724243164
1630573783454,0.2828957736492157,1.7124735116958618,0.0418746396899223,0.436908096075058
1630573783597,0.2862251102924347,1.7124735116958618,0.0510030016303062,0.4197339415550232
1630573783709,0.2843554317951202,1.7124735116958618,0.0602662824094295,0.4238265752792358
1630573783809,0.2839216291904449,1.7124735116958618,0.0703498199582099,0.4488583505153656
1630573783896,0.2929553091526031,1.7124735116958618,0.0764450952410698,0.4829968214035034
1630573783970,0.2929553091526031,1.7124735116958618,0.0680575370788574,0.4829968214035034
1630573784070,0.2929553091526031,1.7124735116958618,0.0418646968901157,0.4829968214035034
1630573784216,0.2929553091526031,1.7124735116958618,0.0096691753715276,0.4829968214035034
1630573784321,0.2929553091526031,1.7124735116958618,-0.0066048884764313,0.4829968214035034
1630573784422,0.2929553091526031,1.7124735116958618,0.0113367512822151,0.4829968214035034
1630573784516,0.2929553091526031,1.7124735116958618,0.0546927042305469,0.4829968214035034
1630573784583,0.2929553091526031,1.7124735116958618,0.0982253029942512,0.4829968214035034
1630573784690,0.2929553091526031,1.7124735116958618,0.0840220153331756,0.4829968214035034
1630573784838,-0.1417596638202667,1.7124735116958618,0.0625249519944191,0.1674923747777938
1630573784933,-0.1125662624835968,1.7124735116958618,0.042633481323719,0.1809288710355758
1630573785015,-0.0901074334979057,1.7124735116958618,0.0313581749796867,0.1986424624919891
1630573785109,-0.0710937976837158,1.7124735116958618,0.0287513881921768,0.2161987125873565
1630573785218,-0.0568733848631382,1.7124735116958618,0.0322310663759708,0.2308001667261123
1630573785339,-0.0407639592885971,1.7124735116958618,0.0378278978168964,0.2414483875036239
1630573785456,-0.0208948329091072,1.7124735116958618,0.0416316427290439,0.2489227652549743
1630573785555,0.0006486228085123,1.7124735116958618,0.0413549281656742,0.2528635561466217
1630573785632,0.0179388932883739,1.7124735116958618,0.0335414968430995,0.2557966411113739
1630573785735,0.0281996186822652,1.7124735116958618,0.0224515926092863,0.2626708149909973
1630573785801,0.0336023308336734,1.7124735116958618,0.0125187393277883,0.2731538116931915
1630573785904,0.0367286875844001,1.7124735116958618,0.0111241098493337,0.286929726600647
1630573786053,0.0507628843188285,1.7124735116958618,0.0258306041359901,0.3078983426094055
1630573786161,0.0692565664649009,1.7124735116958618,0.0561010017991066,0.3265506029129028
1630573786223,0.0916652381420135,1.7124735116958618,0.0922290384769439,0.3415877223014831
1630573786323,0.1164397150278091,1.7124735116958618,0.1220716759562492,0.3511396646499634
1630573786466,0.1376038640737533,1.7124735116958618,0.139310747385025,0.353898674249649
1630573786515,0.1529673784971237,1.7124735116958618,0.1448312401771545,0.3520164787769317
1630573786687,0.1618759930133819,1.7124735116958618,0.14394012093544,0.3484032750129699
1630573786772,0.1683764904737472,1.7124735116958618,0.139750450849533,0.3471156656742096
1630573786836,0.1751907169818878,1.7124735116958618,0.1324330568313598,0.3523214161396026
1630573786955,0.1819385737180709,1.7124735116958618,0.1218508556485176,0.3659958243370056
1630573787038,0.1869397163391113,1.7124735116958618,0.1086441949009895,0.3861477971076965
1630573787105,0.1897017359733581,1.7124735116958618,0.0953738763928413,0.4060312807559967
1630573787267,0.1921601444482803,1.7124735116958618,0.0827689990401268,0.4176448583602905
1630573787355,0.1924012154340744,1.7124735116958618,0.0702340677380561,0.419134259223938
1630573787432,0.1893745213747024,1.7124735116958618,0.0511201061308383,0.412392109632492
1630573787529,0.187627762556076,1.7124735116958618,0.0155600067228078,0.4037465453147888
1630573787639,0.1894283890724182,1.7124735116958618,-0.0412393398582935,0.3981322348117828
1630573787733,0.1954266279935836,1.7124735116958618,-0.1107061058282852,0.3957694768905639
1630573787874,0.2015130519866943,1.7124735116958618,-0.168987900018692,0.396797776222229
1630573787988,0.2034415006637573,1.7124735116958618,-0.1938042342662811,0.4042283892631531
1630573788079,0.2054181545972824,1.7124735116958618,-0.1877342164516449,0.4225038886070251
1630573788155,0.2086494266986847,1.7124735116958618,-0.1734829246997833,0.4510233998298645
1630573788271,0.2141761779785156,1.7124735116958618,-0.1674523204565048,0.4816467761993408
1630573788349,0.2199978828430175,1.7124735116958618,-0.1678574234247207,0.5050948858261108
1630573788505,0.222547248005867,1.7124735116958618,-0.1614556014537811,0.516202449798584
1630573788583,0.223362848162651,1.7124735116958618,-0.1382587403059005,0.5170863270759583
1630573788708,0.2240443378686905,1.7124735116958618,-0.1013467907905578,0.5150150060653687
1630573788764,0.2229764908552169,1.7124735116958618,-0.0588105767965316,0.5149973630905151
1630573788887,0.2240995615720749,1.7124735116958618,-0.018608184531331,0.5166933536529541
1630573788987,0.2283176630735397,1.7124735116958618,0.0153571534901857,0.5159441828727722
1630573789079,0.2316690981388092,1.7124735116958618,0.0423527024686336,0.5096806287765503
1630573789190,0.232195034623146,1.7124735116958618,0.06329245865345,0.4991781413555145
1630573789280,0.2246727049350738,1.7124735116958618,0.0786441713571548,0.4874378442764282
1630573789422,0.2149947136640548,1.7124735116958618,0.0867954865097999,0.4774265885353088
1630573789481,0.2112881243228912,1.7124735116958618,0.0863880366086959,0.4676680266857147
1630573789546,0.2155889570713043,1.7124735116958618,0.080387957394123,0.4525448083877563
1630573789707,0.2260462939739227,1.7124735116958618,0.0748066827654838,0.4267987310886383
1630573789785,0.2324408888816833,1.7124735116958618,0.0738975554704666,0.3893724977970123
1630573789922,0.2300791144371032,1.7124735116958618,0.0765650644898414,0.3458999097347259
1630573789983,0.2242426574230194,1.7124735116958618,0.0769019797444343,0.3055991232395172
1630573790102,0.2173618525266647,1.7124735116958618,0.070617064833641,0.2757841348648071
1630573790164,0.2150609195232391,1.7124735116958618,0.0574986524879932,0.2578621804714203
1630573790319,0.2203264236450195,1.7124735116958618,0.0402727909386158,0.2499916851520538
1630573790419,0.2316583693027496,1.7124735116958618,0.0230270866304636,0.2508732080459595
1630573790545,0.2520193755626678,1.7124735116958618,0.0085952952504158,0.2614729404449463
1630573790646,0.2777049839496612,1.7124735116958618,-0.0024397196248173,0.2792058885097503
1630573790677,0.2999419271945953,1.7124735116958618,-0.0096257515251636,0.2979347109794616
1630573790773,0.314586728811264,1.7124735116958618,-0.0104545084759593,0.3135397434234619
1630573790927,0.3163934051990509,1.7124735116958618,-0.0028532717842608,0.323856383562088
1630573791046,0.3105075657367706,1.7124735116958618,0.0112971263006329,0.3327943980693817
1630573791092,0.3018587529659271,1.7124735116958618,0.0260714218020439,0.3486789166927337
1630573791219,0.2950684428215027,1.7124735116958618,0.0369404330849647,0.3774740695953369
1630573791310,0.2954385578632355,1.7124735116958618,0.0433606766164302,0.4157154858112335
1630573791380,0.3015243709087372,1.7124735116958618,0.0459667406976223,0.4502923190593719
1630573791562,0.3078465461730957,1.7124735116958618,0.0464482270181179,0.4704312980175018
1630573791637,0.3127480149269104,1.7124735116958618,0.0461217612028121,0.472994863986969
1630573791703,0.3131892383098602,1.7124735116958618,0.0456018038094043,0.4608900249004364
1630573791814,0.3112925589084625,1.7124735116958618,0.0443047955632209,0.4404672384262085
1630573791918,0.3100421726703644,1.7124735116958618,0.0429009497165679,0.4198322296142578
1630573791983,0.3076160848140716,1.7124735116958618,0.0470678247511386,0.4058829843997955
1630573792141,0.3039845526218414,1.7124735116958618,0.059957280755043,0.4022731184959411
1630573792241,0.2984820008277893,1.7124735116958618,0.0772819072008133,0.4089579284191131
1630573792323,0.2937162518501282,1.7124735116958618,0.0906599834561348,0.4212583005428314
1630573792412,0.295704185962677,1.7124735116958618,0.0963407903909683,0.4330563843250274
1630573792510,0.3035865426063537,1.7124735116958618,0.0957738012075424,0.4370377659797668
1630573792583,0.3121765553951263,1.7124735116958618,0.0926690548658371,0.4269607663154602
1630573792748,0.3150665163993835,1.7124735116958618,0.09005868434906,0.4005192816257477
1630573792861,0.3092827498912811,1.7124735116958618,0.0907546952366828,0.36223965883255
1630573792939,0.298221230506897,1.7124735116958618,0.0949550867080688,0.3254178762435913
1630573793020,0.2895082533359527,1.7124735116958618,0.0993274375796318,0.3084762692451477
1630573793148,0.282921701669693,1.7124735116958618,0.1008470207452774,0.3180713951587677
1630573793238,0.2798030972480774,1.7124735116958618,0.099108763039112,0.3453503847122192
1630573793350,0.2757291793823242,1.7124735116958618,0.0947990268468856,0.377278596162796
1630573793435,0.2642315626144409,1.7124735116958618,0.0877009481191635,0.403606116771698
1630573793527,0.245464950799942,1.7124735116958618,0.0749217271804809,0.4175597727298736
1630573793619,0.219629019498825,1.7124735116958618,0.0561881586909294,0.415644496679306
1630573793735,0.1948308646678924,1.7124735116958618,0.0364969111979007,0.3979243636131286
1630573793849,0.1785779595375061,1.7124735116958618,0.0224282667040824,0.3716782033443451
1630573793999,0.1692587882280349,1.7124735116958618,0.0159684922546148,0.3461987972259521
1630573794080,0.1604194194078445,1.7124735116958618,0.0136864501982927,0.3273680210113525
1630573794157,0.148911714553833,1.7124735116958618,0.011695104651153,0.314787745475769
1630573794256,0.1411405354738235,1.7124735116958618,0.0072997990064322,0.303774744272232
1630573794356,0.14229816198349,1.7124735116958618,-0.0019060407066717,0.2923587560653686
1630573794471,0.1523852795362472,1.7124735116958618,-0.012799359858036,0.2820563912391662
1630573794571,0.1648281514644622,1.7124735116958618,-0.0177405420690774,0.2760428488254547
1630573794704,0.1788565963506698,1.7124735116958618,-0.0122665259987115,0.2772064805030823
1630573794768,0.1935358941555023,1.7124735116958618,-0.0006847342010587,0.2828251719474792
1630573794851,0.2098944634199142,1.7124735116958618,0.0120333172380924,0.2884476482868194
1630573794938,0.2269864380359649,1.7124735116958618,0.0263400580734014,0.2909064888954162
1630573795056,0.2451390475034713,1.7124735116958618,0.0445485562086105,0.2921591103076935
1630573795187,0.2634983658790588,1.7124735116958618,0.063406303524971,0.2976484000682831
1630573795306,0.2802105247974396,1.7124735116958618,0.0755368173122406,0.3102971315383911
1630573795405,0.2914612591266632,1.7124735116958618,0.0758519172668457,0.3252387642860412
1630573795484,0.2951903939247131,1.7124735116958618,0.0637804567813873,0.3369511663913727
1630573795566,0.2957063913345337,1.7124735116958618,0.043431606143713,0.3438887298107147
1630573795696,0.2964338362216949,1.7124735116958618,0.0202702134847641,0.3497334420681
1630573795837,0.2972153723239898,1.7124735116958618,0.0014078135136514,0.3630225360393524
1630573795899,0.3005022406578064,1.7124735116958618,-0.0070524481125175,0.3875471651554107
1630573796005,0.3023504912853241,1.7124735116958618,-0.0068527087569236,0.4181248545646667
1630573796068,0.300634354352951,1.7124735116958618,-0.0051849079318344,0.4415766298770904
1630573796171,0.2932179868221283,1.7124735116958618,-0.0069926930591464,0.4481407403945923
1630573796288,0.2808094322681427,1.7124735116958618,-0.008998773060739,0.4391478896141052
1630573796398,0.2670815885066986,1.7124735116958618,-0.0084433676674962,0.4225701093673706
1630573796521,0.2543719112873077,1.7124735116958618,-0.0105532985180616,0.4074999988079071
1630573796568,0.2404331564903259,1.7124735116958618,-0.0226036701351404,0.3986586630344391
1630573796701,0.220249056816101,1.7124735116958618,-0.0418035276234149,0.3945600092411041
1630573796802,0.1946675926446914,1.7124735116958618,-0.0556551180779933,0.3905624449253082
1630573796863,0.1699649691581726,1.7124735116958618,-0.0531293451786041,0.3851521909236908
1630573797013,0.151756927371025,1.7124735116958618,-0.0366238914430141,0.3797959089279175
1630573797137,0.1374972015619278,1.7124735116958618,-0.0161859523504972,0.3769667744636535
1630573797203,0.1241564378142356,1.7124735116958618,-0.0001338890870101,0.3768525719642639
1630573797304,0.107317179441452,1.7124735116958618,0.0087755257263779,0.3716632425785064
1630573797386,0.0824142843484878,1.7124735116958618,0.012282577343285,0.3553135097026825
1630573797495,0.0599356293678283,1.7124735116958618,0.0152632901445031,0.3273603618144989
1630573797637,0.046343807131052,1.7124735116958618,0.0201225280761718,0.2948978543281555
1630573797702,0.0524092204868793,1.7124735116958618,0.0241302028298378,0.2681585550308227
1630573797839,0.0744624361395835,1.7124735116958618,0.0213180370628833,0.2516084313392639
1630573797945,0.0997826382517814,1.7124735116958618,0.0103333368897438,0.2458578050136566
1630573798011,0.1202698498964309,1.7124735116958618,-0.0027384050190448,0.2514651417732239
1630573798148,0.129833310842514,1.7124735116958618,-0.0094899404793977,0.265697181224823
1630573798232,0.1418773531913757,1.7124735116958618,-0.0095489174127578,0.2817570865154266
1630573798337,0.1636917889118194,1.7124735116958618,-0.0093877324834465,0.2942703068256378
1630573798448,0.1944994926452636,1.7124735116958618,-0.0145625649020075,0.301369309425354
1630573798556,0.2264431864023208,1.7124735116958618,-0.0230771768838167,0.3023548424243927
1630573798628,0.2508053183555603,1.7124735116958618,-0.0304934103041887,0.2979733049869537
1630573798689,0.2668844163417816,1.7124735116958618,-0.0338932909071445,0.2893885672092438
1630573798846,0.2836191356182098,1.7124735116958618,-0.034133318811655,0.2819022238254547
1630573798924,0.3083888590335846,1.7124735116958618,-0.0342731326818466,0.2789672911167145
1630573799072,0.3353874683380127,1.7124735116958618,-0.0395345985889434,0.2802048921585083
1630573799117,0.3552022576332092,1.7124735116958618,-0.0528675988316535,0.2823386490345001
1630573799203,0.3617147505283355,1.7124735116958618,-0.0711572840809822,0.2848831117153168
1630573799297,0.3548520505428314,1.7124735116958618,-0.0874324217438697,0.2888778150081634
1630573799472,0.3428016006946563,1.7124735116958618,-0.0964569970965385,0.2950595021247864
1630573799583,0.3355337083339691,1.7124735116958618,-0.1009856611490249,0.3006610870361328
1630573799615,0.3387737870216369,1.7124735116958618,-0.1087135449051857,0.3022150695323944
1630573799733,0.3460031151771545,1.7124735116958618,-0.1225490644574165,0.300862967967987
1630573799814,0.3482627272605896,1.7124735116958618,-0.1390679478645324,0.3015288710594177
1630573799910,0.3410416841506958,1.7124735116958618,-0.1532413363456726,0.3079020082950592
1630573800062,0.3263643980026245,1.7124735116958618,-0.1631337255239486,0.3227088451385498
1630573800170,0.3127203583717346,1.7124735116958618,-0.1667780578136444,0.3425327837467193
1630573800233,0.302465945482254,1.7124735116958618,-0.1595699340105056,0.3639339208602905
1630573800350,0.2900152802467346,1.7124735116958618,-0.142886072397232,0.3833947777748108
1630573800431,0.2696896195411682,1.7124735116958618,-0.1274607479572296,0.3981827199459076
1630573800527,0.244131714105606,1.7124735116958618,-0.1203352287411689,0.4068528711795807
1630573800665,0.2210975140333175,1.7124735116958618,-0.1172308772802352,0.4104705154895782
1630573800752,0.2062584906816482,1.7124735116958618,-0.1079940423369407,0.4122996926307678
1630573800837,0.1967688649892807,1.7124735116958618,-0.0895057618618011,0.413992315530777
1630573800937,0.1878395676612854,1.7124735116958618,-0.0703537687659263,0.4127797782421112
1630573801037,0.1845801025629043,1.7124735116958618,-0.0577597096562385,0.4115020632743835
1630573801154,0.1722960770130157,1.7124735116958618,-0.0525311976671218,0.4052792489528656
1630573801304,0.1529716104269027,1.7124735116958618,-0.0509034022688865,0.3975900113582611
1630573801386,0.1319623738527298,1.7124735116958618,-0.0409812368452549,0.3917078971862793
1630573801494,0.1148385852575302,1.7124735116958618,-0.0311473309993743,0.3885669708251953
1630573801621,0.1077751144766807,1.7124735116958618,-0.0229878518730402,0.3852028846740722
1630573801676,0.1049049943685531,1.7124735116958618,-0.0185812097042799,0.380374938249588
1630573801755,0.1056720316410064,1.7124735116958618,-0.022434638813138,0.3712032437324524
1630573801879,0.1106627285480499,1.7124735116958618,-0.0371639356017112,0.3551561534404754
1630573801988,0.1120816841721534,1.7124735116958618,-0.0570631176233291,0.3309833407402038
1630573802087,0.1004909798502922,1.7124735116958618,-0.0697499737143516,0.3053532242774963
1630573802170,0.1004909798502922,1.7124735116958618,-0.0689765438437461,0.3053532242774963
1630573802265,0.1004909798502922,1.7124735116958618,-0.0660444051027298,0.3053532242774963
1630573802366,0.1004909798502922,1.7124735116958618,-0.0769853964447975,0.3053532242774963
1630573802537,0.1004909798502922,1.7124735116958618,-0.0769853964447975,0.3053532242774963
1630573802599,0.1004909798502922,1.7124735116958618,-0.0769853964447975,0.3053532242774963
1630573802683,0.1004909798502922,1.7124735116958618,-0.0769853964447975,0.3053532242774963
1630573802787,0.1004909798502922,1.7124735116958618,-0.0769853964447975,0.3053532242774963
1630573802885,0.1004909798502922,1.7124735116958618,-0.0769853964447975,0.3053532242774963
1630573803005,0.1004909798502922,1.7124735116958618,-0.0769853964447975,0.3053532242774963
1630573803125,0.1004909798502922,1.7124735116958618,-0.0769853964447975,0.3053532242774963
1630573803220,0.1004909798502922,1.7124735116958618,-0.0769853964447975,0.3053532242774963
1630573803299,0.1004909798502922,1.7124735116958618,-0.0769853964447975,0.3053532242774963
1630573803399,0.1004909798502922,1.7124735116958618,-0.0769853964447975,0.3053532242774963
1630573803467,0.1004909798502922,1.7124735116958618,-0.0769853964447975,0.3053532242774963
1630573803553,0.1004909798502922,1.7124735116958618,-0.0769853964447975,0.3053532242774963
1630573803719,0.1004909798502922,1.7124735116958618,-0.0769853964447975,0.3053532242774963
1630573803819,0.1004909798502922,1.7124735116958618,-0.0769853964447975,0.3053532242774963
1630573803921,0.1004909798502922,1.7124735116958618,0.4674351811408996,0.3053532242774963
1630573804000,0.1004909798502922,1.7124735116958618,0.4113185107707977,0.3053532242774963
1630573804122,0.1004909798502922,1.7124735116958618,0.3058612942695617,0.3053532242774963
1630573804184,0.1004909798502922,1.7124735116958618,0.1825505793094635,0.3053532242774963
1630573804315,0.1004909798502922,1.7124735116958618,0.082387126982212,0.3053532242774963
1630573804436,0.1004909798502922,1.7124735116958618,0.0857394263148307,0.3053532242774963
1630573804500,0.1004909798502922,1.7124735116958618,0.0853592157363891,0.3053532242774963
1630573804607,0.1004909798502922,1.7124735116958618,0.0809949338436126,0.3053532242774963
1630573804698,0.1004909798502922,1.7124735116958618,0.0746899247169494,0.3053532242774963
1630573804817,0.1004909798502922,1.7124735116958618,0.0687708184123039,0.3053532242774963
1630573804953,0.1004909798502922,1.7124735116958618,0.0644806399941444,0.3053532242774963
1630573805035,0.1004909798502922,1.7124735116958618,0.0619156323373317,1.000443935394287
1630573805139,0.1004909798502922,1.7124735116958618,0.0607089065015316,0.987195372581482
1630573805230,1.3562953472137451,1.7124735116958618,0.0607113242149353,0.9635693430900574
1630573805305,1.3686323165893557,1.7124735116958618,0.0611116029322147,0.9318597912788392
1630573805433,1.3595322370529177,1.7124735116958618,0.0697537139058113,0.8987139463424683
1630573805544,1.3360450267791748,1.7124735116958618,0.0758115425705909,0.8714102506637573
1630573805664,1.306784987449646,1.7124735116958618,0.0826373696327209,0.8545032143592834
1630573805727,1.306784987449646,1.7124735116958618,0.090975821018219,0.8545032143592834
1630573805838,1.306784987449646,1.7124735116958618,0.09734508395195,0.8545032143592834
1630573805923,1.306784987449646,1.7124735116958618,0.0991700515151023,0.8545032143592834
1630573806022,1.306784987449646,1.7124735116958618,0.0979521796107292,0.8545032143592834
1630573806153,1.306784987449646,1.7124735116958618,0.0979770869016647,0.8545032143592834
1630573806236,1.306784987449646,1.7124735116958618,0.1010208204388618,0.834574818611145
1630573806340,1.306784987449646,1.7124735116958618,0.1065164357423782,0.807011067867279
1630573806432,1.320820689201355,1.7124735116958618,0.1123738586902618,0.7693833112716675
1630573806521,1.3209723234176636,1.7124735116958618,0.1155416071414947,0.7200430035591125
1630573806637,1.2991513013839722,1.7124735116958618,0.1201098710298538,0.6624770760536194
1630573806755,1.2508952617645264,1.7124735116958618,0.1243573576211929,0.6117295622825623
1630573806853,1.2508952617645264,1.7124735116958618,0.1288353502750396,0.6117295622825623
1630573806953,1.2508952617645264,1.7124735116958618,0.1323616355657577,0.6117295622825623
1630573807073,1.2508952617645264,1.7124735116958618,0.1308599263429641,0.6117295622825623
1630573807118,1.2508952617645264,1.7124735116958618,0.1210801750421524,0.6117295622825623
1630573807273,1.2508952617645264,1.7124735116958618,0.1047192066907882,0.6117295622825623
1630573807380,1.2508952617645264,1.7124735116958618,0.0892689600586891,0.6117295622825623
1630573807504,1.2508952617645264,1.7124735116958618,0.08238235861063,0.6117295622825623
1630573807571,1.2508952617645264,1.7124735116958618,0.0860215499997139,0.6117295622825623
1630573807648,1.2508952617645264,1.7124735116958618,0.0946758314967155,0.6117295622825623
1630573807750,1.2508952617645264,1.7124735116958618,0.0946758314967155,0.6117295622825623
1630573807850,1.2508952617645264,1.7124735116958618,0.0946758314967155,0.6117295622825623
1630573807987,1.2508952617645264,1.7124735116958618,0.0946758314967155,0.6117295622825623
1630573808153,1.2508952617645264,1.7124735116958618,0.0946758314967155,0.6117295622825623
1630573808184,1.2508952617645264,1.7124735116958618,0.0946758314967155,0.6117295622825623
1630573808274,1.2508952617645264,1.7124735116958618,0.0946758314967155,0.6117295622825623
1630573808367,1.2508952617645264,1.7124735116958618,0.0946758314967155,0.6117295622825623
1630573808446,1.2508952617645264,1.7124735116958618,0.0946758314967155,0.6117295622825623
1630573808581,1.2508952617645264,1.7124735116958618,0.0946758314967155,0.6117295622825623
1630573808686,1.2508952617645264,1.7124735116958618,0.0946758314967155,0.6117295622825623
1630573808797,1.2508952617645264,1.7124735116958618,0.6562398672103882,0.6117295622825623
1630573808904,1.2508952617645264,1.7124735116958618,0.6211509704589844,0.6117295622825623
1630573808966,1.2508952617645264,1.7124735116958618,0.5712847709655762,0.6117295622825623
1630573809087,1.2508952617645264,1.7124735116958618,0.5202070474624634,0.6117295622825623
1630573809205,1.2508952617645264,1.7124735116958618,0.4756441712379455,0.6117295622825623
1630573809310,1.2508952617645264,1.7124735116958618,0.4379822313785553,0.6117295622825623
1630573809404,1.2508952617645264,1.7124735116958618,0.4070684313774109,0.6117295622825623
1630573809480,1.2508952617645264,1.7124735116958618,0.3841755390167236,0.6117295622825623
1630573809638,1.2508952617645264,1.7124735116958618,0.3690944612026214,0.6117295622825623
1630573809672,1.2508952617645264,1.7124735116958618,0.3591789305210113,0.6117295622825623
1630573809802,1.2508952617645264,1.7124735116958618,0.350088506937027,0.6117295622825623
1630573809885,1.2508952617645264,1.7124735116958618,0.3389244377613067,0.6117295622825623
1630573809987,1.2508952617645264,1.7124735116958618,0.2876820266246795,0.6117295622825623
1630573810088,1.2508952617645264,1.7124735116958618,0.229093536734581,0.6117295622825623
1630573810216,1.2508952617645264,1.7124735116958618,0.1591955721378326,0.6117295622825623
1630573810263,1.2508952617645264,1.7124735116958618,0.0937004759907722,0.6117295622825623
1630573810421,1.2508952617645264,1.7124735116958618,0.0559287257492542,0.6117295622825623
1630573810483,1.2508952617645264,1.7124735116958618,0.0492054596543312,0.6117295622825623
1630573810603,1.2508952617645264,1.7124735116958618,0.0549840256571769,0.6117295622825623
1630573810709,1.2508952617645264,1.7124735116958618,0.0600171238183975,0.6117295622825623
1630573810787,0.4367989599704742,1.7124735116958618,0.0631942152976989,0.6117295622825623
1630573810920,0.4621238708496094,1.7124735116958618,0.0649900361895561,0.7043591141700745
1630573811035,0.5012488961219788,1.7124735116958618,0.0621553435921669,0.7043591141700745
1630573811155,0.5012488961219788,1.7124735116958618,0.0505458302795887,0.7043591141700745
1630573811223,0.5012488961219788,1.7124735116958618,0.0288254842162132,0.7043591141700745
1630573811315,0.5012488961219788,1.7124735116958618,0.0028244648128747,0.7043591141700745
1630573811438,0.5012488961219788,1.7124735116958618,-0.0182386841624975,0.7043591141700745
1630573811514,0.5012488961219788,1.7124735116958618,-0.0287339743226766,0.7043591141700745
1630573811656,0.4917892217636108,1.7124735116958618,-0.0316649116575717,0.7043591141700745
1630573811745,0.4789717197418213,1.7124735116958618,-0.0358298011124134,0.7011016011238098
1630573811855,0.4669140875339508,1.7124735116958618,-0.0445841550827026,0.66431725025177
1630573811948,0.4607155919075012,1.7124735116958618,-0.0486400201916694,0.6525993347167969
1630573811980,0.4748746156692505,1.7124735116958618,-0.0372416302561759,0.6432068347930908
1630573812107,0.490526407957077,1.7124735116958618,-0.0133085092529654,0.6635790467262268
1630573812237,0.4930935502052307,1.7124735116958618,0.0095163183286786,0.6635790467262268
1630573812322,0.4934416115283966,1.7124735116958618,0.0232041198760271,0.6635790467262268
1630573812416,0.4845889508724212,1.7124735116958618,0.0268679466098546,0.6468042731285095
1630573812518,0.447849303483963,1.7124735116958618,0.0289390385150909,0.6468042731285095
1630573812722,0.447849303483963,1.7124735116958618,0.0410849563777446,0.6468042731285095
1630573812850,0.447849303483963,1.7124735116958618,0.056885153055191,0.6468042731285095
1630573812972,0.447849303483963,1.7124735116958618,0.0762553289532661,0.6468042731285095
1630573813072,0.447849303483963,1.7124735116958618,0.0962054952979087,0.6468042731285095
1630573813131,0.451285719871521,1.7124735116958618,0.1178070828318595,0.6468042731285095
1630573813219,0.4680735468864441,1.7124735116958618,0.1456456780433654,0.6828898787498474
1630573813337,0.4680735468864441,1.7124735116958618,0.1802096217870712,0.6828898787498474
1630573813484,0.4680735468864441,1.7124735116958618,0.2091632485389709,0.6828898787498474
1630573813605,0.4680735468864441,1.7124735116958618,0.2091632485389709,0.6828898787498474
1630573813638,0.4680735468864441,1.7124735116958618,0.2091632485389709,0.6828898787498474
1630573813766,0.4680735468864441,1.7124735116958618,0.2091632485389709,0.6828898787498474
1630573813824,0.4680735468864441,1.7124735116958618,0.2091632485389709,0.6828898787498474
1630573813938,0.4680735468864441,1.7124735116958618,0.2091632485389709,0.6828898787498474
1630573814070,0.4680735468864441,1.7124735116958618,0.2091632485389709,0.6828898787498474
1630573814187,0.4680735468864441,1.7124735116958618,0.2091632485389709,0.6828898787498474
1630573814288,0.4680735468864441,1.7124735116958618,0.2091632485389709,0.6828898787498474
1630573814367,0.4680735468864441,1.7124735116958618,-0.181622639298439,0.6828898787498474
1630573814495,0.4680735468864441,1.7124735116958618,-0.1632596999406814,0.6828898787498474
1630573814558,0.4680735468864441,1.7124735116958618,-0.147662803530693,0.6828898787498474
1630573814705,0.4680735468864441,1.7124735116958618,-0.1403769701719284,0.6828898787498474
1630573814768,0.4680735468864441,1.7124735116958618,-0.1349109560251236,0.6828898787498474
1630573814890,0.4680735468864441,1.7124735116958618,-0.1235078424215316,0.6828898787498474
1630573814980,0.4680735468864441,1.7124735116958618,-0.1072853207588195,0.6828898787498474
1630573815088,0.4680735468864441,1.7124735116958618,-0.0928036645054817,0.6828898787498474
1630573815136,0.4347635209560394,1.7124735116958618,-0.0835756361484527,0.6828898787498474
1630573815288,0.4574302434921264,1.7124735116958618,-0.0783940702676773,0.6828898787498474
1630573815373,0.4507040381431579,1.7124735116958618,-0.0753545388579368,0.4667829871177673
1630573815506,0.4318020045757293,1.7124735116958618,-0.0732480064034462,0.4705840349197387
1630573815596,0.4104259014129638,1.7124735116958618,-0.0692282319068908,0.4744801521301269
1630573815691,0.3921695649623871,1.7124735116958618,-0.0647027492523193,0.4846478700637817
1630573815752,0.3770654201507568,1.7124735116958618,-0.0627948567271232,0.5000816583633423
1630573815889,0.3624058961868286,1.7124735116958618,-0.0657945796847343,0.5136744976043701
1630573816005,0.3457584083080292,1.7124735116958618,-0.0732337161898613,0.5199046730995178
1630573816080,0.3270914852619171,1.7124735116958618,-0.0809473693370819,0.5172790288925171
1630573816201,0.3119225203990936,1.7124735116958618,-0.0843056961894035,0.507228672504425
1630573816263,0.2942978143692016,1.7124735116958618,-0.0837522745132446,0.4920660555362701
1630573816369,0.2662802636623382,1.7124735116958618,-0.0846375375986099,0.474930077791214
1630573816511,0.2541162669658661,1.7124735116958618,-0.0921793207526207,0.4607517421245575
1630573816638,0.2432395666837692,1.7124735116958618,-0.1068637818098068,0.4526751041412353
1630573816702,0.1911064833402633,1.7124735116958618,-0.1255995333194732,0.450794517993927
1630573816769,0.1540274918079376,1.7124735116958618,-0.1442471891641616,0.4484882652759552
1630573816921,0.1460358798503875,1.7124735116958618,-0.1588119119405746,0.4406101107597351
1630573816975,0.1658409386873245,1.7124735116958618,-0.1690043210983276,0.4270107746124267
1630573817122,0.1937879472970962,1.7124735116958618,-0.175102412700653,0.4100028276443481
1630573817201,0.2100675255060196,1.7124735116958618,-0.1767067611217498,0.3920120000839233
1630573817336,0.2086091339588165,1.7124735116958618,-0.174249917268753,0.3745547831058502
1630573817399,0.1948693841695785,1.7124735116958618,-0.1686999052762985,0.3610322177410126
1630573817488,0.1809002310037613,1.7124735116958618,-0.1601293981075287,0.3566226065158844
1630573817603,0.1734621375799179,1.7124735116958618,-0.1469030380249023,0.36216601729393
1630573817737,0.1729383319616317,1.7124735116958618,-0.1318471729755401,0.3736630082130432
1630573817872,0.1768001616001129,1.7124735116958618,-0.1231658086180687,0.3848128616809845
1630573817936,0.18202805519104,1.7124735116958618,-0.1268283873796463,0.39114511013031
1630573818064,0.1872147768735885,1.7124735116958618,-0.1399925798177719,0.3910353779792785
1630573818087,0.1920927613973617,1.7124735116958618,-0.1528735160827636,0.3860847353935241
1630573818180,0.1968916356563568,1.7124735116958618,-0.1576723754405975,0.3802633285522461
1630573818372,0.1951733976602554,1.7124735116958618,-0.1560966670513153,0.3780143857002258
1630573818440,0.1779859215021133,1.7124735116958618,-0.156115174293518,0.3805601596832275
1630573818526,0.1439403593540191,1.7124735116958618,-0.1612860709428787,0.3861619532108307
1630573818622,0.1073930487036705,1.7124735116958618,-0.1681044250726699,0.391960859298706
1630573818709,0.0910468101501464,1.7124735116958618,-0.1715765297412872,0.3945686519145965
1630573818798,0.1094593703746795,1.7124735116958618,-0.1716409623622894,0.3918959200382232
1630573818957,0.1548142433166504,1.7124735116958618,-0.1733063161373138,0.3830459415912628
1630573819056,0.2047293186187744,1.7124735116958618,-0.1795269697904586,0.3685030043125152
1630573819137,0.245172843337059,1.7124735116958618,-0.1873128861188888,0.3536838889122009
1630573819271,0.2692203819751739,1.7124735116958618,-0.1905433088541031,0.3461638391017914
1630573819316,0.2790540158748626,1.7124735116958618,-0.1837446838617324,0.349782794713974
1630573819435,0.2809216678142547,1.7124735116958618,-0.1686610579490661,0.3606606423854828
1630573819555,0.281262993812561,1.7124735116958618,-0.1495348364114761,0.3697889447212219
1630573819638,0.285988986492157,1.7124735116958618,-0.1310205459594726,0.3705518543720245
1630573819755,0.2975581884384155,1.7124735116958618,-0.1167578920722007,0.3622216582298279
1630573819853,0.3151477575302124,1.7124735116958618,-0.1074571833014488,0.3501032292842865
1630573819939,0.3354718685150146,1.7124735116958618,-0.101695716381073,0.3426107466220855
1630573820035,0.3545884191989898,1.7124735116958618,-0.0985358506441116,0.3449064493179321
1630573820288,0.3758139610290527,1.7124735116958618,-0.1016419306397438,0.3682952225208282
1630573820385,0.3725003898143768,1.7124735116958618,-0.1034039407968521,0.3828688263893127
1630573820454,0.3570302426815033,1.7124735116958618,-0.0984966978430748,0.3993527293205261
1630573820532,0.3342204988002777,1.7124735116958618,-0.0894956365227699,0.4165164828300476
1630573820634,0.3129205703735351,1.7124735116958618,-0.0872725173830986,0.4291199147701263
1630573820786,0.302796334028244,1.7124735116958618,-0.0981735959649086,0.4314596652984619
1630573820904,0.3074278831481933,1.7124735116958618,-0.1180842593312263,0.424025297164917
1630573820990,0.3208792507648468,1.7124735116958618,-0.1349951773881912,0.4144140183925628
1630573821098,0.332479864358902,1.7124735116958618,-0.1436374485492706,0.4114495515823364
1630573821162,0.3351765275001526,1.7124735116958618,-0.1494484394788742,0.4178456962108612
1630573821270,0.3275819420814514,1.7124735116958618,-0.1593200117349624,0.4284043908119201
1630573821382,0.3137925267219543,1.7124735116958618,-0.1746031045913696,0.4363141655921936
1630573821496,0.2982178926467895,1.7124735116958618,-0.1914946734905243,0.4391178786754608
1630573821578,0.2815626561641693,1.7124735116958618,-0.2054583877325058,0.4380251765251159
1630573821706,0.2661124765872955,1.7124735116958618,-0.2154586315155029,0.4344264268875122
1630573821763,0.2549460828304291,1.7124735116958618,-0.223816379904747,0.4278666973114013
1630573821836,0.2487125098705291,1.7124735116958618,-0.2333304286003112,0.4180554151535034
1630573822006,0.2487229853868484,1.7124735116958618,-0.2433970719575882,0.4077444970607757
1630573822068,0.2516950964927673,1.7124735116958618,-0.2515239715576172,0.4001906812191009
1630573822173,0.2575078308582306,1.7124735116958618,-0.2565547823905945,0.3984421789646148
1630573822271,0.2650297284126282,1.7124735116958618,-0.2613165974617004,0.4046283960342407
1630573822387,0.2687021791934967,1.7124735116958618,-0.2690122127532959,0.4182019531726837
1630573822466,0.2688355445861816,1.7124735116958618,-0.279109925031662,0.4358100295066833
1630573822605,0.2681732475757599,1.7124735116958618,-0.2877002656459808,0.4509821832180023
1630573822766,0.2695856094360351,1.7124735116958618,-0.2918916344642639,0.4592968225479126
1630573822797,0.2751038074493408,1.7124735116958618,-0.2928425967693329,0.4613201320171356
1630573822924,0.2835247218608856,1.7124735116958618,-0.2940092980861664,0.4620203375816345
1630573822973,0.2941161096096039,1.7124735116958618,-0.296611338853836,0.4665337204933166
1630573823082,0.3045142889022827,1.7124735116958618,-0.3004656732082367,0.4762950539588928
1630573823209,0.3090843856334686,1.7124735116958618,-0.305484265089035,0.4900659322738647
1630573823287,0.3047401010990143,1.7124735116958618,-0.3125848770141601,0.4952693581581116
1630573823399,0.2946528792381286,1.7124735116958618,-0.3244965672492981,0.5014204382896423
1630573823522,0.2849110662937164,1.7124735116958618,-0.3427202999591827,0.5066410303115845
1630573823583,0.284263014793396,1.7124735116958618,-0.3606194257736206,0.5086290240287781
1630573823670,0.2931309938430786,1.7124735116958618,-0.366024374961853,0.5068913698196411
1630573823823,0.3042164742946625,1.7124735116958618,-0.3536486625671386,0.5027295351028442
1630573823903,0.3093394041061401,1.7124735116958618,-0.3323888480663299,0.4972157180309295
1630573824003,0.3034965097904205,1.7124735116958618,-0.3166971504688263,0.488822728395462
1630573824104,0.2902429401874542,1.7124735116958618,-0.3105573058128357,0.4798939228057861
1630573824201,0.2762203514575958,1.7124735116958618,-0.3071750104427337,0.4772105813026428
1630573824273,0.2656988203525543,1.7124735116958618,-0.2961622476577759,0.4901629686355591
1630573824427,0.2664557993412018,1.7124735116958618,-0.2708014845848083,0.4901629686355591
1630573824578,0.2844030559062958,1.7124735116958618,-0.2355333715677261,0.4901629686355591
1630573824621,0.3174364864826202,1.7124735116958618,-0.2182563841342926,0.4901629686355591
1630573824715,0.3567178547382355,1.7124735116958618,-0.1989998519420623,0.4901629686355591
1630573824795,0.396687388420105,1.7124735116958618,-0.1778832077980041,0.4901629686355591
1630573824907,0.4388792812824249,1.7124735116958618,-0.1551523804664611,0.4901629686355591
1630573825068,0.45828777551651,1.7124735116958618,-0.1325450092554092,0.4901629686355591
1630573825139,0.4737055599689483,1.7124735116958618,-0.1146228909492492,0.4901629686355591
1630573825219,0.4810163676738739,1.7124735116958618,-0.1059237495064735,0.4901629686355591
1630573825300,0.4816793203353882,1.7124735116958618,-0.1069999784231185,0.4901629686355591
1630573825404,0.4851783514022827,1.7124735116958618,-0.1126179248094558,0.4901629686355591
1630573825514,0.5008724927902222,1.7124735116958618,-0.1124795749783515,0.4901629686355591
1630573825670,0.5312874913215637,1.7124735116958618,-0.1000040769577026,0.4901629686355591
1630573825751,0.5719209313392639,1.7124735116958618,-0.1000040769577026,0.4901629686355591
1630573825870,0.6155454516410828,1.7124735116958618,-0.1000040769577026,0.4901629686355591
1630573825931,0.6526516675949097,1.7124735116958618,-0.1000040769577026,0.4901629686355591
1630573826093,0.6742591857910156,1.7124735116958618,-0.1000040769577026,0.4901629686355591
1630573826158,0.6742591857910156,1.7124735116958618,-0.1000040769577026,0.4901629686355591
1630573826290,0.6742591857910156,1.7124735116958618,-0.1000040769577026,0.4901629686355591
1630573826337,0.6742591857910156,1.7124735116958618,-0.1000040769577026,0.4901629686355591
1630573826446,0.6742591857910156,1.7124735116958618,-0.1000040769577026,0.4901629686355591
1630573826576,0.6742591857910156,1.7124735116958618,-0.1222847253084182,0.3499219417572021
1630573826644,0.6742591857910156,1.7124735116958618,-0.1395004093647003,0.3315606713294983
1630573826756,0.6742591857910156,1.7124735116958618,-0.1596492081880569,0.3162450492382049
1630573826866,0.6742591857910156,1.7124735116958618,-0.1776390075683593,0.3069411218166351
1630573826988,0.2171721309423446,1.7124735116958618,-0.190170869231224,0.301411360502243
1630573827054,0.221749722957611,1.7124735116958618,-0.1954299062490463,0.296840101480484
1630573827134,0.2159994095563888,1.7124735116958618,-0.1940836012363433,0.2902113795280456
1630573827224,0.21451036632061,1.7124735116958618,-0.1898224055767059,0.2831762433052063
1630573827356,0.2303383201360702,1.7124735116958618,-0.187466025352478,0.2822172045707702
1630573827505,0.264087975025177,1.7124735116958618,-0.1890326589345932,0.2918833792209625
1630573827584,0.3070419132709503,1.7124735116958618,-0.1919265538454055,0.3079625070095062
1630573827672,0.3433574140071869,1.7124735116958618,-0.1913846284151077,0.3210696876049042
1630573827774,0.3629889488220215,1.7124735116958618,-0.1858251243829727,0.324384331703186
1630573827888,0.3848268091678619,1.7124735116958618,-0.181835263967514,0.3252264559268951
1630573827975,0.3764210045337677,1.7124735116958618,-0.1779214292764663,0.3320252001285553
1630573828104,0.3631481230258941,1.7124735116958618,-0.1728570312261581,0.3482656180858612
1630573828189,0.3489340543746948,1.7124735116958618,-0.1664737164974212,0.3678452372550964
1630573828265,0.3431885242462158,1.7124735116958618,-0.157497376203537,0.3823147118091583
1630573828389,0.3326106369495392,1.7124735116958618,-0.1428384929895401,0.3878208100795746
1630573828465,0.3218583762645721,1.7124735116958618,-0.1235845759510994,0.3866142034530639
1630573828606,0.3134154677391052,1.7124735116958618,-0.1040440052747726,0.3833895623683929
1630573828722,0.3083082139492035,1.7124735116958618,-0.0872053354978561,0.3837514817714691
1630573828822,0.3047270774841308,1.7124735116958618,-0.0702252313494682,0.3885610401630401
1630573828885,0.2973287105560303,1.7124735116958618,-0.0493002198636531,0.3914543390274048
1630573829002,0.2803869843482971,1.7124735116958618,-0.0258279684931039,0.3849660754203796
1630573829081,0.25208780169487,1.7124735116958618,-0.0060795759782195,0.368527889251709
1630573829176,0.2195494920015335,1.7124735116958618,0.0054816626943647,0.3525364100933075
1630573829287,0.1932156682014465,1.7124735116958618,0.0096142580732703,0.3473860025405884
1630573829404,0.1771224439144134,1.7124735116958618,0.0092578995972871,0.3444648385047912
1630573829490,0.1701417118310928,1.7124735116958618,0.0074277529492974,0.3362766802310943
1630573829587,0.1695417761802673,1.7124735116958618,0.0052055874839425,0.3186798989772796
1630573829689,0.1729122698307037,1.7124735116958618,0.0028702593408524,0.2946268916130066
1630573829793,0.1780308336019516,1.7124735116958618,-0.0005861989338882,0.2739976644515991
1630573829914,0.1825759410858154,1.7124735116958618,0.0038828803226351,0.2650149762630462
1630573830012,0.1899303048849105,1.7124735116958618,0.0040967022068798,0.2685476541519165
1630573830105,0.1988630145788192,1.7124735116958618,0.001025381614454,0.2788876593112945
1630573830177,0.2080791741609573,1.7124735116958618,-0.003796542296186,0.2860488593578338
1630573830283,0.2143954634666443,1.7124735116958618,-0.0129600772634148,0.2825293242931366
1630573830426,0.2150318771600723,1.7124735116958618,-0.030582396313548,0.2712029218673706
1630573830511,0.2103917896747589,1.7124735116958618,-0.0564200766384601,0.2712029218673706
1630573830616,0.1996020972728729,1.7124735116958618,-0.0831016227602958,0.2712029218673706
1630573830706,0.1813908517360687,1.7124735116958618,-0.1035629510879516,0.2712029218673706
1630573830787,0.1595611572265625,1.7124735116958618,-0.1200730130076408,0.2712029218673706
1630573830907,0.1415815204381942,1.7124735116958618,-0.1379284262657165,0.2712029218673706
1630573830992,0.1355731338262558,1.7124735116958618,-0.1379284262657165,0.2712029218673706
1630573831116,0.1355731338262558,1.7124735116958618,-0.1379284262657165,0.2712029218673706
1630573831233,0.1355731338262558,1.7124735116958618,-0.1379284262657165,0.2712029218673706
1630573831320,0.1355731338262558,1.7124735116958618,-0.1379284262657165,0.2712029218673706
1630573831442,0.1355731338262558,1.7124735116958618,-0.1379284262657165,0.2712029218673706
1630573831523,0.1355731338262558,1.7124735116958618,-0.1379284262657165,0.2712029218673706
1630573831629,0.1355731338262558,1.7124735116958618,-0.1379284262657165,0.2712029218673706
1630573831739,0.1355731338262558,1.7124735116958618,-0.1379284262657165,0.2712029218673706
1630573831831,0.1355731338262558,1.7124735116958618,-0.1379284262657165,0.2712029218673706
1630573831933,0.1355731338262558,1.7124735116958618,-0.1379284262657165,0.2712029218673706
1630573832009,0.1355731338262558,1.7124735116958618,-0.1379284262657165,0.2712029218673706
1630573832106,0.1355731338262558,1.7124735116958618,-0.1379284262657165,0.2712029218673706
1630573832189,0.1355731338262558,1.7124735116958618,-0.1379284262657165,0.2712029218673706
1630573832331,0.1355731338262558,1.7124735116958618,-0.2442702353000641,0.2712029218673706
1630573832444,0.1355731338262558,1.7124735116958618,-0.1442924588918686,0.2712029218673706
1630573832557,0.1355731338262558,1.7124735116958618,-0.1005192995071411,0.2712029218673706
1630573832631,0.1355731338262558,1.7124735116958618,-0.0877337530255317,0.2712029218673706
1630573832706,0.1355731338262558,1.7124735116958618,-0.0551695264875888,0.2712029218673706
1630573832813,0.1753538399934768,1.7124735116958618,-0.0295124053955078,0.2712029218673706
1630573832989,0.1651953756809234,1.7124735116958618,-0.0145344119518995,0.4127953350543976
1630573833054,0.1457082778215408,1.7124735116958618,-0.0383968912065029,0.4466553926467895
1630573833158,0.1255039423704147,1.7124735116958618,-0.0590711869299411,0.4696014821529388
1630573833305,0.1080793365836143,1.7124735116958618,-0.0766644775867462,0.4734701514244079
1630573833351,0.0948278233408927,1.7124735116958618,-0.091165080666542,0.461577296257019
1630573833431,0.0884392186999321,1.7124735116958618,-0.1021975502371788,0.444899708032608
1630573833587,0.087183877825737,1.7124735116958618,-0.1076579093933105,0.4329551160335541
1630573833706,0.0923442393541336,1.7124735116958618,-0.1068460419774055,0.4282646179199219
1630573833767,0.1047107204794883,1.7124735116958618,-0.1024703979492187,0.4264430403709411
1630573833890,0.1245783939957618,1.7124735116958618,-0.1186842247843742,0.4229021072387695
1630573833935,0.1474455893039703,1.7124735116958618,-0.135785698890686,0.4184101223945617
1630573834116,0.1677275598049163,1.7124735116958618,-0.1486805230379104,0.4170584678649902
1630573834180,0.1748495548963546,1.7124735116958618,-0.1500894725322723,0.4235280156135559
1630573834289,0.175409197807312,1.7124735116958618,-0.1363274008035659,0.4316125512123108
1630573834385,0.1902152150869369,1.7124735116958618,-0.1114561706781387,0.4357659220695495
1630573834472,0.2312076836824417,1.7124735116958618,-0.0847443416714668,0.4305926561355591
1630573834563,0.2868256568908691,1.7124735116958618,-0.0655281767249107,0.4149239063262939
1630573834651,0.3356873095035553,1.7124735116958618,-0.0576659813523292,0.3942293226718902
1630573834870,0.3532446026802063,1.7124735116958618,-0.0586491450667381,0.3777035176753998
1630573834906,0.3723660409450531,1.7124735116958618,-0.063208483159542,0.3718107640743255
