timestamp,TP9,AF7,AF8,TP10
1630573698989,0.3583140671253204,0.5550857186317444,-0.1453806906938552,-0.1558906435966491
1630573699035,0.3370307385921478,0.5550857186317444,-0.3214296102523803,-0.2051766961812973
1630573699156,0.3184096813201904,0.5550857186317444,-0.4101056158542633,-0.2474607527256012
1630573699236,0.3032773733139038,0.5550857186317444,-0.458294540643692,-0.3199053108692169
1630573699296,0.3006981313228607,0.5550857186317444,-0.481627881526947,-0.4121153950691223
1630573699388,0.308125376701355,0.5550857186317444,-0.4951493740081787,-0.4678751230239868
1630573699547,0.3194848001003265,0.5550857186317444,-0.5065862536430359,-0.4632561504840851
1630573699626,0.3301524519920349,0.5550857186317444,-0.5188773274421692,-0.4160264432430267
1630573699737,0.3333780467510223,0.5550857186317444,-0.5386465191841125,-0.3740320801734924
1630573699818,0.3254685997962951,0.5550857186317444,-0.5703779458999634,-0.3398512899875641
1630573699898,0.3128643929958343,0.5550857186317444,-0.6006866097450256,-0.2434616982936859
1630573700077,0.3177720010280609,0.5550857186317444,-0.6158677935600281,-0.0308214481920003
1630573700186,0.3760479986667633,0.5550857186317444,-0.6084905862808228,0.225193589925766
1630573700251,0.4886026084423065,0.5550857186317444,-0.5822421312332153,0.4537378549575805
1630573700344,0.6089885234832764,0.5550857186317444,-0.5470908284187317,0.6136142015457153
1630573700408,0.698773980140686,0.5550857186317444,-0.5145907402038574,0.71053147315979
1630573700519,0.7455209493637085,0.5550857186317444,-0.4852242767810821,0.7552516460418701
1630573700650,0.7623639702796936,0.5550857186317444,-0.472226083278656,0.7707844972610474
1630573700791,0.7877687811851501,0.5550857186317444,-0.4825101792812347,0.7981786131858826
1630573700870,0.8151034712791443,0.5550857186317444,-0.497526615858078,0.8265826106071472
1630573700983,0.8437526822090149,0.5550857186317444,-0.4980755746364593,0.8558208346366882
1630573701089,0.8881549835205078,0.5550857186317444,-0.4576914012432098,0.8878649473190308
1630573701117,0.9456170797348022,0.5550857186317444,-0.3806121051311493,0.9238510727882384
1630573701268,0.9987185001373292,0.5550857186317444,-0.3013638854026794,0.9655811786651612
1630573701366,1.034624457359314,0.5550857186317444,-0.2414388209581375,1.0132683515548706
1630573701468,1.050899863243103,0.5550857186317444,-0.2018289119005203,1.0617908239364624
1630573701530,1.0511188507080078,0.5550857186317444,-0.1681611239910125,1.098323106765747
1630573701671,1.0331355333328247,0.5550857186317444,-0.1375913769006729,1.1070184707641602
1630573701738,0.9897137880325316,0.5550857186317444,-0.1086247861385345,1.0651588439941406
1630573701819,0.9286075234413148,0.5550857186317444,-0.0770475640892982,1.0651588439941406
1630573701987,0.867004930973053,0.5550857186317444,-0.0464625097811222,1.0651588439941406
1630573702064,0.8272854089736938,0.5550857186317444,-0.0225377716124057,1.0651588439941406
1630573702194,0.8135276436805725,0.5550857186317444,-0.0003641588264144,1.0651588439941406
1630573702270,0.7876547574996948,0.5550857186317444,0.0183393210172653,0.5155789256095886
1630573702373,0.7645310759544373,0.5550857186317444,0.0298085417598485,0.4897856116294861
1630573702420,0.7461289763450623,0.5550857186317444,0.0410862974822521,0.4617007672786712
1630573702634,0.7049185037612915,0.5550857186317444,0.0514598339796066,0.4510699212551117
1630573702682,0.6305196285247803,0.5550857186317444,0.0499658584594726,0.4424661099910736
1630573702765,0.5299376845359802,0.5550857186317444,0.0468223020434379,0.4458552598953247
1630573702919,0.428070604801178,0.5550857186317444,0.0590091273188591,0.4691429436206817
1630573702997,0.35307177901268,0.5550857186317444,0.08635775744915,0.5009785294532776
1630573703044,0.3062759935855865,0.5550857186317444,0.1133931577205658,0.5250376462936401
1630573703185,0.2737634479999542,0.5550857186317444,0.1284143477678299,0.5338994264602661
1630573703336,0.2551221549510956,0.5550857186317444,0.1294065713882446,0.5255264043807983
1630573703368,0.2319744378328323,0.5550857186317444,0.1286641806364059,0.5195186138153076
1630573703554,0.2179228812456131,0.5550857186317444,0.1389231830835342,0.5477554798126221
1630573703589,0.2645285725593567,0.5550857186317444,0.1750862151384353,0.5493525266647339
1630573703666,0.2562038600444793,0.5550857186317444,0.2546513974666595,0.5494325757026672
1630573703837,0.2596830129623413,0.5550857186317444,0.353649765253067,0.5522669553756714
1630573703939,0.2624114453792572,0.5550857186317444,0.4418780207633972,0.5657156109809875
1630573704020,0.2544343173503876,0.5550857186317444,0.4980871677398681,0.5859053730964661
1630573704146,0.2309995144605636,0.5550857186317444,0.5252547264099121,0.6036757230758667
1630573704213,0.311036616563797,0.5550857186317444,0.5406473875045776,0.6252124309539795
1630573704256,0.3639528155326843,0.5550857186317444,0.5553479194641113,0.6432694792747498
1630573704436,0.4315479397773742,0.5550857186317444,0.5645389556884766,0.6443995237350464
1630573704515,0.5362645387649536,0.5550857186317444,0.5669990181922913,0.6242409944534302
1630573704578,0.6561331152915955,0.5550857186317444,0.5677923560142517,0.5941768288612366
1630573704770,0.7544318437576294,0.5550857186317444,0.5699225664138794,0.5941768288612366
1630573704801,0.8149858713150024,0.5550857186317444,0.5723864436149597,0.5941768288612366
1630573704905,0.8421802520751953,0.5550857186317444,0.5688056945800781,0.5941768288612366
1630573705066,0.8417644500732422,0.5550857186317444,0.5569542646408081,0.5941768288612366
1630573705145,0.8099239468574524,0.5550857186317444,0.5333234667778015,0.9049256443977356
1630573705210,0.7713102698326111,0.5550857186317444,0.4831902980804443,0.8424879312515259
1630573705376,0.735634982585907,0.5550857186317444,0.4015475511550903,0.7812586426734924
1630573705417,0.7057042121887207,0.5550857186317444,0.2933542728424072,0.7258875370025635
1630573705494,0.6824231147766113,0.5550857186317444,0.1850631237030029,0.6739825010299683
1630573705624,0.6679633259773254,0.5550857186317444,0.1018372774124145,0.6353729367256165
1630573705736,0.6606804132461548,0.5550857186317444,0.0365640148520469,0.6222743391990662
1630573705812,0.683491587638855,0.5550857186317444,-0.0408254191279411,0.6222743391990662
1630573705936,0.7252378463745117,0.5550857186317444,-0.1243350207805633,0.6222743391990662
1630573706070,0.7627134323120117,0.5550857186317444,-0.2001751810312271,0.6222743391990662
1630573706119,0.7911824584007263,0.5550857186317444,-0.2754507064819336,0.6222743391990662
1630573706262,0.8198583722114563,0.5550857186317444,-0.333644300699234,0.6222743391990662
1630573706326,0.8549528121948242,0.5550857186317444,-0.3559241592884063,0.7111165523529053
1630573706440,0.8888970017433167,0.5550857186317444,-0.3401965200901031,0.6799724102020264
1630573706518,0.9133938550949096,0.5550857186317444,-0.3194477558135986,0.739334225654602
1630573706632,0.9300960302352904,0.5550857186317444,-0.3054881989955902,0.7491598129272461
1630573706722,0.9410293102264404,0.5550857186317444,-0.2983818054199219,0.7806836366653442
1630573706848,0.9470021724700928,0.5550857186317444,-0.2868208587169647,0.832268238067627
1630573706964,0.9502495527267456,0.5550857186317444,-0.2693139314651489,0.9008908867836
1630573707044,0.9505834579467772,0.5550857186317444,-0.2554368674755096,0.992027223110199
1630573707164,0.9467735290527344,0.5550857186317444,-0.2443338632583618,1.0078314542770386
1630573707225,0.934154450893402,0.5550857186317444,-0.2303604930639267,1.004502296447754
1630573707315,0.9084801077842712,0.5550857186317444,-0.2110742926597595,0.9319939613342284
1630573707466,0.8645537495613098,0.5550857186317444,-0.1925330609083175,0.8690738081932068
1630573707544,0.8019452691078186,0.5550857186317444,-0.1858619898557663,0.8108264207839966
1630573707647,0.7166393995285034,0.5550857186317444,-0.196028783917427,0.7587032318115234
1630573707710,0.6021860241889954,0.5550857186317444,-0.2282410115003585,0.7125487327575684
1630573707896,0.4553327560424804,0.5550857186317444,-0.2779134213924408,0.4242196679115295
1630573707943,0.2879292964935303,0.5550857186317444,-0.3321847319602966,0.3958554267883301
1630573708067,0.1406097263097763,0.5550857186317444,-0.3707997500896454,0.1506699323654174
1630573708165,0.0331040136516094,0.5550857186317444,-0.3929663896560669,0.1425115019083023
1630573708253,-0.0224734749644994,0.5550857186317444,-0.4001556932926178,0.1300807446241378
1630573708369,-0.0303776022046804,0.5550857186317444,-0.3994852602481842,0.1147243678569793
1630573708448,-0.0413150824606418,0.5550857186317444,-0.3867088556289673,0.0991297587752342
1630573708548,-0.0569607466459274,0.5550857186317444,-0.3560931384563446,0.0858005657792091
1630573708656,-0.0666564553976059,0.5550857186317444,-0.3195253610610962,0.0399802289903163
1630573708809,-0.0621359273791313,0.5550857186317444,-0.3008840680122375,-0.0140688186511397
1630573708872,-0.0505712702870368,0.5550857186317444,-0.3066398799419403,-0.0515751279890537
1630573708936,-0.0385495088994503,0.5550857186317444,-0.3159640431404114,-0.0398491136729717
1630573709064,-0.0326377749443054,0.5550857186317444,-0.3011618852615356,0.0203577354550361
1630573709144,-0.0332961305975914,0.5550857186317444,-0.2622435390949249,0.0855985805392265
1630573709297,-0.0391992069780826,0.5550857186317444,-0.2192887216806411,0.1353143453598022
1630573709410,-0.0478666350245475,0.5550857186317444,-0.1902178823947906,0.1580113470554351
1630573709501,-0.0567410700023174,0.5550857186317444,-0.1766473799943924,0.1578160375356674
1630573709589,-0.0714985504746437,0.5550857186317444,-0.1710211485624313,0.145533338189125
1630573709687,-0.1015079542994499,0.5550857186317444,-0.1702849566936493,0.1337623447179794
1630573709740,-0.1406117379665374,0.5550857186317444,-0.1726007759571075,0.130860835313797
1630573709899,-0.1771015077829361,0.5550857186317444,-0.1802566647529602,0.1371252089738845
1630573710220,-0.1645295619964599,0.5550857186317444,-0.2720567882061004,0.1659892946481704
1630573710259,-0.1449016332626342,0.5550857186317444,-0.308680385351181,0.1815253496170044
1630573710409,-0.0946641117334365,0.5550857186317444,-0.3349908292293548,0.1900488585233688
1630573710514,-0.0199264232069253,0.5550857186317444,-0.3643621206283569,0.1762998104095459
1630573710621,0.0544455610215663,0.5550857186317444,-0.4149413704872131,0.133291095495224
1630573710722,0.1071359068155288,0.5550857186317444,-0.4770805239677429,0.0720897167921066
1630573710787,0.1340548694133758,0.5550857186317444,-0.5281801223754883,0.0073172030970454
1630573710938,0.1433765590190887,0.5550857186317444,-0.5449759364128113,-0.0414511710405349
1630573711024,0.146434023976326,0.5550857186317444,-0.5357609391212463,-0.0622582994401454
1630573711131,0.1477801650762558,0.5550857186317444,-0.5223371982574463,-0.0649710968136787
1630573711178,0.1460942775011062,0.5550857186317444,-0.502876341342926,-0.060855571180582
1630573711322,0.138604387640953,0.5550857186317444,-0.4778009951114654,-0.0559245869517326
1630573711385,0.1240464076399803,0.5550857186317444,-0.4447456002235412,-0.0475025288760662
1630573711535,0.110765516757965,0.5550857186317444,-0.3862603604793548,-0.0293278899043798
1630573711620,0.1078771129250526,0.5550857186317444,-0.2941192090511322,-0.002899418817833
1630573711708,0.1148144379258155,0.5550857186317444,-0.19192636013031,0.0171395223587751
1630573711837,0.1181132048368454,0.5550857186317444,-0.109701819717884,0.019022524356842
1630573711903,0.1033087372779846,0.5550857186317444,-0.0560673139989376,0.0097564607858657
1630573711989,0.0683336108922958,0.5550857186317444,-0.0280772875994443,-0.0042418660596013
1630573712087,0.0262971427291631,0.5550857186317444,-0.0175430011004209,-0.0128121459856629
1630573712209,-0.0069491602480411,0.5550857186317444,-0.0191796012222766,-0.0134611558169126
1630573712322,-0.009508610703051,0.5550857186317444,-0.0302569288760423,-0.0107646519318223
1630573712432,0.0319956243038177,0.5550857186317444,-0.0424506515264511,-0.0015752504114061
1630573712510,0.1086640506982803,0.5550857186317444,-0.0493326932191848,0.0105070555582642
1630573712638,0.2087928503751754,0.5550857186317444,-0.0497404970228672,0.026620514690876
1630573712736,0.3088777065277099,0.5550857186317444,-0.0493172891438007,0.0422974899411201
1630573712798,0.3836084604263305,0.5550857186317444,-0.05264762789011,0.0501368902623653
1630573712970,0.4097411334514618,0.5550857186317444,-0.0639528110623359,0.0401994660496711
1630573713062,0.4347395896911621,0.5550857186317444,-0.0925740748643875,0.0103590590879321
1630573713138,0.4544863700866699,0.5550857186317444,-0.1519785821437835,-0.0350597351789474
1630573713255,0.4574043154716491,0.5550857186317444,-0.2495403885841369,-0.0873527824878692
1630573713300,0.4523004293441772,0.5550857186317444,-0.3755256831645965,-0.12532339990139
1630573713447,0.4480732679367065,0.5550857186317444,-0.503446102142334,-0.14114411175251
1630573713529,0.4453966915607452,0.5550857186317444,-0.5924980640411377,-0.1383381336927414
1630573713650,0.4396990239620209,0.5550857186317444,-0.6201903223991394,-0.1311253011226654
1630573713742,0.4352101385593414,0.5550857186317444,-0.6033190488815308,-0.1230179518461227
1630573713916,0.4306052327156067,0.5550857186317444,-0.5641376376152039,-0.1043453514575958
1630573713932,0.4153333306312561,0.5550857186317444,-0.5409013628959656,-0.0793437585234642
1630573714027,0.3825908899307251,0.5550857186317444,-0.5425911545753479,-0.0593446232378482
1630573714165,0.3260859251022339,0.5550857186317444,-0.5602965354919434,-0.0469289571046829
1630573714287,0.2482423931360244,0.5550857186317444,-0.5696594715118408,-0.033997606486082
1630573714383,0.1690832525491714,0.5550857186317444,-0.5565738081932068,-0.016733668744564
1630573714469,0.1814495325088501,0.5550857186317444,-0.5204474925994873,0.0034685535356402
1630573714550,0.184520736336708,0.5550857186317444,-0.4769408106803894,0.0227796658873558
1630573714650,0.1613299250602722,0.5550857186317444,-0.4428614974021911,0.0415675155818462
1630573714766,0.1556621938943863,0.5550857186317444,-0.4202735722064972,0.0642867386341095
1630573714866,0.1592223793268203,0.5550857186317444,-0.4007505476474762,0.0862429738044738
1630573714964,0.1560235321521759,0.5550857186317444,-0.3780019879341125,0.1111679375171661
1630573715015,0.1447521746158599,0.5550857186317444,-0.3286183178424835,0.1449702233076095
1630573715135,0.1326218992471695,0.5550857186317444,-0.2386029958724975,0.1955917477607727
1630573715230,0.1215444356203079,0.5550857186317444,-0.1288394331932068,0.2529435753822326
1630573715424,0.1114424616098404,0.5550857186317444,-0.0329360738396644,0.3042170107364654
1630573715501,0.1039260849356651,0.5550857186317444,0.0312374606728553,0.3358848989009857
1630573715587,0.0916157439351081,0.5550857186317444,0.0629278272390365,0.3452390730381012
1630573715650,0.0623797103762626,0.5550857186317444,0.075153648853302,0.3382304310798645
1630573715766,0.0125617235898971,0.5550857186317444,0.0793395489454269,0.322286307811737
1630573715845,-0.044172178953886,0.5550857186317444,0.0768370330333709,0.3062885999679565
1630573715986,-0.0869578570127487,0.5550857186317444,0.0727234482765197,0.3044436573982239
1630573716182,-0.0920503735542297,0.5550857186317444,0.0668861642479896,0.324069082736969
1630573716224,-0.0574332922697067,0.5550857186317444,0.0623199082911014,0.358953058719635
1630573716288,-0.0056247082538902,0.5550857186317444,0.0623996965587139,0.3944352865219116
1630573716353,0.0371240712702274,0.5550857186317444,0.0664208009839057,0.4190676808357239
1630573716488,0.0608306974172592,0.5550857186317444,0.0695691406726837,0.4272213876247406
1630573716669,0.0717801600694656,0.5550857186317444,0.0587500967085361,0.4185928106307983
1630573716747,0.0814010202884674,0.5550857186317444,0.0172659158706665,0.3940742909908294
1630573716805,0.0933691635727882,0.5550857186317444,-0.0638754665851593,0.3552503585815429
1630573716934,0.1049487143754959,0.5550857186317444,-0.1773334741592407,0.3063413798809051
1630573716979,0.114831767976284,0.5550857186317444,-0.2926171720027923,0.2612925171852112
1630573717188,0.1281511187553405,0.5550857186317444,-0.3666805326938629,0.2357101291418075
1630573717319,0.1536047309637069,0.5550857186317444,-0.39349365234375,0.2304409444332122
1630573717354,0.1965595781803131,0.5550857186317444,-0.3906500935554504,0.2380665093660354
1630573717383,0.2545977830886841,0.5550857186317444,-0.3691560328006744,0.2447626441717147
1630573717478,0.3111371099948883,0.5550857186317444,-0.3434323668479919,0.2381590753793716
1630573717604,0.3496858477592468,0.5550857186317444,-0.3085851669311523,0.2116950899362564
1630573717706,0.3604676723480224,0.5550857186317444,-0.2689546942710876,0.1634829640388488
1630573717800,0.3489133417606354,0.5550857186317444,-0.2373140901327133,0.0982643738389015
1630573717935,0.3324960470199585,0.5550857186317444,-0.2236421257257461,0.0290847718715667
1630573718020,0.3255163729190826,0.5550857186317444,-0.2281096577644348,-0.0254368167370557
1630573718104,0.3316817581653595,0.5550857186317444,-0.2429489642381668,-0.0528240650892257
1630573718236,0.3454004526138305,0.5550857186317444,-0.2551053166389465,-0.0631566047668457
1630573718267,0.3645746409893036,0.5550857186317444,-0.2611826658248901,-0.0283546168357133
1630573718448,0.3926756381988525,0.5550857186317444,-0.2613188028335571,0.0683677867054939
1630573718570,0.4351550638675689,0.5550857186317444,-0.2578264474868774,0.1985999196767807
1630573718604,0.4842252135276794,0.5550857186317444,-0.2505113184452057,0.3177237510681152
1630573718702,0.525773286819458,0.5550857186317444,-0.2371999770402908,0.4006426930427551
1630573718803,0.5458443760871887,0.5550857186317444,-0.2306899130344391,0.4413638412952423
1630573718913,0.5401954650878906,0.5550857186317444,-0.2307071983814239,0.4545763432979584
1630573719019,0.5143719911575317,0.5550857186317444,-0.2404612153768539,0.4553398787975311
1630573719102,0.4816470742225647,0.5550857186317444,-0.25975102186203,0.4523859322071075
1630573719212,0.4563620090484619,0.5550857186317444,-0.2820707857608795,0.450759619474411
1630573719302,0.4463251531124115,0.5550857186317444,-0.302092969417572,0.4509160816669464
1630573719411,0.4467938840389251,0.5550857186317444,-0.3177271783351898,0.4520575404167175
1630573719493,0.4541220366954803,0.5550857186317444,-0.3262278735637665,0.4527101814746856
1630573719633,0.4603648483753204,0.5550857186317444,-0.3290740251541137,0.4539024233818054
1630573719753,0.4614392518997192,0.5550857186317444,-0.3306765854358673,0.457376629114151
1630573719832,0.4545179009437561,0.5550857186317444,-0.3311476111412048,0.4526084959506988
1630573719909,0.4332261979579925,0.5550857186317444,-0.3309786319732666,0.4238873720169067
1630573720033,0.3905678689479828,0.5550857186317444,-0.3278704881668091,0.3601963222026825
1630573720113,0.3253150880336761,0.5550857186317444,-0.3238192200660705,0.2604244351387024
1630573720239,0.2472535371780395,0.5550857186317444,-0.3312885761260986,0.1424494385719299
1630573720339,0.1799513101577758,0.5550857186317444,-0.3474792242050171,0.0466978177428245
1630573720419,0.1434640139341354,0.5550857186317444,-0.36952805519104,-0.0033916574902832
1630573720562,0.1366922855377197,0.5550857186317444,-0.3866088390350342,-0.0209461953490972
1630573720595,0.1460075080394745,0.5550857186317444,-0.3819214403629303,-0.0245743095874786
1630573720689,0.1606010794639587,0.5550857186317444,-0.3569616079330444,-0.0229347869753837
1630573720855,0.1680711507797241,0.5550857186317444,-0.3226478397846222,-0.0102263260632753
1630573720951,0.163454994559288,0.5550857186317444,-0.2883038818836212,0.008754851296544
1630573721032,0.145473763346672,0.5550857186317444,-0.2607654929161072,0.022478574886918
1630573721139,0.1159260347485542,0.5550857186317444,-0.2430946677923202,0.0203591436147689
1630573721231,0.0846213698387146,0.5550857186317444,-0.232370525598526,0.0064987679943442
1630573721342,0.0540436953306198,0.5550857186317444,-0.2261334806680679,-0.0139735052362084
1630573721451,0.0284008458256721,0.5550857186317444,-0.225707933306694,-0.0322765633463859
1630573721554,0.0049102194607257,0.5550857186317444,-0.2339418828487396,-0.0421729199588298
1630573721634,-0.0125148659572005,0.5550857186317444,-0.2506864070892334,-0.0418577268719673
1630573721737,-0.0264594200998544,0.5550857186317444,-0.2693098187446594,-0.0324951149523258
1630573721819,-0.0380513593554496,0.5550857186317444,-0.2856787741184234,-0.0243840254843235
1630573721937,-0.0455862842500209,0.5550857186317444,-0.2977496981620788,-0.0181002970784902
1630573722074,-0.0463660545647144,0.5550857186317444,-0.3118632435798645,-0.0077683478593826
1630573722154,-0.0502966456115245,0.5550857186317444,-0.3440150916576385,0.005082722287625
1630573722269,-0.0696487054228782,0.5550857186317444,-0.4038886725902557,0.007698327768594
1630573722352,-0.1081748306751251,0.5550857186317444,-0.4893884360790252,-0.0051758368499577
1630573722435,-0.1578376591205597,0.5550857186317444,-0.5871360898017883,-0.0298055559396743
1630573722538,-0.1941145062446594,0.5550857186317444,-0.6777903437614441,-0.0457902960479259
1630573722709,-0.1818496882915496,0.5550857186317444,-0.7414097785949707,-0.0487775914371013
1630573722787,-0.1407889127731323,0.5550857186317444,-0.7863216996192932,-0.0502660237252712
1630573722865,-0.0853239297866821,0.5550857186317444,-0.822439432144165,-0.0520041361451149
1630573722986,-0.0292077250778675,0.5550857186317444,-0.8472797870635986,-0.0530190952122211
1630573723049,0.0186635311692953,0.5550857186317444,-0.8520727753639221,-0.0534458197653293
1630573723134,0.0510140992701053,0.5550857186317444,-0.8250911831855774,-0.049925148487091
1630573723299,0.0752758532762527,0.5550857186317444,-0.7707891464233398,-0.031118856742978
1630573723398,0.1225410476326942,0.5550857186317444,-0.7015206217765808,0.0421263389289379
1630573723487,0.1997245252132415,0.5550857186317444,-0.6087239980697632,0.1611280292272567
1630573723552,0.2845585346221924,0.5550857186317444,-0.4977578520774841,0.2756076455116272
1630573723638,0.3566625714302063,0.5550857186317444,-0.3990570306777954,0.3537853062152862
1630573723768,0.4082949459552765,0.5550857186317444,-0.3336105048656463,0.3965652287006378
1630573723887,0.4452548623085022,0.5550857186317444,-0.2981280386447906,0.4140370488166809
1630573724055,0.4714861810207367,0.5550857186317444,-0.2842466831207275,0.4219133853912353
1630573724081,0.4840338230133056,0.5550857186317444,-0.2793344557285309,0.4231671094894409
1630573724179,0.4842561185359955,0.5550857186317444,-0.2758339941501617,0.4228925108909607
1630573724270,0.4787219762802124,0.5550857186317444,-0.2706377208232879,0.4216091632843017
1630573724409,0.4687714278697967,0.5550857186317444,-0.2646878063678741,0.4189503788948059
1630573724521,0.4568543434143066,0.5550857186317444,-0.2548753619194031,0.4159659147262573
1630573724605,0.4459932446479797,0.5550857186317444,-0.2349043637514114,0.4122609496116638
1630573724704,0.4378163814544678,0.5550857186317444,-0.2083337903022766,0.4054411351680755
1630573724815,0.4327893257141113,0.5550857186317444,-0.1873072385787964,0.3908146917819977
1630573724892,0.4200343787670135,0.5550857186317444,-0.182635098695755,0.3515112698078155
1630573724971,0.3866172432899475,0.5550857186317444,-0.2052452266216278,0.2706188857555389
1630573725120,0.3300721943378448,0.5550857186317444,-0.2591201364994049,0.1447317600250244
1630573725238,0.2552049160003662,0.5550857186317444,-0.3353697061538696,-0.0041506988927721
1630573725296,0.1760188341140747,0.5550857186317444,-0.4108731150627136,-0.1323409229516983
1630573725419,0.1067458540201187,0.5550857186317444,-0.4681783020496368,-0.2061422765254974
1630573725503,0.0583390220999717,0.5550857186317444,-0.4855205714702606,-0.2419881820678711
1630573725569,0.0368032827973365,0.5550857186317444,-0.4532123506069183,-0.2573538422584533
1630573725733,0.034203927963972,0.5550857186317444,-0.3697884976863861,-0.267505019903183
1630573725818,0.037580482661724,0.5550857186317444,-0.2706096470355987,-0.2678729295730591
1630573725902,0.0476062595844268,0.5550857186317444,-0.1861228942871093,-0.2497268617153167
1630573725988,0.0771844759583473,0.5550857186317444,-0.1360857039690017,-0.2322800010442733
1630573726104,0.1222272515296936,0.5550857186317444,-0.1175308898091316,-0.2110024839639663
1630573726223,0.1710993647575378,0.5550857186317444,-0.1171908229589462,-0.1830121278762817
1630573726369,0.2067086696624755,0.5550857186317444,-0.1217074692249298,-0.1526465862989425
1630573726419,0.2192458212375641,0.5550857186317444,-0.1276528239250183,-0.1301146000623703
1630573726511,0.2116819769144058,0.5550857186317444,-0.1319038420915603,-0.1222565993666648
1630573726610,0.1949110776185989,0.5550857186317444,-0.1341752856969833,-0.1289956271648407
1630573726683,0.1839092969894409,0.5550857186317444,-0.1353441625833511,-0.1479833424091339
1630573726828,0.1848505139350891,0.5550857186317444,-0.1362063735723495,-0.174221396446228
1630573726941,0.1947538703680038,0.5550857186317444,-0.1373769491910934,-0.1979222148656845
1630573727073,0.2052110135555267,0.5550857186317444,-0.1446442902088165,-0.213121622800827
1630573727138,0.2107147574424743,0.5550857186317444,-0.165444940328598,-0.2152522504329681
1630573727237,0.2147739380598068,0.5550857186317444,-0.2143468558788299,-0.2100315541028976
1630573727320,0.2238537520170211,0.5550857186317444,-0.2851859033107757,-0.1972276121377945
1630573727456,0.2438821792602539,0.5550857186317444,-0.351361334323883,-0.1706627160310745
1630573727558,0.2668090760707855,0.5550857186317444,-0.386382520198822,-0.1266154497861862
1630573727671,0.2868567705154419,0.5550857186317444,-0.3799465894699096,-0.0794253051280975
1630573727748,0.3106253743171692,0.5550857186317444,-0.3453000485897064,-0.0318966917693614
1630573727852,0.3501698970794678,0.5550857186317444,-0.2963002622127533,0.0177984591573476
1630573727913,0.4059462547302246,0.5550857186317444,-0.2381560951471328,0.0653252005577087
1630573728034,0.4764411449432373,0.5550857186317444,-0.1892772614955902,0.1066124141216278
1630573728153,0.554475724697113,0.5550857186317444,-0.1561594605445861,0.1398790627717971
1630573728235,0.6295444369316101,0.5550857186317444,-0.130920335650444,0.1647467613220214
1630573728386,0.6924222111701965,0.5550857186317444,-0.0999938249588012,0.1869488209486007
1630573728447,0.7357305288314819,0.5550857186317444,-0.0592636354267597,0.206955537199974
1630573728537,0.7589818835258484,0.5550857186317444,-0.0134195908904075,0.2294734716415405
1630573728655,0.7683751583099365,0.5550857186317444,0.0243878941982984,0.2561489343643188
1630573728790,0.7696065306663513,0.5550857186317444,0.046321302652359,0.2837678492069244
1630573728853,0.7655927538871765,0.5550857186317444,0.0519504398107528,0.3084420561790466
1630573728932,0.7580493688583374,0.5550857186317444,0.0455032102763652,0.3196916878223419
1630573729047,0.7461997866630554,0.5550857186317444,0.0377666801214218,0.316462904214859
1630573729199,0.7346189618110657,0.5550857186317444,0.0293047167360782,0.3060726523399353
1630573729245,0.7222333550453186,0.5550857186317444,0.0167151670902967,0.2958466410636902
1630573729355,0.7036787867546082,0.5550857186317444,-0.0031642592512071,0.2841241955757141
1630573729486,0.676023006439209,0.5550857186317444,-0.0285177566111087,0.2699065506458282
1630573729567,0.6348438262939453,0.5550857186317444,-0.050957553088665,0.2515178322792053
1630573729688,0.5778560638427734,0.5550857186317444,-0.0634557157754898,0.2311076521873474
1630573729764,0.502998948097229,0.5550857186317444,-0.0699052438139915,0.2166505455970764
1630573729882,0.4097329378128052,0.5550857186317444,-0.0850934758782386,0.2071233689785003
1630573729992,0.3117390871047973,0.5550857186317444,-0.1092147156596183,0.2059008181095123
1630573730087,0.2372864335775375,0.5550857186317444,-0.1418062448501587,0.2049157470464706
1630573730179,0.2024030834436416,0.5550857186317444,-0.1709624379873275,0.1979156136512756
1630573730301,0.2006065398454666,0.5550857186317444,-0.1847947388887405,0.1873871088027954
1630573730392,0.2185602933168411,0.5550857186317444,-0.1892706900835037,0.1728175729513168
1630573730469,0.2393380999565124,0.5550857186317444,-0.1983727216720581,0.1619536876678466
1630573730598,0.2583162188529968,0.5550857186317444,-0.2216740846633911,0.1602780073881149
1630573730705,0.262385755777359,0.5550857186317444,-0.2575225532054901,0.1592741906642913
1630573730772,0.2497298866510391,0.5550857186317444,-0.3007852733135223,0.1428048759698867
1630573730868,0.2296966761350631,0.5550857186317444,-0.342472106218338,0.1128675937652587
1630573730957,0.2101412266492843,0.5550857186317444,-0.3736999332904815,0.0804372504353523
1630573731083,0.1982969343662262,0.5550857186317444,-0.3862783312797546,0.0582559332251548
1630573731220,0.1868403106927871,0.5550857186317444,-0.3862695097923279,0.0461153574287891
1630573731286,0.1773700565099716,0.5550857186317444,-0.3838948011398315,0.0332418829202652
1630573731386,0.1772377490997314,0.5550857186317444,-0.384257972240448,0.0133763328194618
1630573731471,0.1834402978420257,0.5550857186317444,-0.406918853521347,-0.0218734387308359
1630573731570,0.1868397891521453,0.5550857186317444,-0.4506757259368896,-0.0702798664569854
1630573731686,0.1846285015344619,0.5550857186317444,-0.5106915235519409,-0.1279074698686599
1630573731826,0.1758729666471481,0.5550857186317444,-0.5753589272499084,-0.1823595017194748
1630573731905,0.1580808907747268,0.5550857186317444,-0.5960127711296082,-0.200204849243164
1630573731989,0.1286942064762115,0.5550857186317444,-0.5291224122047424,-0.158499389886856
1630573732105,0.0913343578577041,0.5550857186317444,-0.3913571834564209,-0.0732254460453987
1630573732196,0.0554758571088314,0.5550857186317444,-0.2517930269241333,0.0223319418728351
1630573732275,0.0317045636475086,0.5550857186317444,-0.1503788381814956,0.1058922559022903
1630573732448,0.0189765151590108,0.5550857186317444,-0.0836283043026924,0.1647165864706039
1630573732527,0.0182777531445026,0.5550857186317444,-0.0431924350559711,0.2040761709213256
1630573732605,0.0278347916901111,0.5550857186317444,-0.0198375638574361,0.2245163321495056
1630573732696,0.0524228774011135,0.5550857186317444,-0.0066679720766842,0.2360816299915313
1630573732823,0.0838171765208244,0.5550857186317444,-8.600713044870645e-05,0.2478972673416137
1630573732921,0.1066778376698494,0.5550857186317444,0.0024838817771524,0.263607770204544
1630573733056,0.1126861199736595,0.5550857186317444,0.0059310756623744,0.2809479236602783
1630573733138,0.1065089330077171,0.5550857186317444,0.0121484566479921,0.2968991100788116
1630573733222,0.1054291948676109,0.5550857186317444,0.0200811363756656,0.3084976375102997
1630573733347,0.1177057549357414,0.5550857186317444,0.0255946330726146,0.3139647543430328
1630573733413,0.1502433717250824,0.5550857186317444,0.0193057544529438,0.308809757232666
1630573733537,0.2111417800188064,0.5550857186317444,-0.0068966285325586,0.2855239808559418
1630573733644,0.2914833426475525,0.5550857186317444,-0.0615713894367218,0.2378846108913421
1630573733749,0.3680198192596435,0.5550857186317444,-0.1410337835550308,0.1661430895328521
1630573733835,0.4239191710948944,0.5550857186317444,-0.2179669141769409,0.080718383193016
1630573733955,0.4611735939979553,0.5550857186317444,-0.2685296237468719,0.0007831575348973
1630573734031,0.4824260473251343,0.5550857186317444,-0.2882401347160339,-0.0640430971980094
1630573734128,0.4911170303821563,0.5550857186317444,-0.3011656105518341,-0.1002027615904808
1630573734272,0.4872850775718689,0.5550857186317444,-0.3270271420478821,-0.1191263422369957
1630573734328,0.4712528586387634,0.5550857186317444,-0.3606813549995422,-0.1414410918951034
1630573734445,0.4508104622364044,0.5550857186317444,-0.3837750256061554,-0.1807985752820968
1630573734552,0.4357031285762787,0.5550857186317444,-0.3943765759468078,-0.2362541109323501
1630573734668,0.430163025856018,0.5550857186317444,-0.397669106721878,-0.2992142140865326
1630573734737,0.4284546375274658,0.5550857186317444,-0.3998098969459533,-0.3512742817401886
1630573734854,0.4257925748825073,0.5550857186317444,-0.3999908566474914,-0.3923410475254059
1630573734945,0.4149035513401031,0.5550857186317444,-0.386640727519989,-0.4362927079200744
1630573735054,0.3855108916759491,0.5550857186317444,-0.3580365180969238,-0.4842938780784607
1630573735142,0.3291856050491333,0.5550857186317444,-0.3250296115875244,-0.5196003317832947
1630573735239,0.249930128455162,0.5550857186317444,-0.302579402923584,-0.5277588963508606
1630573735373,0.1682322472333908,0.5550857186317444,-0.3054298758506775,-0.5049375891685486
1630573735482,0.1063503175973892,0.5550857186317444,-0.3326643407344818,-0.4431808590888977
1630573735588,0.0871530473232269,0.5550857186317444,-0.3650034070014953,-0.3536349534988403
1630573735651,0.0998452231287956,0.5550857186317444,-0.3699961006641388,-0.2589108645915985
1630573735753,0.1194212883710861,0.5550857186317444,-0.3346042931079864,-0.1795714646577835
1630573735854,0.1339173316955566,0.5550857186317444,-0.2867956757545471,-0.1229197978973388
1630573735948,0.1444540172815323,0.5550857186317444,-0.254016101360321,-0.0887586548924446
1630573736053,0.162934809923172,0.5550857186317444,-0.2390348613262176,-0.0722485333681106
1630573736185,0.1958301812410354,-0.244497150182724,-0.2355663478374481,-0.0665884912014007
1630573736303,0.232997640967369,-0.2694050371646881,-0.2310656458139419,-0.0666750073432922
1630573736382,0.259256899356842,-0.2694050371646881,-0.2182564437389373,-0.0670252963900566
1630573736489,0.268985390663147,-0.2694050371646881,-0.2031708657741546,-0.0602892190217971
1630573736548,0.2706074118614197,-0.2694050371646881,-0.1914197355508804,-0.0436717420816421
1630573736737,0.2804391384124756,-0.2694050371646881,-0.179640457034111,-0.019931174814701
1630573736801,0.3070511519908905,-0.2694050371646881,-0.1659301072359085,0.0027021639980375
1630573736904,0.3445315957069397,-0.2694050371646881,-0.1552973985671997,0.0178621169179677
1630573736983,0.3751766681671142,-0.2694050371646881,-0.1543232500553131,0.0184910595417022
1630573737063,0.386149138212204,-0.2694050371646881,-0.1681441366672516,0.001402391353622
1630573737188,0.3803579211235046,-0.2694050371646881,-0.1979652345180511,-0.0330100618302822
1630573737297,0.3749921321868896,-0.2694050371646881,-0.2418473064899444,-0.0787287950515747
1630573737379,0.3831397891044616,-0.2592008113861084,-0.2862985730171203,-0.1207096725702285
1630573737497,0.400066465139389,-0.2592008113861084,-0.3179619014263153,-0.1449879705905914
1630573737632,0.4082164466381073,-0.2592008113861084,-0.3337144553661346,-0.148036390542984
1630573737700,0.4002900123596191,-0.2592008113861084,-0.3404881656169891,-0.1368032842874527
1630573737788,0.3838348686695099,-0.2592008113861084,-0.352351576089859,-0.1228928640484809
1630573737904,0.3774793446063995,-0.2592008113861084,-0.3707430958747864,-0.1109254136681556
1630573737988,0.3896486759185791,-0.2592008113861084,-0.3922715783119201,-0.1051551699638366
1630573738086,0.4110992848873138,-0.2592008113861084,-0.4082997441291809,-0.1113768517971038
1630573738204,0.4269545078277588,-0.2592008113861084,-0.4179391264915466,-0.1354160755872726
1630573738338,0.4281833469867706,-0.2592008113861084,-0.4205233454704284,-0.1749892234802246
1630573738368,0.4162303507328033,-0.2592008113861084,-0.4118122458457947,-0.2218721508979797
1630573738538,0.3962559998035431,-0.2592008113861084,-0.3973269760608673,-0.2677075564861297
1630573738623,0.3797051608562469,-0.2592008113861084,-0.38227578997612,-0.3078051209449768
1630573738702,0.3722670376300812,-0.2592008113861084,-0.3690594434738159,-0.3271618485450744
1630573738804,0.3745825588703155,-0.2592008113861084,-0.3577125072479248,-0.3150466084480285
1630573738900,0.3792492747306824,-0.2592008113861084,-0.3542990684509277,-0.2902058064937591
1630573738997,0.3853393793106079,-0.2592008113861084,-0.3531100153923034,-0.2748820781707763
1630573739125,0.3901983201503753,-0.2592008113861084,-0.3483067452907562,-0.2793802618980407
1630573739216,0.3979155719280243,-0.2592008113861084,-0.3407306373119354,-0.2992268204689026
1630573739339,0.4129291474819183,-0.2592008113861084,-0.3334024846553802,-0.3253019750118255
1630573739416,0.430548757314682,-0.2592008113861084,-0.3331027626991272,-0.3577912449836731
1630573739482,0.4455502927303314,-0.2592008113861084,-0.3380447328090668,-0.3989066183567047
1630573739592,0.456477016210556,-0.2592008113861084,-0.3486422002315521,-0.4398709237575531
1630573739764,0.456749677658081,-0.2592008113861084,-0.3704631924629211,-0.4603854119777679
1630573739830,0.4462861120700836,-0.2592008113861084,-0.4061479270458221,-0.4438624680042267
1630573739904,0.4304361641407013,-0.2592008113861084,-0.4484046101570129,-0.405961275100708
1630573740023,0.4175289273262024,-0.2592008113861084,-0.4786867201328277,-0.3782247304916382
1630573740105,0.4069721102714538,-0.2592008113861084,-0.482554942369461,-0.3708362579345703
1630573740198,0.3960458934307098,-0.2592008113861084,-0.4690299034118652,-0.3832360804080963
1630573740347,0.380534678697586,-0.2592008113861084,-0.4559037387371063,-0.4109381139278412
1630573740484,0.3728084862232208,-0.2592008113861084,-0.4477879703044891,-0.4364672899246216
1630573740555,0.380883514881134,-0.2592008113861084,-0.4493864476680755,-0.4371108710765838
1630573740620,0.4075082242488861,-0.2592008113861084,-0.4594594836235046,-0.3995658755302429
1630573740708,0.4316168129444122,-0.2592008113861084,-0.4724535942077636,-0.3496891856193542
1630573740797,0.4348389804363251,-0.2592008113861084,-0.4803142249584198,-0.3037800788879394
1630573740935,0.4167953431606293,-0.2592008113861084,-0.4796362817287445,-0.2643229365348816
1630573741045,0.3902384340763092,-0.2592008113861084,-0.477714866399765,-0.2290766090154647
1630573741156,0.3583031892776489,-0.2592008113861084,-0.489923894405365,-0.1976425349712371
1630573741221,0.3329784572124481,-0.2592008113861084,-0.5078597068786621,-0.1635784655809402
1630573741310,0.3268192410469055,-0.2592008113861084,-0.5163995027542114,-0.1284873783588409
1630573741426,0.3375851511955261,-0.2592008113861084,-0.5006229877471924,-0.0945544689893722
1630573741587,0.3628661334514618,-0.2592008113861084,-0.4679014086723327,-0.0532593242824077
1630573741652,0.4001091122627258,-0.2592008113861084,-0.4418796896934509,0.0009854907402768
1630573741738,0.4448277354240417,-0.2592008113861084,-0.4290898144245147,0.0594319030642509
1630573741853,0.4873110651969909,-0.2592008113861084,-0.4233599603176117,0.105585440993309
1630573741966,0.5102366805076599,-0.2592008113861084,-0.4181725084781647,0.1308392882347107
1630573742047,0.5070849657058716,-0.2592008113861084,-0.4105811715126037,0.1335605084896087
1630573742163,0.4846033453941345,-0.2592008113861084,-0.3975614011287689,0.1247747167944908
1630573742249,0.4592884182929992,-0.2592008113861084,-0.3843826353549957,0.1192025169730186
1630573742361,0.4408293068408966,-0.2592008113861084,-0.3652131557464599,0.1210886985063552
1630573742461,0.4279651939868927,-0.2592008113861084,-0.3436410427093506,0.1275903880596161
1630573742564,0.412314772605896,-0.2592008113861084,-0.3271869719028473,0.1285489648580551
1630573742650,0.3986963033676147,-0.2592008113861084,-0.3129147589206695,0.1206424459815025
1630573742768,0.3912628293037414,-0.2592008113861084,-0.3072228133678436,0.1035618856549263
1630573742862,0.3822354972362518,-0.2592008113861084,-0.3074448108673095,0.0791604742407798
1630573742970,0.3670214414596557,-0.2592008113861084,-0.3118623197078705,0.0505150556564331
1630573743103,0.3438004553318023,-0.2592008113861084,-0.3199628293514251,0.0145228505134582
1630573743168,0.3139690160751343,-0.2592008113861084,-0.3274900317192077,-0.0385475568473339
1630573743233,0.2798202931880951,-0.2592008113861084,-0.3281396925449371,-0.1129011660814285
1630573743393,0.2438259720802307,-0.2592008113861084,-0.3207470774650574,-0.1956899017095565
1630573743478,0.2114122211933136,-0.0600369721651077,-0.3114902377128601,-0.2610609233379364
1630573743571,0.1880794167518615,-0.0751072391867637,-0.3045350611209869,-0.2828451693058014
1630573743666,0.1702221035957336,-0.0751072391867637,-0.3107087612152099,-0.2771393358707428
1630573743759,0.155676931142807,-0.0751072391867637,-0.3201251626014709,-0.2734764516353607
1630573743872,0.1510107964277267,-0.0751072391867637,-0.3290503919124603,-0.2743857502937317
1630573744000,0.1586198508739471,-0.0751072391867637,-0.3309782147407532,-0.2719357013702392
1630573744091,0.1770419329404831,-0.0751072391867637,-0.3207110464572906,-0.2382122427225113
1630573744203,0.1977985203266143,-0.0751072391867637,-0.307003378868103,-0.1784508228302002
1630573744291,0.2153534591197967,-0.0751072391867637,-0.2899560332298279,-0.1204770430922508
1630573744357,0.2300713956356048,-0.0751072391867637,-0.269790381193161,-0.0775187760591507
1630573744464,0.2391946762800216,-0.0751072391867637,-0.254759281873703,-0.0565388053655624
1630573744597,0.2461272329092025,-0.0751072391867637,-0.2475532591342926,-0.0452500320971012
1630573744687,0.2523854672908783,-0.1526957005262375,-0.2509219944477081,-0.0312834307551384
1630573744804,0.2552682757377624,-0.1526957005262375,-0.2655987441539764,-0.0142496479675173
1630573744885,0.2526909708976745,-0.1526957005262375,-0.2882606089115143,0.0036341589875519
1630573744985,0.2479793131351471,-0.1526957005262375,-0.3084263801574707,0.0191125124692916
1630573745067,0.2400599420070648,-0.1526957005262375,-0.3200206160545349,0.029290759935975
1630573745237,0.236814334988594,-0.1526957005262375,-0.3177843987941742,0.0399630069732666
1630573745354,0.2386274635791778,-0.1526957005262375,-0.3135464191436767,0.0574992261826992
1630573745399,0.2577501535415649,-0.1526957005262375,-0.3173269033432007,0.0934409946203231
1630573745517,0.3086263835430145,-0.1526957005262375,-0.3278036713600158,0.1548950374126434
1630573745645,0.3781436383724212,-0.1526957005262375,-0.3406834304332733,0.223320871591568
1630573745723,0.4418796598911285,-0.1526957005262375,-0.3395063281059265,0.2759545743465423
1630573745847,0.4838056862354278,-0.1526957005262375,-0.3184264600276947,0.303207129240036
1630573745915,0.503861129283905,-0.1526957005262375,-0.2919270396232605,0.309717446565628
1630573746015,0.5115167498588562,-0.1526957005262375,-0.2712086141109466,0.3120628595352173
1630573746100,0.5114395618438721,-0.1526957005262375,-0.2645203769207001,0.3190040290355682
1630573746195,0.4989680051803589,-0.1526957005262375,-0.2645120620727539,0.3252891898155212
1630573746276,0.4794342517852783,-0.1526957005262375,-0.2659969925880432,0.3293077349662781
1630573746435,0.4606905877590179,-0.1526957005262375,-0.2643647789955139,0.3292079567909241
1630573746554,0.4504275321960449,-0.1526957005262375,-0.2651435434818268,0.3255521059036255
1630573746618,0.4501723349094391,-0.1526957005262375,-0.2713333666324615,0.3250661790370941
1630573746720,0.4514997601509094,-0.1526957005262375,-0.2817627489566803,0.3268957436084747
1630573746841,0.4475847482681274,-0.1526957005262375,-0.2923939824104309,0.326221227645874
1630573746905,0.4280232787132263,-0.1526957005262375,-0.3030158281326294,0.3114939928054809
1630573747077,0.3779055476188659,-0.1526957005262375,-0.3169005215167999,0.2688025236129761
1630573747174,0.2923851013183594,-0.1526957005262375,-0.332987904548645,0.19777512550354
1630573747273,0.1853528916835785,-0.1526957005262375,-0.3511563241481781,0.127852201461792
1630573747332,0.0999632775783538,-0.1526957005262375,-0.3714288473129272,0.1025171056389808
1630573747437,0.0753389820456504,-0.1526957005262375,-0.3904122114181518,0.1261048316955566
1630573747543,0.0985800400376319,-0.1526957005262375,-0.3982060849666595,0.1642718613147735
1630573747688,0.1258622854948043,-0.1526957005262375,-0.3904782831668854,0.1871219426393509
1630573747736,0.1546847373247146,-0.1526957005262375,-0.3716676533222198,0.196145549416542
1630573747826,0.1806346625089645,-0.1526957005262375,-0.352304458618164,0.1954890191555023
1630573747938,0.210736408829689,-0.1526957005262375,-0.3400577008724212,0.1923940926790237
1630573748054,0.2424809485673904,-0.1526957005262375,-0.3336058855056762,0.1866181045770645
1630573748155,0.2836251854896545,-0.1526957005262375,-0.3303454220294952,0.1746362894773483
1630573748287,0.3329597413539886,-0.1526957005262375,-0.3278907835483551,0.1555399894714355
1630573748364,0.3808581531047821,-0.1526957005262375,-0.3236336410045624,0.133477434515953
1630573748471,0.4159551560878753,-0.1526957005262375,-0.3147091865539551,0.1139953583478927
1630573748590,0.4305136203765869,-0.1526957005262375,-0.3003509938716888,0.1000541001558303
1630573748644,0.4324177205562591,-0.1526957005262375,-0.284260481595993,0.0895276889204979
1630573748772,0.4296023845672607,-0.1526957005262375,-0.280556708574295,0.0681709125638008
1630573748873,0.4255043268203735,-0.1526957005262375,-0.3001096546649933,0.0237704329192638
1630573748981,0.4150218069553375,-0.1526957005262375,-0.343273401260376,-0.0386573784053325
1630573749089,0.3994292318820953,-0.1526957005262375,-0.4038093686103821,-0.1047128066420555
1630573749171,0.3818763494491577,-0.1526957005262375,-0.4675467014312744,-0.1593751460313797
1630573749289,0.3624376058578491,-0.1526957005262375,-0.5319680571556091,-0.2001015543937683
1630573749336,0.3407885134220123,-0.1526957005262375,-0.5889460444450378,-0.2286327630281448
1630573749504,0.310160219669342,-0.1526957005262375,-0.6336292624473572,-0.251686155796051
1630573749600,0.2716304361820221,-0.1526957005262375,-0.6586795449256897,-0.2629385888576507
1630573749662,0.2153227776288986,-0.1526957005262375,-0.6685851812362671,-0.2670795321464538
1630573749738,0.1350389420986175,-0.1526957005262375,-0.6676971316337585,-0.2669815421104431
1630573749910,0.0358350425958633,-0.1526957005262375,-0.6643085479736328,-0.2637975215911865
1630573750023,-0.0603405721485614,-0.1526957005262375,-0.6671639084815979,-0.2593127489089966
1630573750091,-0.110498122870922,-0.1526957005262375,-0.6832225918769836,-0.2506338357925415
1630573750273,-0.118112988770008,-0.1526957005262375,-0.7095866203308105,-0.2485744506120681
1630573750273,-0.1165964156389236,-0.1526957005262375,-0.7330324053764343,-0.260031133890152
1630573750383,-0.1288522332906723,-0.1526957005262375,-0.744282603263855,-0.2829024195671081
1630573750479,-0.1367576420307159,-0.1526957005262375,-0.7468685507774353,-0.3241335153579712
1630573750579,-0.1306964308023452,-0.1526957005262375,-0.7435911893844604,-0.3727485835552215
1630573750719,-0.1041116118431091,-0.1526957005262375,-0.7427017092704773,-0.4079261720180511
1630573750838,-0.0706477314233779,-0.1526957005262375,-0.717896044254303,-0.4019885659217834
1630573750902,-0.0459680780768394,-0.1526957005262375,-0.6551453471183777,-0.3603768944740295
1630573751038,-0.0307646188884973,-0.1526957005262375,-0.5736401081085205,-0.3052338659763336
1630573751103,-0.0223994962871074,-0.1526957005262375,-0.4998520612716675,-0.2557297348976135
1630573751172,-0.0044068940915167,-0.1526957005262375,-0.4444305002689361,-0.2201323956251144
1630573751322,0.0293485410511493,-0.1526957005262375,-0.4133037328720093,-0.1995926797389984
1630573751438,0.0761082246899604,-0.1526957005262375,-0.4048064649105072,-0.1896417587995529
1630573751502,0.1252960115671157,-0.1526957005262375,-0.4119997918605804,-0.1829016357660293
1630573751602,0.1739741414785385,-0.1526957005262375,-0.4301047027111053,-0.1698197126388549
1630573751754,0.2202034890651703,-0.1526957005262375,-0.4533440768718719,-0.149890586733818
1630573751820,0.2644124627113342,-0.1526957005262375,-0.4766421318054199,-0.1270490735769271
1630573751909,0.2953726053237915,-0.1526957005262375,-0.4938037395477295,-0.1141710206866264
1630573752056,0.3061718642711639,-0.1526957005262375,-0.4984160661697387,-0.1070765703916549
1630573752170,0.2970639169216156,-0.1526957005262375,-0.4934596121311188,-0.102683201432228
1630573752199,0.27883180975914,-0.1526957005262375,-0.4704962372779846,-0.0980118438601493
1630573752281,0.2612548768520355,-0.1526957005262375,-0.443504124879837,-0.1035618185997009
1630573752392,0.2481451332569122,-0.1526957005262375,-0.4328649938106537,-0.1236829161643982
1630573752538,0.2371834516525268,-0.1526957005262375,-0.4494049251079559,-0.1547188907861709
1630573752622,0.2260714769363403,-0.1526957005262375,-0.4856760799884796,-0.1893661320209503
1630573752717,0.2111273407936096,-0.1526957005262375,-0.5260016322135925,-0.2196530252695083
1630573752800,0.1907377988100052,-0.1526957005262375,-0.5551459789276123,-0.2411664426326751
1630573752935,0.1627685129642486,-0.1526957005262375,-0.5690004229545593,-0.2478815764188766
1630573753024,0.1263627111911773,-0.1526957005262375,-0.5713483095169067,-0.2303625494241714
1630573753153,0.0758160129189491,-0.1526957005262375,-0.5682297945022583,-0.1938845962285995
1630573753247,0.0051659350283443,-0.1526957005262375,-0.5678173899650574,-0.1469671428203582
1630573753322,-0.0926633030176162,-0.1526957005262375,-0.5669810771942139,-0.111103355884552
1630573753420,-0.2009686231613159,-0.1526957005262375,-0.5583376884460449,-0.0848374217748642
1630573753534,-0.2893851101398468,-0.1526957005262375,-0.5281906723976135,-0.0700615271925926
1630573753615,-0.3297324478626251,-0.1526957005262375,-0.4693121910095215,-0.0588654316961765
1630573753770,-0.3303760290145874,-0.1526957005262375,-0.4003647565841675,-0.0448362007737159
1630573753848,-0.3044279217720032,-0.1526957005262375,-0.332533985376358,-0.0220025461167097
1630573753943,-0.2597458064556122,-0.1526957005262375,-0.2766040563583374,0.0041867583058774
1630573754028,-0.2146549075841903,-0.1526957005262375,-0.2374288290739059,0.025658780708909
1630573754137,-0.1798772513866424,-0.1526957005262375,-0.2131116241216659,0.0414624400436878
1630573754205,-0.1618100553750991,-0.1526957005262375,-0.1955761313438415,0.0530478656291961
1630573754371,-0.1544165313243866,-0.1526957005262375,-0.1777184307575225,0.0662973895668983
1630573754456,-0.149616926908493,-0.1526957005262375,-0.161308005452156,0.0834560990333557
1630573754569,-0.1358086019754409,-0.1526957005262375,-0.1445902287960052,0.0948876962065696
1630573754627,-0.1161591634154319,-0.1526957005262375,-0.1311356723308563,0.0926738530397415
1630573754715,-0.0907307639718055,-0.1526957005262375,-0.12168899923563,0.0829595550894737
1630573754821,-0.048842966556549,-0.1526957005262375,-0.1161090582609176,0.0791646391153335
1630573754989,0.0124314660206437,-0.1526957005262375,-0.1162435337901115,0.079774335026741
1630573755087,0.077051505446434,-0.1526957005262375,-0.1250640749931335,0.084487460553646
1630573755168,0.1335083246231079,-0.1526957005262375,-0.1430349498987198,0.0858680978417396
1630573755267,0.1694202125072479,-0.1526957005262375,-0.1648890674114227,0.0770219415426254
1630573755349,0.1850169897079467,-0.1526957005262375,-0.1914630234241485,0.065599575638771
1630573755442,0.1911488175392151,-0.1526957005262375,-0.2173915356397628,0.0677635595202446
1630573755568,0.1993488520383834,-0.1526957005262375,-0.2335881888866424,0.0934522002935409
1630573755722,0.2076123356819152,-0.1526957005262375,-0.2385113388299942,0.1350305527448654
1630573755791,0.2119816541671753,-0.1526957005262375,-0.2305603772401809,0.1765457838773727
1630573755861,0.2111779898405075,-0.1526957005262375,-0.2143671512603759,0.2051230370998382
1630573755955,0.207643449306488,-0.1526957005262375,-0.1952473521232605,0.216083824634552
1630573756071,0.2007878869771957,-0.1526957005262375,-0.1825648695230484,0.214447870850563
1630573756203,0.192788615822792,-0.1526957005262375,-0.1738114356994629,0.2068380564451217
1630573756267,0.1902224570512771,-0.1526957005262375,-0.1614552140235901,0.1943200826644897
1630573756383,0.1941879838705063,-0.1526957005262375,-0.1416027247905731,0.1770278364419937
1630573756465,0.1965262293815612,-0.1526957005262375,-0.1133928000926971,0.1617524176836013
1630573756555,0.1930881440639495,-0.1526957005262375,-0.0857405439019203,0.1514550894498825
1630573756672,0.1766445189714431,-0.1526957005262375,-0.0714542344212532,0.1440568268299102
1630573756803,0.155611976981163,-0.1526957005262375,-0.0787208080291748,0.138908177614212
1630573756922,0.1359744220972061,-0.1526957005262375,-0.1012790948152542,0.1282452940940857
1630573756995,0.1186589375138282,-0.1526957005262375,-0.1288938671350479,0.1036870926618576
1630573757075,0.1083846315741539,-0.1526957005262375,-0.1523791849613189,0.0585706084966659
1630573757186,0.114476092159748,-0.1526957005262375,-0.1649466305971145,-0.0063731097616255
1630573757265,0.1378087252378463,-0.1526957005262375,-0.1746780574321746,-0.0814245790243148
1630573757409,0.1678464561700821,-0.1526957005262375,-0.1904521435499191,-0.1536027491092682
1630573757507,0.1907835006713867,-0.1526957005262375,-0.2113114297389984,-0.2199789881706237
1630573757596,0.201570987701416,-0.1526957005262375,-0.2338574379682541,-0.2797785997390747
1630573757703,0.2066671699285507,-0.1526957005262375,-0.2553233802318573,-0.3315978944301605
1630573757804,0.2013604491949081,-0.1526957005262375,-0.2833300232887268,-0.3711092174053192
1630573757920,0.178398460149765,-0.1526957005262375,-0.3242217898368835,-0.4008361101150512
1630573758048,0.1375713795423507,-0.1526957005262375,-0.3801911175251007,-0.4255694448947906
1630573758110,0.0898827165365219,-0.1526957005262375,-0.440662145614624,-0.4510315954685211
1630573758221,0.0581944100558757,-0.1526957005262375,-0.4818141460418701,-0.4786959588527679
1630573758342,0.0529111064970493,-0.1526957005262375,-0.4871589541435241,-0.5053488612174988
1630573758405,0.0766103640198707,-0.1526957005262375,-0.4727581739425659,-0.527576744556427
1630573758499,0.1046500280499458,-0.1526957005262375,-0.4662991166114807,-0.5496784448623657
1630573758634,0.121734082698822,-0.1526957005262375,-0.4815457761287689,-0.5725433230400085
1630573758714,0.1294835060834884,-0.1526957005262375,-0.5217087268829346,-0.5974703431129456
1630573758805,0.1458969414234161,-0.1526957005262375,-0.5794169902801514,-0.6222495436668396
1630573758938,0.1875981092453003,-0.1526957005262375,-0.6421632766723633,-0.6229313015937805
1630573758999,0.2501330077648163,-0.1526957005262375,-0.6941084265708923,-0.5748482346534729
1630573759118,0.3073582053184509,-0.1526957005262375,-0.7264764904975891,-0.5028609037399292
1630573759254,0.3395810723304748,-0.1526957005262375,-0.7444207668304443,-0.4472100436687469
1630573759321,0.3541346192359924,-0.1526957005262375,-0.7498966455459595,-0.4170171618461609
1630573759454,0.3567341566085815,-0.1526957005262375,-0.7484267354011536,-0.3957959115505218
1630573759557,0.3588665127754211,-0.1526957005262375,-0.744283139705658,-0.3692179918289184
1630573759625,0.3656719326972961,-0.1526957005262375,-0.7386718988418579,-0.3355267643928528
1630573759705,0.3723798990249634,-0.1526957005262375,-0.7356343865394592,-0.3074851930141449
1630573759835,0.3742417991161346,-0.1526957005262375,-0.7445945143699646,-0.274660974740982
1630573759952,0.3728808462619781,-0.1526957005262375,-0.7553417682647705,-0.2231021672487259
1630573760036,0.3857695162296295,-0.1526957005262375,-0.7379675507545471,-0.1058888062834739
1630573760156,0.4095666706562042,-0.1526957005262375,-0.6824229955673218,-0.0786503031849861
1630573760216,0.4278952479362488,-0.1526957005262375,-0.6091132164001465,-0.0495805069804191
1630573760355,0.4252397418022156,-0.1526957005262375,-0.543613076210022,-0.0208143945783376
1630573760436,0.3905973434448242,-0.1526957005262375,-0.4949621856212616,0.0011811929289251
1630573760517,0.3347580432891845,-0.1526957005262375,-0.4418275952339172,0.0118332859128713
1630573760649,0.292172908782959,-0.1526957005262375,-0.3746887743473053,0.0135105308145284
1630573760733,0.293942391872406,-0.1526957005262375,-0.307404488325119,0.0179447475820779
1630573760824,0.3358082175254822,-0.1526957005262375,-0.248893141746521,0.0325856357812881
1630573760921,0.3942055702209472,-0.1526957005262375,-0.2030637860298156,0.0579567775130271
1630573761088,0.4448914229869842,-0.1526957005262375,-0.1726999580860138,0.0883163660764694
1630573761161,0.4730768799781799,-0.1526957005262375,-0.1549849510192871,0.1267829537391662
1630573761237,0.4831843674182892,-0.1526957005262375,-0.1434654891490936,0.1267829537391662
1630573761388,0.4837245047092438,-0.1526957005262375,-0.1296158134937286,0.1267829537391662
1630573761440,0.4774284660816192,-0.1526957005262375,-0.1161625906825065,0.1267829537391662
1630573761537,0.4558780193328857,-0.1526957005262375,-0.1124497130513191,0.1267829537391662
1630573761724,0.4233072102069855,-0.1526957005262375,-0.111592911183834,0.1267829537391662
1630573761783,0.3919431269168854,-0.1526957005262375,-0.1165821179747581,0.1267829537391662
1630573761862,0.3739587366580963,-0.1526957005262375,-0.1224840804934501,0.1267829537391662
1630573761988,0.3722171783447265,-0.1526957005262375,-0.129385232925415,0.1267829537391662
1630573762067,0.369693785905838,-0.1526957005262375,-0.1484527289867401,0.1267829537391662
1630573762143,0.3511492013931274,-0.1526957005262375,-0.185830071568489,0.1267829537391662
1630573762301,0.3115366399288177,-0.1526957005262375,-0.2367217540740966,0.1267829537391662
1630573762408,0.2468623965978622,-0.1526957005262375,-0.2942099571228027,0.1267829537391662
1630573762469,0.1625897139310836,-0.1526957005262375,-0.3486455976963043,0.1267829537391662
1630573762555,0.0681141838431358,-0.1526957005262375,-0.3851291537284851,0.1267829537391662
1630573762648,-0.0082900431007146,-0.1526957005262375,-0.4034622311592102,0.1267829537391662
1630573762731,-0.0495298728346824,-0.1526957005262375,-0.4186899363994598,0.1267829537391662
1630573762886,-0.0512319728732109,-0.1526957005262375,-0.4157884418964386,0.1267829537391662
1630573762988,-0.0318779237568378,-0.1526957005262375,-0.414683848619461,0.1267829537391662
1630573763090,-0.0095375413075089,-0.1526957005262375,-0.4284945428371429,0.5550298690795898
1630573763170,0.0048013012856245,-0.1526957005262375,-0.4433197379112243,0.546552836894989
1630573763299,0.0044219214469194,-0.1526957005262375,-0.4488230943679809,0.5418171882629395
1630573763363,-0.0087525015696883,-0.1526957005262375,-0.4443584680557251,0.5418171882629395
1630573763521,-0.0256938599050045,-0.1526957005262375,-0.4294175803661346,0.5418171882629395
1630573763589,-0.035808976739645,-0.1526957005262375,-0.4079057276248932,0.5418171882629395
1630573763695,-0.034988135099411,-0.1526957005262375,-0.3820134997367859,0.5418171882629395
1630573763787,-0.0154589815065264,-0.1526957005262375,-0.3477968275547027,0.5418171882629395
1630573763868,0.0329520069062709,-0.1526957005262375,-0.3163822293281555,0.5418171882629395
1630573763971,0.1029333472251892,-0.1526957005262375,-0.2959092557430267,0.5418171882629395
1630573764121,0.16829913854599,-0.1526957005262375,-0.2896776795387268,0.5418171882629395
1630573764237,0.2080501765012741,-0.1526957005262375,-0.2948361933231354,0.5418171882629395
1630573764321,0.2205669432878494,-0.1526957005262375,-0.3002634942531585,0.5528028011322021
1630573764398,0.2164473831653595,-0.1526957005262375,-0.2975241243839264,0.5554633140563965
1630573764532,0.2070066630840301,-0.1526957005262375,-0.2881488800048828,0.5554633140563965
1630573764602,0.200661614537239,-0.1526957005262375,-0.2818796634674072,0.5554633140563965
1630573764740,0.2090536057949066,-0.1526957005262375,-0.2841464579105377,0.5554633140563965
1630573764840,0.2289403975009918,-0.1526957005262375,-0.2971273958683014,0.5554633140563965
1630573764955,0.2464454621076584,-0.1526957005262375,-0.3222185373306274,0.1785019785165786
1630573764987,0.2545769512653351,-0.1526957005262375,-0.3539895713329315,0.1878876686096191
1630573765104,0.2548894882202148,-0.1526957005262375,-0.3785825669765472,0.2060194909572601
1630573765213,0.2493925392627716,-0.1526957005262375,-0.3877943456172943,0.2268031984567642
1630573765366,0.2354616075754165,-0.1526957005262375,-0.3908391296863556,0.2443768233060836
1630573765430,0.2040176093578338,-0.1526957005262375,-0.3898301124572754,0.258989930152893
1630573765536,0.1482177227735519,-0.1526957005262375,-0.3851606249809265,0.2631052732467651
1630573765641,0.0783722773194313,-0.1526957005262375,-0.3756939470767975,0.258309006690979
1630573765689,0.0229773540049791,-0.1526957005262375,-0.3653063774108886,0.2454397827386856
1630573765821,0.006954981945455,-0.1526957005262375,-0.3622577488422394,0.2308104783296585
1630573765933,0.0172394234687089,-0.1526957005262375,-0.37493497133255,0.2145277708768844
1630573766052,0.0497823990881443,-0.1526957005262375,-0.4028708934783935,0.2057926654815673
1630573766129,0.0830013751983642,-0.1526957005262375,-0.4333116114139557,0.2236398756504058
1630573766255,0.1030473411083221,-0.1526957005262375,-0.4515690803527832,0.2505449950695038
1630573766320,0.1119068264961242,-0.1526957005262375,-0.4547058939933777,0.2843636572360992
1630573766466,0.1171503365039825,-0.1526957005262375,-0.4447351098060608,0.3145760893821716
1630573766538,0.1221832409501075,-0.1526957005262375,-0.4208439290523529,0.3296445608139038
1630573766634,0.1303334534168243,-0.1526957005262375,-0.3978494703769684,0.3299250304698944
1630573766720,0.1407957822084427,-0.1526957005262375,-0.3782525658607483,0.3178542554378509
1630573766844,0.1574837267398834,-0.1526957005262375,-0.3585602343082428,0.2989517450332641
1630573766932,0.1779692023992538,-0.1526957005262375,-0.3299285173416137,0.2796327471733093
1630573767029,0.1961829215288162,-0.1526957005262375,-0.3030325174331665,0.2641438543796539
1630573767139,0.2071888893842697,-0.1526957005262375,-0.2733775079250335,0.2575300931930542
1630573767268,0.2090233713388443,-0.1526957005262375,-0.2449867278337478,0.2597620189189911
1630573767337,0.2064301520586013,-0.1526957005262375,-0.2228054851293563,0.2624994218349457
1630573767445,0.1955240666866302,-0.1526957005262375,-0.2122724652290344,0.2630350887775421
1630573767538,0.1661321520805359,-0.1526957005262375,-0.2067004442214965,0.253132164478302
1630573767642,0.130770057439804,-0.1526957005262375,-0.1977774798870086,0.2235648483037948
1630573767771,0.0910422652959823,-0.1526957005262375,-0.1871305704116821,0.1680778712034225
1630573767854,0.0506254471838474,-0.1526957005262375,-0.1766119003295898,0.0906924307346344
1630573767972,0.0131846331059932,-0.1526957005262375,-0.1636933833360672,0.0065701096318662
1630573768031,-0.0140718761831521,-0.1526957005262375,-0.1514702290296554,-0.0668111592531204
1630573768153,-0.0347735621035099,-0.1526957005262375,-0.1421799659729004,-0.1234076246619224
1630573768250,-0.052655316889286,-0.1526957005262375,-0.1476919054985046,-0.1630650460720062
1630573768404,-0.0809841305017471,-0.1526957005262375,-0.170728251338005,-0.1894609779119491
1630573768453,-0.122894674539566,-0.1526957005262375,-0.2125627845525741,-0.2202507704496383
1630573768548,-0.1631046533584594,-0.1526957005262375,-0.2550118267536163,-0.2524665892124176
1630573768679,-0.1750393211841583,-0.1526957005262375,-0.29459148645401,-0.2898387312889099
1630573768772,-0.1374054104089737,-0.1526957005262375,-0.3254421055316925,-0.32113116979599
1630573768848,-0.0751937106251716,-0.1526957005262375,-0.3480165302753448,-0.3301909863948822
1630573768971,-0.0086686974391341,-0.1526957005262375,-0.3592491447925567,-0.3173750042915344
1630573769088,0.0420113205909729,-0.1526957005262375,-0.3654768168926239,-0.2878797352313995
1630573769150,0.0692242980003357,-0.1526957005262375,-0.3772949278354645,-0.2528100907802582
1630573769267,0.0758473053574562,-0.1526957005262375,-0.3930071294307709,-0.2247126698493957
1630573769382,0.0701992735266685,-0.1526957005262375,-0.414066731929779,-0.2080607414245605
1630573769445,0.0628218650817871,-0.1526957005262375,-0.4466186761856079,-0.2045706808567047
1630573769587,0.0619034394621849,-0.1526957005262375,-0.4849292039871216,-0.2071170955896377
1630573769687,0.0752758458256721,-0.1526957005262375,-0.5085355639457703,-0.2100267261266708
1630573769782,0.1118612587451934,-0.1526957005262375,-0.4963370561599731,-0.2075157910585403
1630573769881,0.1677341908216476,-0.1526957005262375,-0.4630870223045349,-0.2023717164993286
1630573769962,0.22812519967556,-0.1526957005262375,-0.430735319852829,-0.1971291303634643
1630573770135,0.2782591581344604,-0.1526957005262375,-0.4177960455417633,-0.1868235319852829
1630573770207,0.3067784309387207,-0.1526957005262375,-0.4229989051818847,-0.1706592738628387
1630573770290,0.3103200793266296,-0.1526957005262375,-0.4368031024932861,-0.153531014919281
1630573770383,0.2928458154201507,-0.1526957005262375,-0.4523376226425171,-0.1378870010375976
1630573770476,0.2663050293922424,-0.1526957005262375,-0.4515246152877807,-0.1228049919009208
1630573770602,0.2421878576278686,-0.1526957005262375,-0.4390324056148529,-0.1114937588572502
1630573770659,0.2317868024110794,-0.1526957005262375,-0.4124529361724853,-0.0753881856799125
1630573770805,0.2402799427509308,-0.1526957005262375,-0.3632253110408783,0.0107761956751346
1630573770921,0.2633451521396637,-0.1526957005262375,-0.2908101975917816,0.1233264282345771
1630573770986,0.2998585104942322,-0.1526957005262375,-0.2184657603502273,0.2211164534091949
1630573771073,0.340672880411148,-0.1526957005262375,-0.167676031589508,0.2837203741073608
1630573771186,0.3767584562301636,-0.1526957005262375,-0.1500878930091858,0.311548113822937
1630573771305,0.3925961852073669,-0.1526957005262375,-0.1579816788434982,0.3207106590270996
1630573771415,0.3831603229045868,-0.1526957005262375,-0.1730214357376098,0.3265422880649566
1630573771504,0.3565056324005127,-0.1526957005262375,-0.1815590858459472,0.3354049026966095
1630573771653,0.335089772939682,-0.1526957005262375,-0.1790506392717361,0.3576669096946716
1630573771715,0.3180891573429107,-0.1526957005262375,-0.1186603903770446,0.3777975142002105
1630573771866,0.313931792974472,-0.1526957005262375,-0.0009737639920786,0.3955792784690857
1630573771899,0.3238535225391388,-0.1526957005262375,0.2082699090242386,0.4122988879680633
1630573772023,0.342819333076477,-0.1526957005262375,0.4547998905181885,0.430876761674881
1630573772106,0.3684987127780914,-0.1526957005262375,0.4811964929103851,0.4545769989490509
1630573772230,0.3944848775863647,-0.1526957005262375,0.5085494518280029,0.4707262516021728
1630573772307,0.4152800738811493,-0.1526957005262375,0.5346472263336182,0.4565089643001556
1630573772404,0.4309013485908508,-0.1526957005262375,0.5583201050758362,0.3935123085975647
1630573772528,0.4302090406417846,-0.1526957005262375,0.5824518799781799,0.2738194763660431
1630573772625,0.4065530896186828,-0.1526957005262375,0.6119966506958008,0.1121994853019714
1630573772736,0.4065530896186828,-0.1526957005262375,0.6516572833061218,0.1121994853019714
1630573772817,0.4065530896186828,-0.1526957005262375,0.7024357318878174,0.1121994853019714
1630573772937,0.4065530896186828,-0.1526957005262375,0.7636709213256836,0.1121994853019714
1630573773037,0.4065530896186828,-0.1526957005262375,0.8373132944107056,0.1121994853019714
1630573773137,0.4065530896186828,-0.1526957005262375,0.928489863872528,0.1121994853019714
1630573773248,0.4065530896186828,-0.1526957005262375,0.928489863872528,0.1121994853019714
1630573773354,0.4065530896186828,-0.1526957005262375,0.928489863872528,0.1121994853019714
1630573773447,0.4065530896186828,-0.1526957005262375,0.928489863872528,0.1121994853019714
1630573773509,0.4065530896186828,-0.1526957005262375,0.928489863872528,0.1121994853019714
1630573773624,0.4065530896186828,-0.1526957005262375,0.928489863872528,0.1121994853019714
1630573773709,0.4065530896186828,-0.1526957005262375,0.928489863872528,0.1121994853019714
1630573773871,0.4065530896186828,-0.1526957005262375,0.928489863872528,0.1121994853019714
1630573773950,0.4065530896186828,-0.1526957005262375,0.928489863872528,0.1121994853019714
1630573774038,0.4065530896186828,-0.1526957005262375,0.928489863872528,0.1121994853019714
1630573774150,0.4065530896186828,-0.1526957005262375,0.928489863872528,0.1121994853019714
1630573774231,0.4065530896186828,-0.1526957005262375,0.928489863872528,0.1121994853019714
1630573774331,0.4065530896186828,-0.1526957005262375,-0.0396289601922035,0.1121994853019714
1630573774504,0.491825670003891,-0.1526957005262375,-0.0210213754326105,0.1121994853019714
1630573774565,0.5063570737838745,-0.1526957005262375,-0.015254626981914,0.1121994853019714
1630573774659,0.4803282916545868,-0.1526957005262375,-0.0302623733878135,0.1121994853019714
1630573774738,0.4392750859260559,-0.1526957005262375,-0.0606004893779754,0.1121994853019714
1630573774833,0.473107635974884,-0.1526957005262375,-0.0859694853425026,0.1121994853019714
1630573774927,0.6131245493888855,-0.1526957005262375,-0.1054632738232612,0.1121994853019714
1630573775071,0.7870177626609802,-0.1526957005262375,-0.1224189922213554,0.1121994853019714
1630573775155,0.7870177626609802,-0.1526957005262375,-0.1368680745363235,0.1121994853019714
1630573775252,0.7870177626609802,-0.1526957005262375,-0.1449352651834488,0.1121994853019714
1630573775354,0.7870177626609802,-0.1526957005262375,-0.1168897375464439,0.1121994853019714
1630573775437,0.7870177626609802,-0.1526957005262375,-0.0104666342958807,0.1121994853019714
1630573775554,0.7870177626609802,-0.1526957005262375,0.1494164019823074,0.1121994853019714
1630573775696,0.8139570951461792,-0.1526957005262375,0.3081219494342804,0.1121994853019714
1630573775802,0.844984233379364,-0.1526957005262375,0.4236357510089874,0.1121994853019714
1630573775906,0.877753496170044,-0.1526957005262375,0.4902063310146332,0.1121994853019714
1630573775968,0.9104846715927124,-0.1526957005262375,0.5193712115287781,0.1121994853019714
1630573776062,0.9561012983322144,-0.1526957005262375,0.5286272168159485,0.1121994853019714
1630573776168,1.0324589014053345,-0.1526957005262375,0.552236020565033,0.1121994853019714
1630573776282,1.0324589014053345,-0.1526957005262375,0.580670952796936,0.1121994853019714
1630573776413,1.0324589014053345,-0.1526957005262375,0.6116829514503479,0.1121994853019714
1630573776476,1.0324589014053345,-0.1526957005262375,0.645378828048706,0.1121994853019714
1630573776596,1.0324589014053345,-0.1526957005262375,0.6826965808868408,0.1121994853019714
1630573776677,1.0324589014053345,-0.1526957005262375,0.7243029475212097,0.1121994853019714
1630573776753,1.0324589014053345,-0.1526957005262375,0.7703720927238464,0.1121994853019714
1630573776887,1.0324589014053345,-0.1526957005262375,0.8154136538505554,0.1121994853019714
1630573777024,1.0324589014053345,-0.1526957005262375,0.8431944251060486,0.1121994853019714
1630573777101,1.0324589014053345,-0.1526957005262375,0.8351012468338013,0.1121994853019714
1630573777204,1.0324589014053345,-0.1526957005262375,0.778709352016449,0.1121994853019714
1630573777341,1.0324589014053345,-0.1526957005262375,0.778709352016449,0.1121994853019714
1630573777369,1.0324589014053345,-0.1526957005262375,0.778709352016449,0.1121994853019714
1630573777522,1.0324589014053345,-0.1526957005262375,0.778709352016449,0.1121994853019714
1630573777598,1.0324589014053345,-0.1526957005262375,0.778709352016449,0.1121994853019714
1630573777808,0.5115050673484802,-0.1526957005262375,-0.2707798779010772,-0.3567503988742828
1630573777871,0.487909197807312,-0.1526957005262375,-0.3032201528549194,-0.3341099321842193
1630573777982,0.4492660164833069,-0.1526957005262375,-0.338836133480072,-0.320544421672821
1630573778125,0.4069110453128814,-0.1526957005262375,-0.364026814699173,-0.3071575462818146
1630573778204,0.3728699684143066,-0.1526957005262375,-0.3737607002258301,-0.3053092062473297
1630573778324,0.3524194359779358,-0.1526957005262375,-0.3722288906574249,-0.3033742010593414
1630573778438,0.3446770906448364,-0.1526957005262375,-0.3710953891277313,-0.2778390944004059
1630573778500,0.3466141521930694,-0.1526957005262375,-0.3703675270080566,-0.1743963658809662
1630573778637,0.3538989722728729,-0.1526957005262375,-0.3652517795562744,0.008179934695363
1630573778731,0.3634279370307922,-0.1526957005262375,-0.3567429482936859,0.008179934695363
1630573778837,0.3675132989883423,-0.1526957005262375,-0.350573867559433,0.008179934695363
1630573778932,0.3634711802005768,-0.1526957005262375,-0.3654753267765045,0.0228441301733255
1630573779036,0.3382831811904907,-0.1526957005262375,-0.3768986165523529,0.0461747162044048
1630573779138,0.2991207838058471,-0.1526957005262375,-0.3859127163887024,0.0747682154178619
1630573779211,0.2543263137340545,-0.1526957005262375,-0.3959163725376129,0.1065997630357742
1630573779355,0.2134944200515747,-0.1526957005262375,-0.4032354950904846,0.1402016878128051
1630573779418,0.1860498338937759,-0.1526957005262375,-0.4001702070236206,0.1747323870658874
1630573779571,0.1729222983121872,-0.1526957005262375,-0.3922266066074371,0.2534278929233551
1630573779648,0.1684526801109314,-0.1526957005262375,-0.3832665383815765,0.2916232347488403
1630573779756,0.163932979106903,-0.1526957005262375,-0.368729680776596,0.3243456780910492
1630573779849,0.153636172413826,-0.1526957005262375,-0.3421273231506347,0.3581819832324981
1630573779970,0.1448406726121902,-0.1526957005262375,-0.3084922134876251,0.3931710720062256
1630573780086,0.15094093978405,-0.1526957005262375,-0.2846515774726867,0.4002293646335602
1630573780149,0.2114899307489395,-0.1526957005262375,-0.2816347777843475,0.2950560748577118
1630573780227,0.3367010653018951,-0.1526957005262375,-0.2965657711029053,0.2950560748577118
1630573780322,0.4802109599113464,-0.1526957005262375,-0.3168850243091583,0.5134249925613403
1630573780417,0.5971490144729614,-0.1526957005262375,-0.3316276371479034,0.6085367202758789
1630573780570,0.6708879470825195,-0.1526957005262375,-0.3340871334075928,0.6365090012550354
1630573780665,0.7040247321128845,-0.1526957005262375,-0.3306365013122558,0.6365090012550354
1630573780769,0.7139677405357361,-0.1526957005262375,-0.3312595784664154,0.6365090012550354
1630573780866,0.7154324054718018,-0.1526957005262375,-0.3398084640502929,0.6365090012550354
1630573780943,0.7166270017623901,-0.1526957005262375,-0.3533054292201996,0.6365090012550354
1630573781044,0.720963716506958,-0.1526957005262375,-0.3671380579471588,0.625487208366394
1630573781154,0.7324295043945312,-0.1526957005262375,-0.3832898437976837,0.6417916417121887
1630573781248,0.750496506690979,-0.1526957005262375,-0.4098868370056152,0.6720179915428162
1630573781345,0.770331084728241,-0.1526957005262375,-0.4608883261680603,0.7039096355438232
1630573781457,0.7835475206375122,-0.1526957005262375,-0.535459041595459,0.730518102645874
1630573781551,0.7832662463188171,-0.1526957005262375,-0.6094934940338135,0.7261185050010681
1630573781651,0.7613162398338318,-0.1526957005262375,-0.6507383584976196,0.7237070202827454
1630573781800,0.7106987833976746,-0.1526957005262375,-0.6381720900535583,0.7200136780738831
1630573781875,0.6286660432815552,-0.1526957005262375,-0.5849985480308533,0.6773084402084351
1630573781971,0.5239372253417969,-0.1526957005262375,-0.5236751437187195,0.6274918913841248
1630573782054,0.4264537692070007,-0.1526957005262375,-0.4820597171783447,0.587118923664093
1630573782166,0.3709023594856262,-0.1526957005262375,-0.4626371562480926,0.5597032308578491
1630573782256,0.3567536771297455,-0.1526957005262375,-0.4567693471908569,0.5299863815307617
1630573782377,0.3588283360004425,-0.1526957005262375,-0.4505663216114044,0.5004473328590393
1630573782470,0.3584533631801605,-0.1526957005262375,-0.4397754669189453,0.4720233678817749
1630573782607,0.3494519293308258,-0.1526957005262375,-0.4341718852519989,0.4557552635669708
1630573782670,0.324209064245224,-0.1526957005262375,-0.4290822446346283,0.4253734648227691
1630573782767,0.2850251793861389,-0.1526957005262375,-0.4259073734283447,0.3819054961204529
1630573782868,0.2378061413764953,-0.1526957005262375,-0.3461307287216186,0.35303795337677
1630573783000,0.1890360116958618,-0.1526957005262375,-0.1623237282037735,0.3147977888584137
1630573783104,0.1644199341535568,-0.1526957005262375,0.17314113676548,0.2622227072715759
1630573783215,0.1660920232534408,-0.1526957005262375,0.1989612877368927,0.1870241165161132
1630573783286,0.1623116135597229,-0.1526957005262375,0.2235437631607055,0.0835251212120056
1630573783370,0.139332577586174,-0.1526957005262375,0.2453917115926742,-0.0609642565250396
1630573783454,0.1054992154240608,-0.1526957005262375,0.2655743062496185,-0.2365330755710601
1630573783597,0.0671686083078384,-0.1526957005262375,0.2888352870941162,-0.4366947114467621
1630573783709,0.027419414371252,-0.1526957005262375,0.3202940821647644,-0.5925056338310242
1630573783809,-0.0162731762975454,-0.1526957005262375,0.3623708486557007,-0.688410758972168
1630573783888,-0.0516445897519588,-0.1526957005262375,0.4138903319835663,-0.7238485813140869
1630573783970,-0.0516445897519588,-0.1526957005262375,0.474320501089096,-0.7238485813140869
1630573784055,-0.0516445897519588,-0.1526957005262375,0.5066758990287781,-0.7238485813140869
1630573784217,-0.0516445897519588,-0.1526957005262375,0.5336636900901794,-0.7238485813140869
1630573784321,-0.0516445897519588,-0.1526957005262375,0.5562452673912048,-0.7238485813140869
1630573784422,-0.0516445897519588,-0.1526957005262375,0.5490171909332275,-0.7238485813140869
1630573784516,-0.0516445897519588,-0.1526957005262375,0.4849224984645843,-0.7238485813140869
1630573784579,-0.0516445897519588,-0.1526957005262375,0.0641611292958259,-0.7238485813140869
1630573784690,-0.0516445897519588,-0.1526957005262375,0.0453651770949363,-0.7238485813140869
1630573784841,0.5262067317962646,-0.1526957005262375,0.0189673975110054,-0.0316438600420951
1630573784934,0.5043238401412964,-0.1526957005262375,-0.0149481920525431,-0.0589830875396728
1630573785035,0.4907578825950622,-0.1526957005262375,-0.0494022034108638,-0.0596954151988029
1630573785110,0.4716261327266693,-0.1526957005262375,-0.0776741206645965,-0.0419779419898986
1630573785218,0.4494500458240509,-0.1526957005262375,-0.098756730556488,-0.0157609432935714
1630573785339,0.4307889342308044,-0.1526957005262375,-0.1122766882181167,0.0079242791980504
1630573785455,0.4171946942806244,-0.1526957005262375,-0.1231580600142479,0.0232007279992103
1630573785555,0.4068102836608886,-0.1526957005262375,-0.1352479755878448,0.0300315394997596
1630573785632,0.3925170600414276,-0.1526957005262375,-0.1870091557502746,0.0310049951076507
1630573785732,0.3714425265789032,-0.1526957005262375,-0.2427451908588409,0.0271051991730928
1630573785816,0.3515393733978271,-0.1526957005262375,-0.3032305836677551,0.0256334021687507
1630573785902,0.3385736048221588,-0.1526957005262375,-0.3500204682350158,0.0279103219509124
1630573786053,0.3159777224063873,-0.1526957005262375,-0.3871870636940002,0.0265621598809957
1630573786161,0.2843237221240997,-0.1526957005262375,-0.4252313375473022,0.0306990221142768
1630573786223,0.2511659562587738,-0.1526957005262375,-0.465428352355957,0.0354286804795265
1630573786321,0.2270280569791793,-0.1526957005262375,-0.492810845375061,0.0336743146181106
1630573786466,0.2037580162286758,-0.1526957005262375,-0.5044033527374268,0.0228726658970117
1630573786516,0.173284649848938,-0.1526957005262375,-0.5013507604598999,0.002134371548891
1630573786687,0.1496543288230896,-0.1526957005262375,-0.4923515021800995,-0.026086963713169
1630573786772,0.1325882375240326,-0.1526957005262375,-0.4732874035835266,-0.0570963695645332
1630573786837,0.1163093224167823,-0.1526957005262375,-0.4506727457046509,-0.0813536420464515
1630573786937,0.1025460883975029,-0.1526957005262375,-0.4220912754535675,-0.0894742608070373
1630573787016,0.0946706309914588,-0.1526957005262375,-0.3887971341609955,-0.0797910541296005
1630573787105,0.1062123477458953,-0.1526957005262375,-0.3541566729545593,-0.057133749127388
1630573787256,0.1421341001987457,-0.1526957005262375,-0.3222307562828064,-0.0252135004848241
1630573787355,0.1825143992900848,-0.1526957005262375,-0.2985358536243438,-0.0016196296783164
1630573787433,0.2120268493890762,-0.1526957005262375,-0.2906444370746612,0.0064594740979373
1630573787528,0.2275968044996261,-0.1526957005262375,-0.2977080345153808,0.00101969554089
1630573787639,0.2320621162652969,-0.1526957005262375,-0.3101402521133423,-0.0056894426234066
1630573787733,0.2351212501525879,-0.1526957005262375,-0.3194582462310791,-0.0078149251639842
1630573787875,0.2398896813392639,-0.1526957005262375,-0.3227434158325195,-0.0032481346279382
1630573787988,0.2450137734413147,-0.1526957005262375,-0.3215866982936859,-0.0004156641953159
1630573788080,0.2497533410787582,-0.1526957005262375,-0.326175332069397,0.000152135384269
1630573788170,0.2476685941219329,-0.1526957005262375,-0.34052374958992,-0.0024659433402121
1630573788288,0.2422056049108505,-0.1526957005262375,-0.3686652481555938,-0.0083467280492186
1630573788349,0.2361378669738769,-0.1526957005262375,-0.409380704164505,-0.0194387044757604
1630573788505,0.2276634126901626,-0.1526957005262375,-0.46095672249794,-0.0361080318689346
1630573788584,0.2143602669239044,-0.1526957005262375,-0.5199346542358398,-0.0615157708525657
1630573788708,0.1921232640743255,-0.1526957005262375,-0.5824730396270752,-0.1006424203515052
1630573788765,0.1590844839811325,-0.1526957005262375,-0.6426525115966797,-0.1561414897441864
1630573788887,0.1212426275014877,-0.1526957005262375,-0.6860697865486145,-0.2111120969057083
1630573788985,0.0873212739825248,-0.1526957005262375,-0.6974020600318909,-0.2428749948740005
1630573789079,0.0813639909029007,-0.1526957005262375,-0.6837591528892517,-0.2419221252202987
1630573789170,0.1129798144102096,-0.1526957005262375,-0.6585205793380737,-0.2202813178300857
1630573789280,0.1702791154384613,-0.1526957005262375,-0.6227496862411499,-0.1889339536428451
1630573789421,0.2300058156251907,-0.1526957005262375,-0.5589700937271118,-0.1582135558128357
1630573789482,0.2712343633174896,-0.1526957005262375,-0.4705466032028198,-0.1318945288658142
1630573789559,0.2917336821556091,-0.1526957005262375,-0.3825138211250305,-0.1119360923767089
1630573789709,0.2990578413009643,-0.1526957005262375,-0.3141240179538727,-0.099123828113079
1630573789783,0.3012342154979706,-0.1526957005262375,-0.2745012938976288,-0.09404306858778
1630573789916,0.3011000454425812,-0.1526957005262375,-0.2539592087268829,-0.0957746058702468
1630573789983,0.3000966906547546,-0.1526957005262375,-0.2352046072483062,-0.1053424626588821
1630573790104,0.2988834381103515,-0.1526957005262375,-0.2037420868873596,-0.1166514903306961
1630573790164,0.2993605136871338,-0.1526957005262375,-0.1569092124700546,-0.1195843964815139
1630573790316,0.3038341104984283,-0.1526957005262375,-0.1049162596464157,-0.1101040914654731
1630573790420,0.3096886277198791,-0.1526957005262375,-0.0598421208560466,-0.0990218520164489
1630573790538,0.3147112727165222,-0.1526957005262375,-0.0278451964259147,-0.0982332006096839
1630573790646,0.3107429146766662,-0.1526957005262375,-0.0093354610726237,-0.1140648871660232
1630573790677,0.2903939485549927,-0.1526957005262375,-0.0023765754885971,-0.1407746523618698
1630573790774,0.2454907000064849,-0.1526957005262375,-0.0058855488896369,-0.1672281920909881
1630573790917,0.1833472251892089,-0.1526957005262375,-0.0209094006568193,-0.1836992055177688
1630573791046,0.1324417740106582,-0.1526957005262375,-0.0496421307325363,-0.1894288063049316
1630573791084,0.1201189383864402,-0.1526957005262375,-0.0861036926507949,-0.191468209028244
1630573791220,0.1408691704273224,-0.1526957005262375,-0.1224542558193206,-0.1941195130348205
1630573791307,0.1675975620746612,-0.1526957005262375,-0.1450352072715759,-0.1923329681158065
1630573791380,0.1903030276298523,-0.1526957005262375,-0.1528877317905426,-0.1858904063701629
1630573791562,0.2163651287555694,-0.1526957005262375,-0.1559417694807052,-0.1816828101873397
1630573791640,0.2562087476253509,-0.1526957005262375,-0.16584312915802,-0.1827405840158462
1630573791708,0.304714560508728,-0.1526957005262375,-0.1937167197465896,-0.192617580294609
1630573791808,0.3468698263168335,-0.1526957005262375,-0.2376881837844848,-0.2186956256628036
1630573791923,0.3748964965343475,-0.1526957005262375,-0.2835481464862823,-0.2519634366035461
1630573791983,0.3882789611816406,-0.1526957005262375,-0.3075484037399292,-0.2858182191848755
1630573792145,0.3900136053562164,-0.1526957005262375,-0.3068809509277344,-0.3178482353687286
1630573792247,0.3848342001438141,-0.1526957005262375,-0.2941673994064331,-0.3569858074188232
1630573792323,0.3802306354045868,-0.1526957005262375,-0.2814516425132751,-0.4103545546531677
1630573792413,0.3753273785114288,-0.1526957005262375,-0.277637779712677,-0.4786818623542785
1630573792510,0.3656096756458282,-0.1526957005262375,-0.276947408914566,-0.5438939929008484
1630573792584,0.3456894755363464,-0.1526957005262375,-0.2805514335632324,-0.5864598751068115
1630573792747,0.3206374943256378,-0.1526957005262375,-0.282338947057724,-0.594973087310791
1630573792862,0.2970705926418304,-0.1526957005262375,-0.2852539420127868,-0.5942773818969727
1630573792956,0.2785786092281341,-0.1526957005262375,-0.2926782667636871,-0.5963267087936401
1630573793034,0.2570826113224029,-0.1526957005262375,-0.3078053593635559,-0.581797182559967
1630573793148,0.2171639502048492,-0.1526957005262375,-0.3321946859359741,-0.540299117565155
1630573793238,0.1532092094421386,-0.1526957005262375,-0.3564289212226867,-0.4753032922744751
1630573793350,0.0716337859630584,-0.1526957005262375,-0.3793500065803528,-0.3994307518005371
1630573793434,-0.0028704146388918,-0.1526957005262375,-0.3979628980159759,-0.3252992033958435
1630573793527,-0.0321554318070411,-0.1526957005262375,-0.4085927605628967,-0.2322935312986374
1630573793618,0.0005112668732181,-0.1526957005262375,-0.3870194554328918,-0.1180897057056427
1630573793735,0.0633159875869751,-0.1526957005262375,-0.3262651264667511,-0.0067577324807643
1630573793848,0.1214406713843345,-0.1526957005262375,-0.2458494007587433,0.0799194574356079
1630573793999,0.1533566862344741,-0.1526957005262375,-0.1677634865045547,0.133215457201004
1630573794063,0.1652627438306808,-0.1526957005262375,-0.1073115468025207,0.1633341461420059
1630573794157,0.1774931102991104,-0.1526957005262375,-0.0665905177593231,0.1835103034973144
1630573794258,0.1962103545665741,-0.1526957005262375,-0.0415697135031223,0.1977127194404602
1630573794355,0.2301975339651107,-0.1526957005262375,-0.0243049561977386,0.2073889076709747
1630573794471,0.2801175117492676,-0.1526957005262375,-0.0058979946188628,0.2141147702932357
1630573794570,0.3280750215053558,-0.1526957005262375,0.0135806407779455,0.2173599898815155
1630573794704,0.3641156554222107,-0.1526957005262375,0.0316062346100807,0.216274231672287
1630573794752,0.3805617094039917,-0.1526957005262375,0.0441344082355499,0.2086056768894195
1630573794852,0.3840472996234894,-0.1526957005262375,0.0527807213366031,0.1946587413549423
1630573794938,0.3802731037139892,-0.1526957005262375,0.0559878647327423,0.1743971705436706
1630573795068,0.3678130805492401,-0.1526957005262375,0.0484853982925415,0.1404188126325607
1630573795187,0.3405613899230957,-0.1526957005262375,0.0240434650331735,0.082103706896305
1630573795287,0.3041152656078338,-0.1526957005262375,-0.0204925443977117,-0.0021882716100662
1630573795405,0.2655576765537262,-0.1526957005262375,-0.0829364880919456,-0.1016484647989273
1630573795468,0.2388855218887329,-0.1526957005262375,-0.1554956138134002,-0.18673837184906
1630573795579,0.226249024271965,-0.1526957005262375,-0.2240444421768188,-0.2473789900541305
1630573795696,0.2172575145959854,-0.1526957005262375,-0.2757705748081207,-0.2966922521591186
1630573795840,0.2029786556959152,-0.1526957005262375,-0.3042753636837005,-0.3420469164848327
1630573795900,0.1717791557312011,-0.1526957005262375,-0.3157062232494354,-0.386676549911499
1630573796005,0.1119667962193489,-0.1526957005262375,-0.3200021386146545,-0.4333665072917938
1630573796069,0.0337504968047142,-0.1526957005262375,-0.3215920627117157,-0.4822220206260681
1630573796190,-0.0423388294875621,-0.1526957005262375,-0.329688161611557,-0.5374078750610352
1630573796287,-0.0809540897607803,-0.1526957005262375,-0.345068097114563,-0.5925626754760742
1630573796398,-0.0861196666955947,-0.1526957005262375,-0.3636496663093567,-0.6314646601676941
1630573796521,-0.0873125120997428,-0.1526957005262375,-0.3759315609931946,-0.639589786529541
1630573796571,-0.0954899862408638,-0.1526957005262375,-0.3758163452148437,-0.6093193888664246
1630573796701,-0.1131261065602302,-0.1526957005262375,-0.3637198805809021,-0.5440007448196411
1630573796803,-0.1356344670057296,-0.1526957005262375,-0.3475744426250458,-0.4721441864967346
1630573796863,-0.1448699086904525,-0.1526957005262375,-0.33621346950531,-0.4247021377086639
1630573797014,-0.1236252710223198,-0.1526957005262375,-0.3278030455112457,-0.3971732258796692
1630573797138,-0.0691557824611663,-0.1526957005262375,-0.3275648057460785,-0.3811664581298828
1630573797204,-0.0020398888736963,-0.1526957005262375,-0.3314703404903412,-0.3706812262535095
1630573797303,0.079555332660675,-0.1526957005262375,-0.3439340591430664,-0.3652201294898987
1630573797386,0.1570559442043304,-0.1526957005262375,-0.3709598481655121,-0.3604471981525421
1630573797497,0.2174448370933532,-0.1526957005262375,-0.4195762872695923,-0.3581203818321228
1630573797637,0.2508232891559601,-0.1526957005262375,-0.4825362265110016,-0.3492689728736877
1630573797718,0.2678898274898529,-0.1526957005262375,-0.5385061502456665,-0.3196601867675781
1630573797839,0.2811999917030334,-0.1526957005262375,-0.5637599229812622,-0.2503946125507355
1630573797949,0.2947631478309631,-0.1526957005262375,-0.5623055100440979,-0.1502051651477813
1630573798010,0.3102911710739136,-0.1526957005262375,-0.5438997745513916,-0.0578664094209671
1630573798138,0.3236855268478393,-0.1526957005262375,-0.5161767601966858,0.0032564322464168
1630573798232,0.3331933915615082,-0.1526957005262375,-0.48655566573143,0.026357565075159
1630573798355,0.3377153873443603,-0.1526957005262375,-0.452450543642044,0.0208657998591661
1630573798448,0.3374758958816528,-0.1526957005262375,-0.4105403125286102,0.0052735651843249
1630573798558,0.3310288786888122,-0.1526957005262375,-0.3695053458213806,-0.0117648113518953
1630573798628,0.3162953555583954,-0.1526957005262375,-0.333938866853714,-0.0241259410977363
1630573798690,0.2913728058338165,-0.1526957005262375,-0.3068156242370605,-0.0315169505774974
1630573798848,0.2481374442577362,-0.1526957005262375,-0.2881176173686981,-0.028820626437664
1630573798923,0.192968413233757,-0.1526957005262375,-0.2750392556190491,-0.0169700793921947
1630573799070,0.1381046026945114,-0.1526957005262375,-0.2635786831378937,0.0016609620070084
1630573799117,0.1127533912658691,-0.1526957005262375,-0.2527012526988983,0.0194479674100875
1630573799206,0.1264932602643966,-0.1526957005262375,-0.2439121752977371,0.0283377505838871
1630573799297,0.1614511162042617,-0.1526957005262375,-0.2417055517435073,0.0163357071578502
1630573799471,0.1991586834192276,-0.1526957005262375,-0.249161958694458,-0.0268962699919939
1630573799583,0.2268031686544418,-0.1526957005262375,-0.2704367339611053,-0.0942671373486518
1630573799615,0.2391494065523147,-0.1526957005262375,-0.3022140860557556,-0.1675663441419601
1630573799731,0.2406171113252639,-0.1526957005262375,-0.3396273851394653,-0.2160214334726333
1630573799821,0.237879067659378,-0.1526957005262375,-0.3817421793937683,-0.2319923639297485
1630573799910,0.2350480109453201,-0.1526957005262375,-0.4302213191986084,-0.2253320217132568
1630573800062,0.2334376573562622,-0.1526957005262375,-0.4839583933353424,-0.2121243774890899
1630573800170,0.2307647913694381,-0.1526957005262375,-0.5296143889427185,-0.1935205906629562
1630573800232,0.23024882376194,-0.1526957005262375,-0.5587436556816101,-0.1665805280208587
1630573800349,0.2315590530633926,-0.1526957005262375,-0.568376898765564,-0.1412563025951385
1630573800431,0.2297046184539795,-0.1526957005262375,-0.5661695003509521,-0.1222117319703102
1630573800526,0.2205018997192382,-0.1526957005262375,-0.5669333338737488,-0.1140904501080513
1630573800665,0.2002130001783371,-0.1526957005262375,-0.5812121629714966,-0.1158512756228447
1630573800755,0.160943865776062,-0.1526957005262375,-0.6004205942153931,-0.1312500238418579
1630573800853,0.1013694331049919,-0.1526957005262375,-0.6075455546379089,-0.1525506675243377
1630573800936,0.0263263471424579,-0.1526957005262375,-0.5907241106033325,-0.1651641279458999
1630573801036,-0.0420875512063503,-0.1526957005262375,-0.535536527633667,-0.164001390337944
1630573801156,-0.0970518365502357,-0.1526957005262375,-0.4364696741104126,-0.1565310209989547
1630573801304,-0.1203937381505966,-0.1526957005262375,-0.188720554113388,-0.1476348787546157
1630573801387,-0.1197721362113952,-0.1526957005262375,-0.1643035858869552,-0.1360932886600494
1630573801511,-0.1141603887081146,-0.1526957005262375,-0.138078510761261,-0.1224989220499992
1630573801633,-0.1156981959939003,-0.1526957005262375,-0.1119072213768959,-0.1028994768857956
1630573801661,-0.1229452565312385,-0.1526957005262375,-0.0890632271766662,-0.0890167728066444
1630573801754,-0.1417394429445266,-0.1526957005262375,-0.068959005177021,-0.0938307270407676
1630573801879,-0.1739054322242736,-0.1526957005262375,-0.0482381582260131,-0.1202530115842819
1630573801987,-0.2111963927745819,-0.1526957005262375,-0.0205485615879297,-0.1719838827848434
1630573802087,-0.2290146797895431,-0.1526957005262375,0.019513800740242,-0.2420608252286911
1630573802171,-0.2290146797895431,-0.1526957005262375,0.074246697127819,-0.2420608252286911
1630573802269,-0.2290146797895431,-0.1526957005262375,0.1422829329967498,-0.2420608252286911
1630573802369,-0.2290146797895431,-0.1526957005262375,0.2223508656024933,-0.2420608252286911
1630573802522,-0.2290146797895431,-0.1526957005262375,0.2223508656024933,-0.2420608252286911
1630573802599,-0.2290146797895431,-0.1526957005262375,0.2223508656024933,-0.2420608252286911
1630573802683,-0.2290146797895431,-0.1526957005262375,0.2223508656024933,-0.2420608252286911
1630573802785,-0.2290146797895431,-0.1526957005262375,0.2223508656024933,-0.2420608252286911
1630573802889,-0.2290146797895431,-0.1526957005262375,0.2223508656024933,-0.2420608252286911
1630573803004,-0.2290146797895431,-0.1526957005262375,0.2223508656024933,-0.2420608252286911
1630573803125,-0.2290146797895431,-0.1526957005262375,0.2223508656024933,-0.2420608252286911
1630573803221,-0.2290146797895431,-0.1526957005262375,0.2223508656024933,-0.2420608252286911
1630573803282,-0.2290146797895431,-0.1526957005262375,0.2223508656024933,-0.2420608252286911
1630573803387,-0.2290146797895431,-0.1526957005262375,0.2223508656024933,-0.2420608252286911
1630573803467,-0.2290146797895431,-0.1526957005262375,0.2223508656024933,-0.2420608252286911
1630573803553,-0.2290146797895431,-0.1526957005262375,0.2223508656024933,-0.2420608252286911
1630573803720,-0.2290146797895431,-0.1526957005262375,0.2223508656024933,-0.2420608252286911
1630573803819,-0.2290146797895431,-0.1526957005262375,0.2223508656024933,-0.2420608252286911
1630573803921,-0.2290146797895431,-0.1526957005262375,0.6736341714859009,-0.2420608252286911
1630573804002,-0.2290146797895431,-0.1526957005262375,0.5871140956878662,-0.2420608252286911
1630573804121,-0.2290146797895431,-0.1526957005262375,0.496511846780777,-0.2420608252286911
1630573804184,-0.2290146797895431,-0.1526957005262375,0.3249321281909942,-0.2420608252286911
1630573804331,-0.2290146797895431,-0.1526957005262375,-0.354977935552597,-0.2420608252286911
1630573804437,-0.2290146797895431,-0.1526957005262375,-0.3870038986206054,-0.2420608252286911
1630573804501,-0.2290146797895431,-0.1526957005262375,-0.4249532222747803,-0.2420608252286911
1630573804588,-0.2290146797895431,-0.1526957005262375,-0.4576071500778198,-0.2420608252286911
1630573804698,-0.2290146797895431,-0.1526957005262375,-0.4746472835540771,-0.2420608252286911
1630573804817,-0.2290146797895431,-0.1526957005262375,-0.4743608832359314,-0.2420608252286911
1630573804953,-0.2290146797895431,-0.1526957005262375,-0.4604572057723999,-0.2420608252286911
1630573805032,-0.2290146797895431,-0.1526957005262375,-0.4343499839305877,-0.1001865565776825
1630573805139,-0.2290146797895431,-0.1526957005262375,-0.3991609215736389,-0.1398969888687133
1630573805218,0.3307380974292755,-0.1526957005262375,-0.3673125505447387,-0.1703889071941375
1630573805302,0.295585960149765,-0.1526957005262375,-0.3483195304870605,-0.1923758089542389
1630573805433,0.2494996935129165,-0.1526957005262375,-0.3362227380275726,-0.2107707113027572
1630573805543,0.2013290673494339,-0.1526957005262375,-0.3278413712978363,-0.225910872220993
1630573805664,0.1568264663219452,-0.1526957005262375,-0.3187668323516845,-0.2457250207662582
1630573805727,0.1568264663219452,-0.1526957005262375,-0.304151713848114,-0.2457250207662582
1630573805838,0.1568264663219452,-0.1526957005262375,-0.2818647027015686,-0.2457250207662582
1630573805920,0.1568264663219452,-0.1526957005262375,-0.2019651979207992,-0.2457250207662582
1630573806022,0.1568264663219452,-0.1526957005262375,-0.0027085493784397,-0.2457250207662582
1630573806153,0.1568264663219452,-0.1526957005262375,0.2530719339847564,-0.2457250207662582
1630573806235,0.1568264663219452,-0.1526957005262375,0.4683935344219208,-0.3040346503257751
1630573806338,0.1568264663219452,-0.1526957005262375,0.6137003302574158,-0.3448776006698608
1630573806419,0.1449395418167114,-0.1526957005262375,0.6941421627998352,-0.3663139343261719
1630573806502,0.0964209586381912,-0.1526957005262375,0.7277533411979675,-0.3796744048595428
1630573806618,0.0019762169104069,-0.1526957005262375,0.7535158395767212,-0.3859465718269348
1630573806754,-0.1377295553684234,-0.1526957005262375,0.7811692953109741,-0.3908930718898773
1630573806867,-0.1377295553684234,-0.1526957005262375,0.8119484186172485,-0.3908930718898773
1630573806952,-0.1377295553684234,-0.1526957005262375,0.8463469743728638,-0.3908930718898773
1630573807087,-0.1377295553684234,-0.1526957005262375,0.8843998312950134,-0.3908930718898773
1630573807122,-0.1377295553684234,-0.1526957005262375,0.9266611337661744,-0.3908930718898773
1630573807273,-0.1377295553684234,-0.1526957005262375,0.9736628532409668,-0.3908930718898773
1630573807380,-0.1377295553684234,-0.1526957005262375,1.0270977020263672,-0.3908930718898773
1630573807506,-0.1377295553684234,-0.1526957005262375,1.0832055807113647,-0.3908930718898773
1630573807572,-0.1377295553684234,-0.1526957005262375,1.1272034645080566,-0.3908930718898773
1630573807648,-0.1377295553684234,-0.1526957005262375,1.1375151872634888,-0.3908930718898773
1630573807750,-0.1377295553684234,-0.1526957005262375,1.1375151872634888,-0.3908930718898773
1630573807850,-0.1377295553684234,-0.1526957005262375,1.1375151872634888,-0.3908930718898773
1630573807987,-0.1377295553684234,-0.1526957005262375,1.1375151872634888,-0.3908930718898773
1630573808153,-0.1377295553684234,-0.1526957005262375,1.1375151872634888,-0.3908930718898773
1630573808183,-0.1377295553684234,-0.1526957005262375,1.1375151872634888,-0.3908930718898773
1630573808275,-0.1377295553684234,-0.1526957005262375,1.1375151872634888,-0.3908930718898773
1630573808369,-0.1377295553684234,-0.1526957005262375,1.1375151872634888,-0.3908930718898773
1630573808446,-0.1377295553684234,-0.1526957005262375,1.1375151872634888,-0.3908930718898773
1630573808561,-0.1377295553684234,-0.1526957005262375,1.1375151872634888,-0.3908930718898773
1630573808686,-0.1377295553684234,-0.1526957005262375,1.1375151872634888,-0.3908930718898773
1630573808798,-0.1377295553684234,-0.1526957005262375,0.473036378622055,-0.3908930718898773
1630573808904,-0.1377295553684234,-0.1526957005262375,0.5165541172027588,-0.3908930718898773
1630573808967,-0.1377295553684234,-0.1526957005262375,0.5381134748458862,-0.3908930718898773
1630573809088,-0.1377295553684234,-0.1526957005262375,0.5378255248069763,-0.3908930718898773
1630573809203,-0.1377295553684234,-0.1526957005262375,0.5192145705223083,-0.3908930718898773
1630573809310,-0.1377295553684234,-0.1526957005262375,0.4959699213504791,-0.3908930718898773
1630573809403,-0.1377295553684234,-0.1526957005262375,0.473993718624115,-0.3908930718898773
1630573809482,-0.1377295553684234,-0.1526957005262375,0.4529114365577698,-0.3908930718898773
1630573809638,-0.1377295553684234,-0.1526957005262375,0.4406846761703491,-0.3908930718898773
1630573809671,-0.1377295553684234,-0.1526957005262375,0.4362914264202118,-0.3908930718898773
1630573809801,-0.1377295553684234,-0.1526957005262375,0.431305855512619,-0.3908930718898773
1630573809886,-0.1377295553684234,-0.1526957005262375,0.4192111194133758,-0.3908930718898773
1630573809988,-0.1377295553684234,-0.1526957005262375,0.3974109888076782,-0.3908930718898773
1630573810089,-0.1377295553684234,-0.1526957005262375,0.3835339248180389,-0.3908930718898773
1630573810217,-0.1377295553684234,-0.1526957005262375,0.3622606098651886,-0.3908930718898773
1630573810262,-0.1377295553684234,-0.1526957005262375,0.3277463614940643,-0.3908930718898773
1630573810421,-0.1377295553684234,-0.1526957005262375,0.289614588022232,-0.3908930718898773
1630573810484,-0.1377295553684234,-0.1526957005262375,0.2664498090744018,-0.3908930718898773
1630573810602,-0.1377295553684234,-0.1526957005262375,0.2809474170207977,-0.3908930718898773
1630573810709,-0.1377295553684234,-0.1526957005262375,0.3281181454658508,-0.3908930718898773
1630573810789,0.8926414251327515,-0.1526957005262375,0.3777060210704803,-0.3908930718898773
1630573810923,0.9160391688346864,-0.1526957005262375,0.4165645539760589,1.3341134786605835
1630573811034,0.9989624619483948,-0.1526957005262375,0.442275732755661,1.3341134786605835
1630573811156,0.9989624619483948,-0.1526957005262375,0.4482376277446747,1.3341134786605835
1630573811222,0.9989624619483948,-0.1526957005262375,0.4359387159347534,1.3341134786605835
1630573811315,0.9989624619483948,-0.1526957005262375,0.4168771803379059,1.3341134786605835
1630573811436,0.9989624619483948,-0.1526957005262375,0.4033637046813965,1.3341134786605835
1630573811514,0.9989624619483948,-0.1526957005262375,0.3971892297267914,1.3341134786605835
1630573811655,0.9361673593521118,-0.1526957005262375,0.3922765254974365,1.3341134786605835
1630573811746,0.8819248080253601,-0.1526957005262375,0.3866658508777618,1.2547526359558103
1630573811855,0.8349069356918335,-0.1526957005262375,0.3753092288970947,1.1700838804244995
1630573811950,0.7940837144851685,-0.1526957005262375,0.356497049331665,1.0980005264282229
1630573811996,0.7254893183708191,-0.1526957005262375,0.3254255056381225,1.0255285501480105
1630573812105,0.6411547064781189,-0.1526957005262375,0.2689140439033508,0.8649922013282776
1630573812237,0.6147154569625854,-0.1526957005262375,0.1911937445402145,0.8649922013282776
1630573812322,0.6064094305038452,-0.1526957005262375,0.1178316846489906,0.8649922013282776
1630573812416,0.5041945576667786,-0.1526957005262375,0.0223115868866443,0.1578882336616516
1630573812518,-0.2094136029481887,-0.1526957005262375,-0.0755340903997421,0.1578882336616516
1630573812721,-0.2094136029481887,-0.1526957005262375,-0.1818636506795883,0.1578882336616516
1630573812849,-0.2094136029481887,-0.1526957005262375,-0.1739496290683746,0.1578882336616516
1630573812972,-0.2094136029481887,-0.1526957005262375,-0.15405835211277,0.1578882336616516
1630573813072,-0.2094136029481887,-0.1526957005262375,-0.1412051320075988,0.1578882336616516
1630573813132,-0.2034789472818374,-0.1526957005262375,-0.1307557672262191,0.1578882336616516
1630573813219,-0.1861471086740493,-0.1526957005262375,-0.1094046384096145,0.0472476668655872
1630573813337,-0.1861471086740493,-0.1526957005262375,-0.0676406323909759,0.0472476668655872
1630573813485,-0.1861471086740493,-0.1526957005262375,-0.007498987019062,0.0472476668655872
1630573813605,-0.1861471086740493,-0.1526957005262375,-0.007498987019062,0.0472476668655872
1630573813639,-0.1861471086740493,-0.1526957005262375,-0.007498987019062,0.0472476668655872
1630573813753,-0.1861471086740493,-0.1526957005262375,-0.007498987019062,0.0472476668655872
1630573813823,-0.1861471086740493,-0.1526957005262375,-0.007498987019062,0.0472476668655872
1630573813938,-0.1861471086740493,-0.1526957005262375,-0.007498987019062,0.0472476668655872
1630573814069,-0.1861471086740493,-0.1526957005262375,-0.007498987019062,0.0472476668655872
1630573814186,-0.1861471086740493,-0.1526957005262375,-0.007498987019062,0.0472476668655872
1630573814288,-0.1861471086740493,-0.1526957005262375,-0.007498987019062,0.0472476668655872
1630573814368,-0.1861471086740493,-0.1526957005262375,0.0291222557425498,0.0472476668655872
1630573814494,-0.1861471086740493,-0.1526957005262375,0.0560650825500488,0.0472476668655872
1630573814560,-0.1861471086740493,-0.1526957005262375,0.0514978766441345,0.0472476668655872
1630573814705,-0.1861471086740493,-0.1526957005262375,0.0245697144418954,0.0472476668655872
1630573814768,-0.1861471086740493,-0.1526957005262375,-0.012294846586883,0.0472476668655872
1630573814886,-0.1861471086740493,-0.1526957005262375,-0.0486320294439792,0.0472476668655872
1630573814980,-0.1861471086740493,-0.1526957005262375,-0.0775156989693641,0.0472476668655872
1630573815090,-0.1861471086740493,-0.1526957005262375,-0.1034195348620414,0.0472476668655872
1630573815136,0.6489030122756958,-0.1526957005262375,-0.1284985542297363,0.0472476668655872
1630573815288,0.6179566979408264,-0.1526957005262375,-0.1446510106325149,0.0472476668655872
1630573815368,0.606458306312561,-0.1526957005262375,-0.1389365345239639,-0.2812250554561615
1630573815506,0.6115735769271851,-0.1526957005262375,-0.1097064539790153,-0.2637773752212524
1630573815596,0.6219365000724792,-0.1526957005262375,-0.0660374537110328,-0.212357684969902
1630573815691,0.6211695075035095,-0.1526957005262375,-0.0465770959854126,-0.1648464351892471
1630573815752,0.610180139541626,-0.1526957005262375,-0.0525426194071769,-0.1331448405981063
1630573815888,0.5930178165435791,-0.1526957005262375,-0.0642651915550232,-0.1127959638833999
1630573816004,0.5849661231040955,-0.1526957005262375,-0.0683119818568229,-0.0947657823562622
1630573816081,0.6121732592582703,-0.1526957005262375,-0.0653948634862899,-0.0676440596580505
1630573816202,0.6466191411018372,-0.1526957005262375,-0.0617227964103221,-0.0417908281087875
1630573816262,0.6947125196456909,-0.1526957005262375,-0.0607903935015201,-0.0162938628345727
1630573816368,0.7320531606674194,-0.1526957005262375,-0.060363795608282,0.0117602003738284
1630573816512,0.7385827898979187,-0.1526957005262375,-0.0588243417441844,0.0312587618827819
1630573816639,0.7362657189369202,-0.1526957005262375,-0.0534481257200241,0.0489921644330024
1630573816703,0.73894202709198,-0.1526957005262375,-0.0465169176459312,0.0580628737807273
1630573816768,0.7355781197547913,-0.1526957005262375,-0.045791245996952,0.0707858577370643
1630573816904,0.7257021069526672,-0.1526957005262375,-0.0629407539963722,0.0947729498147964
1630573816970,0.7116827368736267,-0.1526957005262375,-0.1050126254558563,0.1200894713401794
1630573817102,0.6956436634063721,-0.1526957005262375,-0.1621769070625305,0.1341932117938995
1630573817198,0.6821267008781433,-0.1526957005262375,-0.2161110788583755,0.1340596377849578
1630573817337,0.6727040410041809,-0.1526957005262375,-0.2638478577136993,0.1255689412355423
1630573817399,0.6686160564422607,-0.1526957005262375,-0.3243125677108764,0.1230079382658004
1630573817488,0.6648216843605042,-0.1526957005262375,-0.4036518335342407,0.1431326866149902
1630573817605,0.6400206685066223,-0.1526957005262375,-0.4921420514583587,0.2095142751932144
1630573817737,0.5814638733863831,-0.1526957005262375,-0.5600700378417969,0.3403844535350799
1630573817888,0.5008915662765503,-0.1526957005262375,-0.5908628106117249,0.4804567098617553
1630573817940,0.4193150699138641,-0.1526957005262375,-0.5917043685913086,0.5845857262611389
1630573818056,0.3455031812191009,-0.1526957005262375,-0.578342854976654,0.6446610689163208
1630573818086,0.2764851450920105,-0.1526957005262375,-0.5559406876564026,0.6738798022270203
1630573818180,0.2220534533262252,-0.1526957005262375,-0.5328632593154907,0.6870593428611755
1630573818371,0.1809511631727218,-0.1526957005262375,-0.5119202733039856,0.6947935223579407
1630573818436,0.1497722566127777,-0.1526957005262375,-0.4906944632530212,0.6952279806137085
1630573818528,0.1150944009423255,-0.1526957005262375,-0.4724738597869873,0.6887823939323425
1630573818646,0.0785292834043502,-0.1526957005262375,-0.4584861695766449,0.6813317537307739
1630573818720,0.0543428063392639,-0.1526957005262375,-0.4477561414241791,0.6780886054039001
1630573818798,0.0421371161937713,-0.1526957005262375,-0.4371989369392395,0.679938793182373
1630573818957,0.0208769999444484,-0.1526957005262375,-0.4203084707260132,0.681473433971405
1630573819056,-0.0151412412524223,-0.1526957005262375,-0.3964698016643524,0.6758961081504822
1630573819135,-0.0146600930020213,-0.1526957005262375,-0.362989991903305,0.6514279246330261
1630573819271,0.1079315468668937,-0.1526957005262375,-0.3220197260379791,0.5891273021697998
1630573819316,0.3026758432388305,-0.1526957005262375,-0.2807890474796295,0.4830858707427978
1630573819435,0.480473130941391,-0.1526957005262375,-0.2499998062849044,0.3478648960590362
1630573819555,0.5986573696136475,-0.1526957005262375,-0.2380516827106475,0.2201346009969711
1630573819649,0.6711611151695251,-0.1526957005262375,-0.248207688331604,0.1272965669631958
1630573819755,0.7205134034156799,-0.1526957005262375,-0.2713945806026459,0.0685373470187187
1630573819872,0.758132815361023,-0.1526957005262375,-0.2971811294555664,0.0199219547212123
1630573819939,0.7839856743812561,-0.1526957005262375,-0.3215883076190948,-0.0079937586560845
1630573820051,0.799896776676178,-0.1526957005262375,-0.3423240780830383,-0.0119322063401341
1630573820285,0.8068134188652039,-0.1526957005262375,-0.3651519417762756,-0.0052893622778356
1630573820370,0.8041801452636719,-0.1526957005262375,-0.3715777993202209,-0.0040974840521812
1630573820454,0.8024487495422363,-0.1526957005262375,-0.3847219049930572,0.0115504115819931
1630573820532,0.7993484139442444,-0.1526957005262375,-0.4076345264911651,0.0457886159420013
1630573820634,0.7868882417678833,-0.1526957005262375,-0.44448122382164,0.086266428232193
1630573820787,0.7530340552330017,-0.1526957005262375,-0.4966809153556824,0.1129359006881713
1630573820904,0.689877450466156,-0.1526957005262375,-0.5611314177513123,0.1147635355591774
1630573820985,0.5964441299438477,-0.1526957005262375,-0.6188265085220337,0.0958288833498954
1630573821098,0.4963668584823608,-0.1526957005262375,-0.6459057927131653,0.076023943722248
1630573821163,0.410290390253067,-0.1526957005262375,-0.639319121837616,0.0686380267143249
1630573821272,0.3350019156932831,-0.1526957005262375,-0.6233482360839844,0.0723236948251724
1630573821381,0.2567685842514038,-0.1526957005262375,-0.616584837436676,0.0778469666838646
1630573821497,0.1941537261009216,-0.1526957005262375,-0.6169825196266174,0.0837001428008079
1630573821581,0.1649976372718811,-0.1526957005262375,-0.6083772778511047,0.0952855870127677
1630573821703,0.189508244395256,-0.1526957005262375,-0.577987790107727,0.1137887984514236
1630573821763,0.258398950099945,-0.1526957005262375,-0.5221753716468811,0.1331282258033752
1630573821837,0.3370528221130371,-0.1526957005262375,-0.4520532190799713,0.1414651125669479
1630573822005,0.3987699747085571,-0.1526957005262375,-0.3869826793670654,0.1285477876663208
1630573822082,0.4370054006576538,-0.1526957005262375,-0.3412206172943115,0.091663084924221
1630573822169,0.456416368484497,-0.1526957005262375,-0.3165084421634674,0.0396447665989398
1630573822270,0.4633293151855469,-0.1526957005262375,-0.3060561418533325,-0.0132596688345074
1630573822387,0.4649535715579986,-0.1526957005262375,-0.2963283658027649,-0.0546193309128284
1630573822477,0.4611934721469879,-0.1526957005262375,-0.2991633415222168,-0.0831947028636932
1630573822605,0.4517674744129181,-0.1526957005262375,-0.3042787313461303,-0.1015181988477706
1630573822767,0.4382950663566589,-0.1526957005262375,-0.3030318915843963,-0.1114894077181816
1630573822812,0.4197569489479065,-0.1526957005262375,-0.2851584255695343,-0.1001690253615379
1630573822924,0.4040416777133941,-0.1526957005262375,-0.2543551027774811,-0.0577650256454944
1630573822972,0.3883400559425354,-0.1526957005262375,-0.2154288738965988,0.0080166645348072
1630573823100,0.3687855899333954,-0.1526957005262375,-0.1816731840372085,0.0698757693171501
1630573823210,0.3386787474155426,-0.1526957005262375,-0.1483149975538253,0.1288002729415893
1630573823288,0.2866343557834625,-0.1526957005262375,-0.1047291383147239,0.1249587908387184
1630573823401,0.2152110785245895,-0.1526957005262375,-0.0522532202303409,0.1221766844391822
1630573823504,0.1370437294244766,-0.1526957005262375,-0.0016751870280131,0.1275659650564193
1630573823585,0.0799471512436866,-0.1526957005262375,0.0452538505196571,0.1447783261537552
1630573823689,0.0564396269619464,-0.1526957005262375,0.105703979730606,0.1729837507009506
1630573823840,0.0943173319101333,-0.1526957005262375,0.2102166265249252,0.2092610299587249
1630573823900,0.181071475148201,-0.1526957005262375,0.3399648368358612,0.2523897290229797
1630573824002,0.2687626183032989,-0.1526957005262375,0.4557411074638366,0.3021723330020904
1630573824104,0.3302681148052215,-0.1526957005262375,0.5353728532791138,0.3557590246200561
1630573824202,0.3646201193332672,-0.1526957005262375,0.5824065208435059,0.4154952466487884
1630573824289,0.3850513696670532,-0.1526957005262375,0.6057127118110657,0.4760231971740722
1630573824427,0.3990551233291626,-0.1526957005262375,0.6256840825080872,0.4760231971740722
1630573824571,0.4123505651950836,-0.1526957005262375,0.6662158966064453,0.4760231971740722
1630573824612,0.431818813085556,-0.1526957005262375,0.690070629119873,0.4760231971740722
1630573824715,0.4767012894153595,-0.1526957005262375,0.7141225337982178,0.4760231971740722
1630573824808,0.5551292896270752,-0.1526957005262375,0.7362884879112244,0.4760231971740722
1630573824908,0.6493585705757141,-0.1526957005262375,0.7567800879478455,0.4760231971740722
1630573825053,0.6699456572532654,-0.1526957005262375,0.7792294025421143,0.4760231971740722
1630573825139,0.6924703121185303,-0.1526957005262375,0.8065712451934814,0.4760231971740722
1630573825218,0.7169508934020996,-0.1526957005262375,0.8348897695541382,0.4760231971740722
1630573825300,0.7328301072120667,-0.1526957005262375,0.8470598459243774,0.4760231971740722
1630573825404,0.7316744923591614,-0.1526957005262375,0.8283641338348389,0.4760231971740722
1630573825498,0.7206296324729919,-0.1526957005262375,0.7795578837394714,0.4760231971740722
1630573825670,0.7162021994590759,-0.1526957005262375,0.7214434146881104,0.4760231971740722
1630573825752,0.7319148778915405,-0.1526957005262375,0.7214434146881104,0.4760231971740722
1630573825874,0.7709063291549683,-0.1526957005262375,0.7214434146881104,0.4760231971740722
1630573825931,0.8299316763877869,-0.1526957005262375,0.7214434146881104,0.4760231971740722
1630573826093,0.9065874814987184,-0.1526957005262375,0.7214434146881104,0.4760231971740722
1630573826157,0.9065874814987184,-0.1526957005262375,0.7214434146881104,0.4760231971740722
1630573826288,0.9065874814987184,-0.1526957005262375,0.7214434146881104,0.4760231971740722
1630573826337,0.9065874814987184,-0.1526957005262375,0.7214434146881104,0.4760231971740722
1630573826445,0.9065874814987184,-0.1526957005262375,0.7214434146881104,0.4760231971740722
1630573826576,0.9065874814987184,-0.1526957005262375,-0.2672022879123688,0.3581648766994476
1630573826643,0.9065874814987184,-0.1526957005262375,-0.3102622032165527,0.322441041469574
1630573826756,0.9065874814987184,-0.1526957005262375,-0.3539509177207947,0.2997224032878876
1630573826866,0.9065874814987184,-0.1526957005262375,-0.3962508141994476,0.276520699262619
1630573826988,0.2657583951950073,-0.1526957005262375,-0.434210866689682,0.2561913132667541
1630573827055,0.2180499881505966,-0.1526957005262375,-0.4631201326847076,0.2352968901395797
1630573827133,0.2165718227624893,-0.1526957005262375,-0.4797113835811615,0.2225917726755142
1630573827223,0.2499352693557739,-0.1526957005262375,-0.487901359796524,0.2360358238220214
1630573827336,0.3037868738174438,-0.1526957005262375,-0.4870984852313995,0.267952561378479
1630573827504,0.3565659523010254,-0.1526957005262375,-0.475949615240097,0.3094969093799591
1630573827584,0.4007519483566284,-0.1526957005262375,-0.449491798877716,0.3565353155136108
1630573827674,0.4305061399936676,-0.1526957005262375,-0.4190912246704101,0.4007341861724853
1630573827772,0.4438047707080841,-0.1526957005262375,-0.4151067733764648,0.4174862205982208
1630573827870,0.3920508921146393,-0.1526957005262375,-0.4147936403751373,0.4341210126876831
1630573827975,0.3833565711975097,-0.1526957005262375,-0.4225937128067016,0.4441275298595428
1630573828104,0.3759717345237732,-0.1526957005262375,-0.4284356534481048,0.4417293965816498
1630573828182,0.3658983111381531,-0.1526957005262375,-0.4296683073043823,0.4309904277324676
1630573828266,0.3768293559551239,-0.1526957005262375,-0.4210646450519562,0.421223908662796
1630573828387,0.3911711871623993,-0.1526957005262375,-0.4024751484394073,0.4214505851268768
1630573828469,0.4108278155326843,-0.1526957005262375,-0.3759969174861908,0.431395947933197
1630573828605,0.4324715137481689,-0.1526957005262375,-0.3464843332767486,0.4471157193183899
1630573828706,0.4475946128368377,-0.1526957005262375,-0.320866197347641,0.4568637609481811
1630573828822,0.4492896497249603,-0.1526957005262375,-0.3040890693664551,0.4477377533912658
1630573828887,0.4334538280963897,-0.1526957005262375,-0.2992599308490753,0.4189453423023224
1630573829002,0.4034353792667389,-0.1526957005262375,-0.3063551485538482,0.3722133338451385
1630573829082,0.3646876513957977,-0.1526957005262375,-0.3277491629123688,0.3039703071117401
1630573829176,0.3256825804710388,-0.1526957005262375,-0.3544554114341736,0.2103257924318313
1630573829287,0.3043945729732513,-0.1526957005262375,-0.3744753301143646,0.1017299890518188
1630573829404,0.3161998689174652,-0.1526957005262375,-0.3756147027015686,0.0301564000546932
1630573829490,0.3586303293704986,-0.1526957005262375,-0.3439789712429046,-0.012017223984003
1630573829588,0.4196818172931671,-0.1526957005262375,-0.2349912524223327,-0.0148748941719532
1630573829688,0.4903132021427154,-0.1526957005262375,-0.0341531932353973,0.0089286547154188
1630573829778,0.5541466474533081,-0.1526957005262375,0.1689144372940063,0.0281548555940389
1630573829913,0.5979020595550537,-0.1526957005262375,0.1908789724111557,0.0180176887661218
1630573830013,0.6116335988044739,-0.1526957005262375,0.2128306627273559,-0.0418212562799453
1630573830105,0.6215711832046509,-0.1526957005262375,0.2351693361997604,-0.1701086908578872
1630573830177,0.6312082409858704,-0.1526957005262375,0.2595784068107605,-0.370819479227066
1630573830285,0.6452513933181763,-0.1526957005262375,0.2889601588249206,-0.6194864511489868
1630573830429,0.6670451760292053,-0.1526957005262375,0.3253368735313415,-0.8233458995819092
1630573830512,0.6972359418869019,-0.1526957005262375,0.3692693710327148,-0.8233458995819092
1630573830614,0.7339522838592529,-0.1526957005262375,0.4209043979644775,-0.8233458995819092
1630573830702,0.7767013907432556,-0.1526957005262375,0.4802295565605163,-0.8233458995819092
1630573830788,0.8204066157341003,-0.1526957005262375,0.5493652820587158,-0.8233458995819092
1630573830906,0.8615826964378357,-0.1526957005262375,0.6325262784957886,-0.8233458995819092
1630573830992,0.8939669728279114,-0.1526957005262375,0.6325262784957886,-0.8233458995819092
1630573831116,0.8939669728279114,-0.1526957005262375,0.6325262784957886,-0.8233458995819092
1630573831233,0.8939669728279114,-0.1526957005262375,0.6325262784957886,-0.8233458995819092
1630573831321,0.8939669728279114,-0.1526957005262375,0.6325262784957886,-0.8233458995819092
1630573831442,0.8939669728279114,-0.1526957005262375,0.6325262784957886,-0.8233458995819092
1630573831522,0.8939669728279114,-0.1526957005262375,0.6325262784957886,-0.8233458995819092
1630573831627,0.8939669728279114,-0.1526957005262375,0.6325262784957886,-0.8233458995819092
1630573831738,0.8939669728279114,-0.1526957005262375,0.6325262784957886,-0.8233458995819092
1630573831831,0.8939669728279114,-0.1526957005262375,0.6325262784957886,-0.8233458995819092
1630573831917,0.8939669728279114,-0.1526957005262375,0.6325262784957886,-0.8233458995819092
