timestamp,TP9,AF7,AF8,TP10
1629897192392,0.1456679254770279,0.282123327255249,-0.2366616874933242,-0.0049692681059241
1629897192482,0.1849977523088455,0.3152128159999847,-0.2236269861459732,0.0380752608180046
1629897192607,0.2127560675144195,0.3458594977855682,-0.217861145734787,0.072839617729187
1629897192702,0.2203779816627502,0.3640462458133697,-0.2202081233263015,0.0911508128046989
1629897192780,0.2168343812227249,0.3640462458133697,-0.2293724566698074,0.0932081788778305
1629897192889,0.2056645452976226,0.3640462458133697,-0.2462505996227264,0.083589382469654
1629897192966,0.1911595165729522,0.3640462458133697,-0.2720770537853241,0.0708545669913292
1629897193140,0.180273950099945,0.3547946512699127,-0.3035371303558349,0.0618463642895221
1629897193217,0.1730630099773407,0.3469718694686889,-0.3309714198112488,0.0572935380041599
1629897193279,0.1785473972558975,0.3439327478408813,-0.3446137607097626,0.061717614531517
1629897193469,0.204120472073555,0.3500108420848846,-0.3436590135097503,0.0917182266712188
1629897193530,0.2420099824666977,0.3546964228153229,-0.335743635892868,0.1272521167993545
1629897193576,0.2811352014541626,0.3650560677051544,-0.3268091380596161,0.1549310386180877
1629897193703,0.293490469455719,0.3800505399703979,-0.314264565706253,0.1631973534822464
1629897193796,0.3021570444107055,0.3936260640621185,-0.3222272396087646,0.1679780036211013
1629897193920,0.303536057472229,0.3969084024429321,-0.3390432894229889,0.1679864972829818
1629897194000,0.2973115742206573,0.382693201303482,-0.3612002730369568,0.1615730673074722
1629897194110,0.2894310057163238,0.3505367040634155,-0.3792654275894165,0.150391086935997
1629897194204,0.2907938957214355,0.3083765804767608,-0.3864534497261047,0.1425681710243225
1629897194330,0.3025110363960266,0.3083765804767608,-0.3824914097785949,0.1463231891393661
1629897194444,0.3271338045597076,0.3083765804767608,-0.3703603148460388,0.1662302613258361
1629897194501,0.3646919429302215,0.3083765804767608,-0.3493549525737762,0.1983087211847305
1629897194627,0.4096384644508362,0.3083765804767608,-0.3183917105197906,0.2360003888607025
1629897194692,0.4652309715747833,0.3083765804767608,-0.2807410657405853,0.2801598608493805
1629897194764,0.4652309715747833,0.3083765804767608,-0.2438964247703552,0.2801598608493805
1629897194907,0.4652309715747833,0.3083765804767608,-0.2438964247703552,0.2801598608493805
1629897195045,0.4652309715747833,0.3083765804767608,-0.2438964247703552,0.2801598608493805
1629897195138,0.4652309715747833,0.3083765804767608,-0.2438964247703552,0.2801598608493805
1629897195230,0.4652309715747833,0.3083765804767608,-0.2438964247703552,0.2801598608493805
1629897195308,0.4652309715747833,0.3083765804767608,-0.2438964247703552,0.2801598608493805
1629897195419,0.4652309715747833,0.3083765804767608,-0.2438964247703552,0.2801598608493805
1629897195559,0.4652309715747833,0.3083765804767608,-0.2438964247703552,0.2801598608493805
1629897195668,0.4652309715747833,0.3083765804767608,-0.2871995568275451,0.2801598608493805
1629897195793,0.4652309715747833,0.3083765804767608,-0.2338518798351287,0.2801598608493805
1629897195842,0.4652309715747833,0.3083765804767608,-0.2055354416370391,0.2801598608493805
1629897195905,0.4652309715747833,0.3083765804767608,-0.1995379775762558,0.2801598608493805
1629897196061,0.4652309715747833,0.3083765804767608,-0.2092966735363006,0.2801598608493805
1629897196137,0.4652309715747833,0.3083765804767608,-0.2266960144042968,0.2801598608493805
1629897196247,0.4652309715747833,0.3083765804767608,-0.2421866357326507,0.2801598608493805
1629897196312,0.4652309715747833,0.3083765804767608,-0.2502959072589874,0.2801598608493805
1629897196405,0.4652309715747833,0.3083765804767608,-0.2447571158409118,0.2801598608493805
1629897196557,0.4652309715747833,0.4018746614456177,-0.22524294257164,0.2801598608493805
1629897196636,0.4652309715747833,0.4027355313301086,-0.1981584131717682,0.2801598608493805
1629897196823,0.4652309715747833,0.4013791680335998,-0.1730911284685135,0.2801598608493805
1629897196870,0.4652309715747833,0.3976956009864807,-0.1448448598384857,0.2801598608493805
1629897196934,0.3837310373783111,0.3914538323879242,-0.132774531841278,0.2801598608493805
1629897197043,0.3577275276184082,0.3838301002979278,-0.1366260796785354,-0.0019768327474594
1629897197123,0.3380182385444641,0.376030296087265,-0.1511946469545364,0.0006004413589835
1629897197234,0.3170346915721893,0.3674363791942596,-0.170425072312355,-0.0020046492572873
1629897197357,0.2943976819515228,0.3579399585723877,-0.1876163482666015,-0.0134780732914805
1629897197439,0.2760205268859863,0.3490333557128906,-0.2007083296775818,-0.0296731013804674
1629897197545,0.2596311271190643,0.3436655700206756,-0.2091698497533798,-0.0428984127938747
1629897197624,0.2465059608221054,0.3435575067996979,-0.2108929902315139,-0.0453155077993869
1629897197751,0.2358458787202835,0.346617728471756,-0.2062019556760788,-0.0414856560528278
1629897197845,0.2256320714950561,0.3508544564247131,-0.1997088640928268,-0.0361044853925704
1629897197955,0.217868834733963,0.3550727069377899,-0.2019234448671341,-0.0290247667580842
1629897198098,0.2143100649118423,0.3590812981128692,-0.2207364588975906,-0.0179813411086797
1629897198192,0.192738801240921,0.3622608780860901,-0.2576640546321869,-0.0041141752153635
1629897198269,0.1800558269023895,0.364336758852005,-0.3052871823310852,0.0078815603628754
1629897198362,0.1693100333213806,0.3660829961299896,-0.3470563888549804,0.0130172586068511
1629897198472,0.1560986638069152,0.3684187829494476,-0.3685806691646576,0.0126239070668816
1629897198597,0.1485053747892379,0.3725477159023285,-0.3658046722412109,0.011591856367886
1629897198708,0.145188421010971,0.3797515332698822,-0.3487453758716583,0.0113240983337163
1629897198787,0.1514341980218887,0.3901587128639221,-0.3287908434867859,0.0106004979461431
1629897198881,0.1683293431997299,0.4008740186691284,-0.3102720379829407,0.0118855591863393
1629897198990,0.1842029392719268,0.4082719087600708,-0.2948300838470459,0.0126877538859844
1629897199037,0.1954143345355987,0.4107321798801422,-0.2815386056900024,0.0107558155432343
1629897199193,0.2056044638156891,0.4085131883621216,-0.2735824882984161,0.0029935578349977
1629897199303,0.2100293785333633,0.4023294746875763,-0.2767362892627716,-0.0093397600576281
1629897199381,0.2171703577041626,0.3935993611812591,-0.2902965843677521,-0.0204545781016349
1629897199473,0.2255913615226745,0.3834331035614013,-0.3074177503585815,-0.0311384927481412
1629897199582,0.2302290350198745,0.3729592263698578,-0.3190941512584686,-0.0469560660421848
1629897199677,0.233503833413124,0.3671441674232483,-0.31868776679039,-0.0692242607474327
1629897199789,0.229541003704071,0.3625713586807251,-0.3091932535171509,-0.0914570912718772
1629897199928,0.2268542498350143,0.3593198955059051,-0.2967852354049682,-0.1074336692690849
1629897200022,0.2255957424640655,0.3573474884033203,-0.2874460518360138,-0.1156055033206939
1629897200116,0.2246660143136978,0.3516198098659515,-0.2867433130741119,-0.122269183397293
1629897200258,0.2236621677875518,0.3427640795707702,-0.2959418594837188,-0.1299271285533905
1629897200303,0.2169392555952072,0.33009934425354,-0.3112845718860626,-0.1333295553922653
1629897200474,0.2034301310777664,0.317839503288269,-0.3263919353485107,-0.1328715234994888
1629897200519,0.1882774829864502,0.3111816942691803,-0.3366587162017822,-0.1293305605649948
1629897200597,0.1757403910160064,0.3120983839035034,-0.34366574883461,-0.1262945830821991
1629897200694,0.1678360849618911,0.3225424587726593,-0.3468779623508453,-0.120659053325653
1629897200775,0.1689400672912597,0.3429403603076935,-0.3429662883281708,-0.1087765619158744
1629897200866,0.1711531281471252,0.3691076040267944,-0.3308881521224975,-0.093189537525177
1629897201052,0.1702580899000167,0.3923342525959015,-0.3168102502822876,-0.0782005563378334
1629897201116,0.1639613658189773,0.4053402543067932,-0.3105643987655639,-0.0688008293509483
1629897201274,0.1516885906457901,0.399349957704544,-0.3122018575668335,-0.0634473115205764
1629897201305,0.1424152702093124,0.3863320350646972,-0.3158082067966461,-0.0590275228023529
1629897201415,0.1349570900201797,0.3717412948608398,-0.3173750936985016,-0.0547689534723758
1629897201480,0.1318006515502929,0.359645664691925,-0.3181062042713165,-0.0514215193688869
1629897201669,0.1292678266763687,0.354145348072052,-0.322299599647522,-0.0495185293257236
1629897201731,0.1243638843297958,0.3514228761196136,-0.3322925269603729,-0.0495133437216281
1629897201825,0.1166325956583023,0.3491345345973968,-0.3483258783817291,-0.0510340481996536
1629897201905,0.1111844331026077,0.3456622362136841,-0.3698300421237945,-0.0529803037643432
1629897201999,0.1122971996665,0.3413546681404114,-0.391844630241394,-0.0522298440337181
1629897202095,0.1212871894240379,0.3365926146507263,-0.4086731076240539,-0.0480042845010757
1629897202219,0.1381933987140655,0.3287223577499389,-0.4186469316482544,-0.0409157574176788
1629897202314,0.1588132381439209,0.3151873350143432,-0.4242900609970093,-0.0331666208803653
1629897202408,0.179858848452568,0.2972420156002044,-0.4305309057235718,-0.0278883539140224
1629897202488,0.1977699100971222,0.2832295894622803,-0.433048665523529,-0.0255415420979261
1629897202597,0.2120566219091415,0.2833853363990783,-0.4223910570144653,-0.0225892346352338
1629897202690,0.2248696684837341,0.2990570068359375,-0.399864137172699,-0.017632158473134
1629897202835,0.2397843450307846,0.3234093785285949,-0.3756519556045532,-0.0132760675624012
1629897202959,0.2559453248977661,0.3473509848117828,-0.3614233136177063,-0.0094948895275592
1629897203006,0.273155003786087,0.3649381995201111,-0.3572050929069519,-0.0062856264412403
1629897203101,0.2875386774539947,0.3745610117912292,-0.3556410670280456,-0.0029574364889413
1629897203209,0.2974887490272522,0.3777855634689331,-0.3480607569217682,0.0028485613875091
1629897203303,0.3072203695774078,0.3782317638397217,-0.3314171433448791,0.0112967612221837
1629897203431,0.3131571412086487,0.3791902661323547,-0.3089652955532074,0.0231078043580055
1629897203526,0.3166680634021759,0.3818713128566742,-0.2879144251346588,0.0379170253872871
1629897203635,0.3144765496253967,0.3849210739135742,-0.2739015221595764,0.0517547689378261
1629897203762,0.3001547753810882,0.3868511915206909,-0.2710802853107452,0.0595228224992752
1629897203806,0.2796775102615356,0.3864472806453705,-0.2754724323749542,0.0594734624028205
1629897203902,0.2530567348003387,0.3830756545066833,-0.2750873863697052,0.0507388897240161
1629897204058,0.2297997325658798,0.376469612121582,-0.2639391422271728,0.0381980612874031
1629897204153,0.2151330411434173,0.3669901490211487,-0.2460054755210876,0.0246002376079559
1629897204230,0.2055379599332809,0.3568022847175598,-0.2317514568567276,0.0106363967061042
1629897204324,0.2013592720031738,0.3477422595024109,-0.2248017936944961,-0.001453528762795
1629897204419,0.1961344927549362,0.3398551940917969,-0.2203056365251541,-0.0096436953172087
1629897204536,0.1961761265993118,0.3323124945163727,-0.2134081125259399,-0.0110814208164811
1629897204638,0.2075309604406356,0.3257137537002563,-0.2045027762651443,-0.0060655125416815
1629897204748,0.2227036654949188,0.3231253623962402,-0.1978547573089599,0.0001677887485129
1629897204861,0.24335278570652,0.3274450004100799,-0.1956256479024887,0.0017264970811083
1629897204922,0.2621369659900665,0.3367249667644501,-0.1994262784719467,-0.0043163844384253
1629897205015,0.2815435528755188,0.3461434841156006,-0.2060773819684982,-0.0177330281585454
1629897205126,0.3041344583034515,0.3540424704551697,-0.2107172012329101,-0.0331277064979076
1629897205273,0.3274999558925628,0.3622889220714569,-0.2083377093076706,-0.0461840443313121
1629897205347,0.3490706086158752,0.3716179132461548,-0.200948491692543,-0.0540189109742641
1629897205472,0.3644519746303558,0.3787055015563965,-0.1990453749895095,-0.0530092716217041
1629897205580,0.3742492794990539,0.3792339265346527,-0.2108533829450607,-0.0468942150473594
1629897205642,0.3741608262062073,0.3724240958690643,-0.2383816987276077,-0.0380208306014537
1629897205753,0.3668636977672577,0.3616094291210174,-0.2765322029590606,-0.030528524890542
1629897205864,0.3580456376075744,0.35044065117836,-0.3156527280807495,-0.0265632830560207
1629897205958,0.3488994836807251,0.3424394428730011,-0.3463056981563568,-0.0292039774358272
1629897206054,0.3463773727416992,0.3418306112289428,-0.3611547350883484,-0.0376826636493206
1629897206178,0.3466235399246216,0.3485131859779358,-0.3593628406524658,-0.048958346247673
1629897206242,0.3497636318206787,0.3570583164691925,-0.3507969677448272,-0.0648320615291595
1629897206336,0.3524568080902099,0.3621743321418762,-0.3445198535919189,-0.0775197744369506
1629897206494,0.3492907285690307,0.3641771376132965,-0.3424517512321472,-0.0827502235770225
1629897206574,0.342195063829422,0.3677714169025421,-0.3408101499080658,-0.0736378505825996
1629897206667,0.3335011303424835,0.3753696978092193,-0.334495335817337,-0.0488968901336193
1629897206761,0.3275222778320312,0.3841863870620727,-0.3248471319675445,-0.0194796081632375
1629897206839,0.3273196220397949,0.3923116326332092,-0.3139877915382385,0.0058492114767432
1629897206934,0.3339238464832306,0.4014945924282074,-0.301095575094223,0.022759199142456
1629897207092,0.3400461077690124,0.4138820767402649,-0.2860702276229858,0.0299222357571125
1629897207185,0.3520315885543823,0.4288073182106018,-0.2684684991836548,0.0354387983679771
1629897207296,0.3664692044258117,0.4426089227199554,-0.2505034506320953,0.0436422564089298
1629897207391,0.3744390904903412,0.4532580375671386,-0.2362573742866516,0.0537120662629604
1629897207470,0.3826701641082763,0.4608795642852783,-0.2274046242237091,0.0668116137385368
1629897207563,0.3767589926719665,0.4649023711681366,-0.2271331995725631,0.0748431757092475
1629897207720,0.3655652701854706,0.46718430519104,-0.2328546196222305,0.0774542838335037
1629897207815,0.3544731736183166,0.472149521112442,-0.2345803380012512,0.0818926319479942
1629897207907,0.3393447399139404,0.4806570708751678,-0.2260338813066482,0.0850542709231376
1629897207984,0.3352269828319549,0.4891151189804077,-0.2068230062723159,0.0881456658244133
1629897208079,0.3295527100563049,0.4914442896842956,-0.1856295615434646,0.0847230404615402
1629897208172,0.3246005475521087,0.4844792783260345,-0.171352133154869,0.0705545768141746
1629897208295,0.3204786777496338,0.4711939096450805,-0.1653655767440796,0.0530669353902339
1629897208390,0.3103420436382293,0.4572606980800628,-0.1676057130098343,0.0362910404801368
1629897208499,0.3038893640041351,0.4473446905612945,-0.1747175902128219,0.0217002239078283
1629897208611,0.3012544512748718,0.4429745674133301,-0.182828277349472,0.0112217748537659
1629897208693,0.3009481430053711,0.4425277411937713,-0.1897127777338028,0.0009649698040448
1629897208768,0.303755521774292,0.4450832605361938,-0.1934922337532043,-0.0120106553658843
1629897208947,0.3083018958568573,0.4506010115146637,-0.1947794407606125,-0.0251623187214136
1629897209022,0.3141862750053406,0.4566174745559692,-0.1962211281061172,-0.0407270304858684
1629897209131,0.322205126285553,0.4593208432197571,-0.1983348578214645,-0.0532302372157573
1629897209195,0.3258273303508758,0.4546329379081726,-0.200749784708023,-0.0534127987921237
1629897209289,0.3257127702236175,0.4410697221755981,-0.203927144408226,-0.0553502440452575
1629897209382,0.3282936215400696,0.4221859574317932,-0.2102595269680023,-0.0568658001720905
1629897209538,0.3288597464561462,0.4036113917827606,-0.2210645973682403,-0.0627777650952339
1629897209616,0.3350676596164703,0.3910214006900787,-0.2318923473358154,-0.0717846602201461
1629897209710,0.3410229980945587,0.3865322172641754,-0.2354885339736938,-0.0809471309185028
1629897209853,0.3436081111431122,0.3866563737392425,-0.2303870767354965,-0.0980945453047752
1629897209916,0.3476316630840301,0.3868282437324524,-0.220046728849411,-0.1224768012762069
1629897210024,0.3440106511116028,0.3840961456298828,-0.2090590149164199,-0.1491392999887466
1629897210168,0.3393289148807525,0.376820832490921,-0.1971497535705566,-0.168720468878746
1629897210230,0.3367601633071899,0.3645770251750946,-0.1818815916776657,-0.1825401186943054
1629897210310,0.3367601633071899,0.3463945090770721,-0.1656703203916549,-0.1825401186943054
1629897210434,0.3367601633071899,0.3252491056919098,-0.1509266197681427,-0.1825401186943054
1629897210514,0.3367601633071899,0.3081774711608886,-0.1372876465320587,-0.1825401186943054
1629897210637,0.3367601633071899,0.3012005686759949,-0.1234740987420082,-0.1825401186943054
1629897210764,0.3367601633071899,0.3049991726875305,-0.1101583316922187,-0.1603155434131622
1629897210858,0.4466146826744079,0.3143631517887115,-0.0994205698370933,-0.1422401815652847
1629897210937,0.4718427062034607,0.3233101069927215,-0.0909574776887893,-0.1244586631655693
1629897211039,0.4773603677749634,0.3281325995922088,-0.0833340436220169,-0.1081980392336845
1629897211118,0.4749477803707123,0.3274023830890655,-0.0771792829036712,-0.0949656069278717
1629897211227,0.4521867334842682,0.3216219246387481,-0.0758436098694801,-0.0863503143191337
1629897211384,0.4291372299194336,0.3156460225582123,-0.0805308669805526,-0.078722283244133
1629897211462,0.4119874835014343,0.3138712048530578,-0.0892983898520469,-0.0768614932894706
1629897211540,0.39553102850914,0.3188850283622741,-0.1010298430919647,-0.0828921273350715
1629897211634,0.391825258731842,0.3307318985462188,-0.1139064878225326,-0.0953138917684555
1629897211743,0.3939208090305328,0.3459207117557525,-0.1254401504993438,-0.1112086400389671
1629897211822,0.3958852589130401,0.3609729707241058,-0.1351886242628097,-0.1258710175752639
1629897211993,0.3974639773368835,0.370658129453659,-0.1438582986593246,-0.129570722579956
1629897212058,0.397748738527298,0.3727100193500519,-0.1560339927673339,-0.1297136098146438
1629897212152,0.3891525566577911,0.3691189587116241,-0.1706930696964264,-0.1208383962512016
1629897212246,0.376319408416748,0.3643456697463989,-0.1788823008537292,-0.1052638813853263
1629897212355,0.3510713577270508,0.363095611333847,-0.1704730987548828,-0.0898838564753532
1629897212433,0.3265446722507477,0.3667014837265014,-0.1455928832292556,-0.0803071856498718
1629897212574,0.3196748495101928,0.3753949999809265,-0.119150809943676,-0.0735208466649055
1629897212668,0.3264848589897156,0.3899846076965332,-0.1042150780558586,-0.0659028887748718
1629897212795,0.3504374027252197,0.4100422859191894,-0.1029440537095069,-0.0535841025412082
1629897212842,0.3683950006961822,0.4293999969959259,-0.1080216169357299,-0.0379597581923007
1629897212936,0.3713609576225281,0.4403349459171295,-0.1094633787870407,-0.0238261427730321
1629897213061,0.3706373870372772,0.4395636022090912,-0.1055658906698226,-0.0129127483814954
1629897213218,0.3580093681812286,0.4306221306324005,-0.1016666740179061,-0.0079051479697227
1629897213280,0.3448902368545532,0.422990620136261,-0.1033939868211746,-0.0053138248622417
1629897213405,0.3341264128684997,0.4246117770671844,-0.1080302372574806,-0.0009333817870356
1629897213530,0.3287108242511749,0.4380235373973846,-0.1109222471714019,0.0084295887500047
1629897213592,0.3347041308879852,0.4599731564521789,-0.1069498136639595,0.0201007667928934
1629897213671,0.3390346169471741,0.4836813807487488,-0.0991557911038398,0.0243968795984983
1629897213842,0.345182716846466,0.5032687783241272,-0.0930932015180587,0.0214813817292451
1629897213921,0.3517100512981415,0.5155481696128845,-0.0946216881275177,0.0129657853394746
1629897214020,0.3556587696075439,0.5202131867408752,-0.1060626804828643,0.0041323276236653
1629897214082,0.3492554426193237,0.5182104706764221,-0.1197815984487533,-0.0043746302835643
1629897214160,0.3303661644458771,0.5120500326156616,-0.1274491101503372,-0.0141810327768325
1629897214285,0.3051477372646332,0.505677342414856,-0.123795062303543,-0.025230336934328
1629897214410,0.2839474380016327,0.5033795833587646,-0.1141828894615173,-0.0366408228874206
1629897214504,0.2764145135879516,0.5064736604690552,-0.108947642147541,-0.0427583120763301
1629897214613,0.2780652046203613,0.5125608444213867,-0.1102388501167297,-0.0394619107246398
1629897214707,0.2816666066646576,0.5189439058303833,-0.1155936643481254,-0.0279935374855995
1629897214788,0.2841856181621551,0.5233795046806335,-0.1203154996037483,-0.0130694890394806
1629897214866,0.2873672246932983,0.5240996479988098,-0.1235124394297599,-0.0023733431007713
1629897215038,0.2812760174274444,0.5193939208984375,-0.1281447112560272,-0.0025675159413367
1629897215163,0.2720136344432831,0.5081324577331543,-0.1357830911874771,-0.0144899012520909
1629897215304,0.2624063789844513,0.4908069968223572,-0.146304115653038,-0.031518667936325
1629897215382,0.2516579926013946,0.4699594974517822,-0.1618414372205734,-0.0495780333876609
1629897215460,0.2458828240633011,0.4499622285366058,-0.1848285496234893,-0.0644944310188293
1629897215507,0.2334385812282562,0.435476154088974,-0.2165440618991851,-0.0794556960463523
1629897215632,0.2199828624725341,0.4299004077911377,-0.2523210942745209,-0.0960126146674156
1629897215792,0.2141507714986801,0.4304995834827423,-0.284453421831131,-0.1118487268686294
1629897215823,0.2204775065183639,0.4315223395824432,-0.3098374009132385,-0.1270843893289566
1629897215933,0.2411305755376815,0.4288300275802612,-0.3290755748748779,-0.1429593414068222
1629897216042,0.2473547756671905,0.4230888485908508,-0.3427931368350982,-0.1612721681594848
1629897216136,0.2509729564189911,0.4162265658378601,-0.3496914803981781,-0.1848698854446411
1629897216261,0.2574597895145416,0.4068613648414612,-0.3495367765426636,-0.2079301178455352
1629897216354,0.2583313286304474,0.3914515078067779,-0.349215567111969,-0.2314497977495193
1629897216432,0.2529989778995514,0.3842453360557556,-0.352016419172287,-0.2553994059562683
1629897216511,0.2522594034671783,0.3739768862724304,-0.3544542491436004,-0.2737149596214294
1629897216651,0.2473631501197815,0.3636232316493988,-0.354132205247879,-0.2880564332008362
1629897216745,0.2507942616939544,0.358929306268692,-0.3492869734764099,-0.2978964745998382
1629897216904,0.259915679693222,0.3636964559555053,-0.3448532521724701,-0.3029441237449646
1629897216951,0.2648996710777282,0.3754114210605621,-0.3378646671772003,-0.3041559755802154
1629897217013,0.2931327521800995,0.388002336025238,-0.3210929036140442,-0.2886705994606018
1629897217138,0.2931327521800995,0.3943533599376678,-0.2969794571399688,-0.2886705994606018
1629897217232,0.2931327521800995,0.4098081290721893,-0.272875040769577,-0.2886705994606018
1629897217310,0.2931327521800995,0.4197975993156433,-0.254639595746994,-0.2886705994606018
1629897217482,0.2931327521800995,0.4263707101345062,-0.2392504215240478,-0.2886705994606018
1629897217560,0.3206966817378998,0.4327505230903625,-0.2211394757032394,-0.2886705994606018
1629897217654,0.3062225580215454,0.4418157339096069,-0.2011931389570236,-0.0334204137325286
1629897217748,0.296346515417099,0.4573039710521698,-0.1842091977596283,-0.0242535211145877
1629897217890,0.2864943146705627,0.4811977446079254,-0.1718943864107132,-0.0139757776632905
1629897217921,0.2733896970748901,0.4737105667591095,-0.1647865176200866,-0.0104148555546998
1629897218156,0.2619830965995788,0.4684265255928039,-0.1620207875967025,-0.0158549658954143
1629897218187,0.250560998916626,0.4630987346172333,-0.1606857180595398,-0.0288592036813497
1629897218265,0.2451202422380447,0.4561710357666015,-0.1570905894041061,-0.0469108782708644
1629897218390,0.2465445697307586,0.4485831558704376,-0.1471902579069137,-0.0638552382588386
1629897218437,0.2505786716938019,0.4428876042366028,-0.1350021809339523,-0.0796913653612136
1629897218515,0.2549047768115997,0.4401059150695801,-0.1266542226076126,-0.0909747928380966
1629897218703,0.2546355426311493,0.4375432431697845,-0.1246191635727882,-0.0965900719165802
1629897218799,0.2452529072761535,0.4273695945739746,-0.124911680817604,-0.0964314714074134
1629897218877,0.2295688390731811,0.4153370559215545,-0.1248074471950531,-0.0929349884390831
1629897219002,0.2102956920862198,0.4085161089897156,-0.1272774040699005,-0.0883483663201332
1629897219064,0.1919603943824768,0.4117056727409363,-0.1363808512687683,-0.0833500325679779
1629897219142,0.1777672171592712,0.4225444793701172,-0.1517075896263122,-0.0797838643193245
1629897219298,0.1644820123910904,0.4334900081157684,-0.1679542511701584,-0.0780366510152816
1629897219424,0.1591581553220749,0.4396618902683258,-0.1809983551502227,-0.0746532753109932
1629897219502,0.160499095916748,0.4420080780982971,-0.1889975368976593,-0.0655011087656021
1629897219564,0.1667260229587555,0.4424427151679992,-0.1910416930913925,-0.0477368868887424
1629897219642,0.1761999726295471,0.4420458078384399,-0.1891204565763473,-0.0275289732962846
1629897219752,0.181115448474884,0.4405741989612579,-0.1855626404285431,-0.0093748616054654
1629897219914,0.1818163990974426,0.4371947944164276,-0.184122234582901,0.0037384747993201
1629897220023,0.1779527813196182,0.4321497976779938,-0.1894766390323639,0.0118192695081233
1629897220117,0.1685064733028412,0.4278120994567871,-0.2023587375879287,0.0143877696245908
1629897220195,0.1590739637613296,0.4275926947593689,-0.2221947312355041,0.0102651929482817
1629897220289,0.1481539905071258,0.4344375431537628,-0.2452936917543411,-0.000280843116343
1629897220367,0.1396386325359344,0.4452025294303894,-0.2661330103874206,-0.0144300945103168
1629897220492,0.1394359618425369,0.4525666534900665,-0.2805477380752563,-0.026447994634509
1629897220632,0.1441254913806915,0.4522088170051574,-0.2863142490386963,-0.0351219289004802
1629897220710,0.1528138816356659,0.4455147087574005,-0.2840308248996734,-0.0386399924755096
1629897220806,0.1609887927770614,0.4381788969039917,-0.2733320295810699,-0.0253545492887496
1629897220931,0.1621799021959304,0.4369311332702636,-0.2452413290739059,0.0463429577648639
1629897220994,0.1597694605588913,0.4452686905860901,-0.1989903450012207,0.1798397898674011
1629897221153,0.1504214107990265,0.4597571492195129,-0.147890418767929,0.3226291239261627
1629897221232,0.1356603354215622,0.4742716550827026,-0.1087208837270736,0.4289413094520569
1629897221341,0.1183899119496345,0.4846879839897156,-0.0865338668227195,0.4878810942173004
1629897221451,0.0915430560708046,0.4921792447566986,-0.0707327350974083,0.5130090713500977
1629897221551,0.0585680082440376,0.4989457130432129,-0.0503283701837062,0.5207610130310059
1629897221645,0.0271227266639471,0.504481852054596,-0.0244426950812339,0.5246791839599609
1629897221769,0.001680122106336,0.5074524879455566,-0.0006114225834608,0.5281969904899597
1629897221865,0.001680122106336,0.5059158205986023,0.016387777402997,0.5333902835845947
1629897221928,0.001680122106336,0.4989038705825805,0.0264414623379707,0.5394201874732971
1629897222038,0.001680122106336,0.4872273504734039,0.0318178832530975,0.5447065234184265
1629897222117,0.001680122106336,0.4738833308219909,0.0353021472692489,0.5480464696884155
1629897222212,0.3287131190299988,0.4643307626247406,0.0397607684135437,0.5492423176765442
1629897222379,0.3244059979915619,0.4607972204685211,0.0442730970680713,0.5453237295150757
1629897222457,0.3151998221874237,0.4586176574230194,0.0430899076163768,0.5218079686164856
1629897222567,0.3043193519115448,0.4496265351772308,0.0331887751817703,0.4623600840568542
1629897222629,0.3007919192314148,0.4334680140018463,0.0163323823362588,0.3577955365180969
1629897222785,0.295250654220581,0.4202077388763428,-0.0010112186428159,0.22291000187397
1629897222821,0.2919944226741791,0.4221057891845703,-0.0153196211904287,0.1024689823389053
1629897222977,0.2916181981563568,0.4398232400417328,-0.0302646737545728,0.0330008864402771
1629897223071,0.2894697487354278,0.4629520773887634,-0.0481334887444973,0.0117188161239027
1629897223164,0.2866302728652954,0.4814234972000122,-0.0677083432674408,0.0059684119187295
1629897223258,0.281855970621109,0.4917145371437073,-0.0838009789586067,0.0040609985589981
1629897223336,0.2771980166435241,0.4958459734916687,-0.0948858931660652,-0.0054943999275565
1629897223446,0.2752476632595062,0.4983028173446655,-0.0997240841388702,-0.021387381479144
1629897223586,0.2686904072761535,0.5085667371749878,-0.1008886322379112,-0.0436495654284954
1629897223680,0.2595200538635254,0.5207796096801758,-0.1021843329071998,-0.0671548768877983
1629897223742,0.2467575669288635,0.522892415523529,-0.1083817407488823,-0.0886438116431236
1629897223871,0.2318348735570907,0.5256155729293823,-0.1195265054702758,-0.1087884753942489
1629897223965,0.223657876253128,0.533221960067749,-0.1295211464166641,-0.125964418053627
1629897224090,0.2222994863986969,0.5481772422790527,-0.1361920237541198,-0.14170902967453
1629897224183,0.2295328676700592,0.5674179196357727,-0.1401562094688415,-0.1561309546232223
1629897224293,0.228170171380043,0.5840851068496704,-0.1397311985492706,-0.1681778728961944
1629897224412,0.2254942953586578,0.5929771065711975,-0.1337255984544754,-0.1812286525964737
1629897224478,0.2198713421821594,0.5931165814399719,-0.1248548850417137,-0.1952617466449737
1629897224582,0.2155153900384903,0.5871757864952087,-0.1194759532809257,-0.210689440369606
1629897224662,0.2117994129657745,0.5786450505256653,-0.1226599514484405,-0.2308242172002792
1629897224803,0.211500346660614,0.5774958729743958,-0.1286300420761108,-0.253805011510849
1629897224898,0.2121676802635193,0.5840226411819458,-0.1260025799274444,-0.2695193886756897
1629897224977,0.2032649517059326,0.5970840454101562,-0.1133757755160331,-0.2851550877094269
1629897225105,0.1940845251083374,0.5970840454101562,-0.094007097184658,-0.2908810675144195
1629897225152,0.1884034723043441,0.5970840454101562,-0.0733759626746177,-0.2878996431827545
1629897225271,0.2065001279115677,0.614091694355011,-0.0558661706745624,-0.2857498228549957
1629897225442,0.2065001279115677,0.628873348236084,-0.0429231338202953,-0.2857498228549957
1629897225552,0.2065001279115677,0.6055573225021362,-0.0373186394572258,-0.2857498228549957
1629897225631,0.2065001279115677,0.5732415318489075,-0.0382374227046966,-0.2857498228549957
1629897225710,0.2065001279115677,0.5370690822601318,-0.0378177538514137,-0.2857498228549957
1629897225770,0.2065001279115677,0.5010584592819214,-0.0326095409691333,-0.2857498228549957
1629897225938,-0.0750780254602432,0.464380145072937,-0.026273114606738,-0.2388496100902557
1629897226032,-0.0705364644527435,0.4227139949798584,-0.0259851478040218,-0.2717764675617218
1629897226122,-0.0662793517112732,0.3763009905815124,-0.0323679558932781,-0.2866214513778686
1629897226208,-0.0615513548254966,0.3396536707878113,-0.0362334884703159,-0.2731622755527496
1629897226302,-0.0495361946523189,0.3509529531002044,-0.0332969091832637,-0.2282511293888092
1629897226403,-0.0319755226373672,0.3769840896129608,-0.0281957015395164,-0.1607929915189743
1629897226496,-0.0159097034484148,0.4090730845928192,-0.0289862249046564,-0.0933341830968856
1629897226685,0.0069422614760696,0.4374739825725555,-0.0373287610709667,-0.0323413871228694
1629897226717,0.0391689613461494,0.4582409262657165,-0.0476006716489791,0.0178741421550512
1629897226810,0.0691352933645248,0.4727074801921844,-0.0547078251838684,0.0510841198265552
1629897226908,0.0926401317119598,0.4837145209312439,-0.0566437058150768,0.0669354051351547
1629897226987,0.0993740111589431,0.5038084983825684,-0.0564487725496292,0.0674489438533783
1629897227097,0.1075293868780136,0.520639181137085,-0.057930838316679,0.0708598047494888
1629897227221,0.1145531609654426,0.5320121645927429,-0.0669623240828514,0.075193665921688
1629897227349,0.1164218410849571,0.5376101732254028,-0.0844862014055252,0.084001637995243
1629897227428,0.1200864166021347,0.5387202501296997,-0.1030334383249282,0.0980599671602249
1629897227505,0.1221088618040084,0.537553071975708,-0.1105479747056961,0.1129857376217842
1629897227599,0.121808037161827,0.537803053855896,-0.1004952639341354,0.1241548508405685
1629897227734,0.1240410357713699,0.5427730679512024,-0.0780316069722175,0.1299519687891006
1629897227836,0.1275519281625747,0.5523054599761963,-0.0526171438395977,0.1284530609846115
1629897227930,0.1360514312982559,0.561174213886261,-0.0320601537823677,0.1175230294466018
1629897228024,0.1481924206018448,0.5639508962631226,-0.0146474679931998,0.0978453978896141
1629897228101,0.1520067900419235,0.5600869059562683,0.0033952868543565,0.0669546127319336
1629897228212,0.1432851254940033,0.5544281601905823,0.0230251755565404,0.027405422180891
1629897228336,0.1260852813720703,0.5518622994422913,0.0426064059138298,-0.0081095611676573
1629897228432,0.1178465783596038,0.5528215169906616,0.0558711849153041,-0.0277338456362485
1629897228525,0.1312673240900039,0.5560973286628723,0.0641238316893577,-0.0275218915194273
1629897228649,0.1608455777168274,0.562859296798706,0.0740203410387039,-0.0154289826750755
1629897228776,0.1937479823827743,0.5756198167800903,0.0939032733440399,-0.0004024558002129
1629897228826,0.2183763533830642,0.595183789730072,0.1235790029168129,0.0154544776305556
1629897228901,0.2377759218215942,0.618812084197998,0.152175486087799,0.0314053632318973
1629897229047,0.2521090805530548,0.6420137286186218,0.1691377311944961,0.0459104664623737
1629897229169,0.2672188878059387,0.6606009006500244,0.1695400923490524,0.0599449723958969
1629897229263,0.2803129553794861,0.6714149713516235,0.1551674157381057,0.0709286332130432
1629897229378,0.2882328331470489,0.6768439412117004,0.1326765716075897,0.0796684995293617
1629897229453,0.2884811460971832,0.6769719123840332,0.1096461787819862,0.0857146754860878
1629897229547,0.2829994559288025,0.6770558953285217,0.091710440814495,0.0922432318329811
1629897229688,0.2815546691417694,0.6819758415222168,0.0784140601754188,0.1054955944418907
1629897229766,0.2872869968414306,0.6819779276847839,0.064047984778881,0.1206210106611251
1629897229875,0.2982984185218811,0.6833760738372803,0.0464586019515991,0.1293520182371139
1629897229989,0.3011421263217926,0.6834124326705933,0.0328262336552143,0.1272015571594238
1629897230052,0.2940529286861419,0.6794322729110718,0.030631098896265,0.1157274171710014
1629897230161,0.2773279845714569,0.6677769422531128,0.0396783724427223,0.0999253392219543
1629897230286,0.2564383149147033,0.6453972458839417,0.0460956320166587,0.0798887312412262
1629897230406,0.2395658642053604,0.6123035550117493,0.0371797643601894,0.0551061406731605
1629897230471,0.2214202284812927,0.5757624506950378,0.0140468757599592,0.0281156096607446
1629897230605,0.2073782235383987,0.5474663376808167,-0.0105775129050016,0.0079253790900111
1629897230640,0.1975510418415069,0.5325027108192444,-0.020465824753046,-0.0014014214975759
1629897230759,0.1902285814285278,0.5250637531280518,-0.0069451048038899,-0.0019225493306294
1629897230914,0.1939916014671325,0.527521550655365,0.0255814716219902,0.0008955640951171
1629897230976,0.2113331705331802,0.5286082625389099,0.0651547387242317,0.0049440031871199
1629897231098,0.2138342410326004,0.5329462289810181,0.097727932035923,-0.0026473919861018
1629897231207,0.2140115052461624,0.5418232083320618,0.1156239360570907,-0.0175266191363334
1629897231270,0.2078572809696197,0.5502592325210571,0.1217340230941772,-0.0363027043640613
1629897231364,0.1971295326948166,0.5534467697143555,0.1229363456368446,-0.0514266863465309
1629897231489,0.1879281550645828,0.5485493540763855,0.1228533610701561,-0.0549428351223468
1629897231598,0.1842144280672073,0.5372316241264343,0.118278332054615,-0.0435302630066871
1629897231723,0.1848839819431305,0.5236752033233643,0.1052542701363563,-0.0224064104259014
1629897231785,0.188694342970848,0.5123288035392761,0.0867566242814064,0.0077467942610383
1629897231879,0.1994522958993911,0.5045809745788574,0.0720206275582313,0.045389786362648
1629897231988,0.224018320441246,0.4972935914993286,0.0684400871396064,0.0853205025196075
1629897232098,0.2625528872013092,0.4855380058288574,0.0725066363811492,0.1173584312200546
1629897232238,0.2625528872013092,0.4679309129714966,0.0753572806715965,0.1173584312200546
1629897232285,0.2625528872013092,0.448066383600235,0.068119391798973,0.1173584312200546
1629897232441,0.2625528872013092,0.4311299622058868,0.0467122085392475,0.1173584312200546
1629897232520,0.2625528872013092,0.4177150428295135,0.0134620545431971,0.1173584312200546
1629897232598,0.0124863069504499,0.4035238325595855,-0.0246554166078567,0.1173584312200546
1629897232740,0.0048804199323058,0.3849374055862427,-0.0566498935222625,-0.0617786906659603
1629897232851,0.0247948467731475,0.364131212234497,-0.07664705067873,-0.0543904602527618
1629897232892,0.0558459497988224,0.3501452207565307,-0.083251766860485,-0.0511871352791786
1629897233001,0.0745961740612983,0.350630909204483,-0.0783451721072197,-0.0532533302903175
1629897233079,0.0893735066056251,0.3669821619987488,-0.065543457865715,-0.0554065145552158
1629897233172,0.0858957767486572,0.3930644094944,-0.0528236739337444,-0.0597499944269657
1629897233322,0.0725639089941978,0.4199971854686737,-0.0498499758541584,-0.0662798807024955
1629897233463,0.0618350878357887,0.4419271945953369,-0.0593408197164535,-0.0722869262099266
1629897233525,0.0500156618654727,0.4558987021446228,-0.0779036879539489,-0.0789698287844657
1629897233635,0.0452576763927936,0.4631235301494598,-0.093429759144783,-0.0840594992041587
1629897233681,0.0421435534954071,0.4667601883411407,-0.0977209359407424,-0.0878463611006736
1629897233793,0.0361128039658069,0.4689600765705108,-0.0927679687738418,-0.0924211964011192
1629897233949,0.0462179519236087,0.4693388640880584,-0.084542691707611,-0.0911383554339408
1629897234059,0.0663633644580841,0.4668804705142975,-0.0756122022867202,-0.084413044154644
1629897234152,0.0947752073407173,0.4616744816303253,-0.060717649757862,-0.0729304254055023
1629897234215,0.12122543156147,0.4549042880535126,-0.036351341754198,-0.0632305219769477
1629897234324,0.1364807784557342,0.4472840428352356,-0.0058222347870469,-0.0617847591638565
1629897234451,0.1457056850194931,0.4367000758647918,0.0223034471273422,-0.07377889752388
1629897234545,0.1498008221387863,0.420024037361145,0.0409690737724304,-0.0916818156838417
1629897234654,0.1492106467485427,0.3964419662952423,0.0471238866448402,-0.1114531382918357
1629897234748,0.1573451161384582,0.3710930049419403,0.0451319962739944,-0.1289587169885635
1629897234873,0.1687871813774109,0.3513838946819305,0.0437995567917823,-0.1423873007297516
1629897234904,0.1811723411083221,0.3391815721988678,0.0479240678250789,-0.1567030102014541
1629897235044,0.1935551166534423,0.330542653799057,0.0550167188048362,-0.1716204732656479
1629897235185,0.1957148760557174,0.3208705484867096,0.0598064959049224,-0.1894400864839553
1629897235248,0.1959407478570938,0.3110565841197967,0.0621719732880592,-0.2092617303133011
1629897235326,0.1916007995605468,0.3051067590713501,0.0667251348495483,-0.2269109487533569
1629897235419,0.1816757470369339,0.3045457899570465,0.0738890990614891,-0.2463100403547287
1629897235529,0.1722152531147003,0.3064962029457092,0.0785361900925636,-0.2752307057380676
1629897235654,0.1635658740997314,0.3068683445453644,0.0755904614925384,-0.3105539083480835
1629897235797,0.1630624085664749,0.3056788444519043,0.0653943791985511,-0.3373042345046997
1629897235859,0.1672239601612091,0.3077178597450256,0.0528897121548652,-0.3431645035743713
1629897235937,0.1638310700654983,0.3171256780624389,0.0417160652577877,-0.3291553556919098
1629897236094,0.1629254817962646,0.3322628140449524,0.0358786806464195,-0.3086020946502685
1629897236140,0.1625769138336181,0.3453096449375152,0.0425246432423591,-0.2864327430725097
1629897236250,0.1653515547513961,0.3484506011009216,0.0620504729449749,-0.2623837292194366
1629897236414,0.1808569729328155,0.3409160077571869,0.0888364091515541,-0.236775130033493
1629897236493,0.1963379085063934,0.3313365876674652,0.1133777871727943,-0.2132363021373748
1629897236585,0.2163294851779937,0.3305244445800781,0.130260482430458,-0.1930441558361053
1629897236679,0.236379861831665,0.3422715663909912,0.1385623514652252,-0.1741309762001037
1629897236775,0.2483010739088058,0.3592317104339599,0.1391668319702148,-0.1565316468477249
1629897236852,0.2609483599662781,0.3728330731391907,0.1336356997489929,-0.1400811523199081
1629897236989,0.2704484164714813,0.3798973262310028,0.1268849521875381,-0.1276591569185257
1629897237083,0.2782878279685974,0.3824823796749115,0.1249078959226608,-0.1218907088041305
1629897237196,0.2816483378410339,0.3829970955848694,0.1296335160732269,-0.1250742077827453
1629897237302,0.276627242565155,0.3802123665809631,0.1380142569541931,-0.1364890038967132
1629897237395,0.2704790532588959,0.3690828680992126,0.1447464078664779,-0.1472306847572326
1629897237489,0.267131894826889,0.3476383686065674,0.1477496773004531,-0.1489224582910537
1629897237583,0.2656511962413788,0.3244780898094177,0.1467863172292709,-0.1416151672601699
1629897237692,0.2643025815486908,0.3147188127040863,0.1393556296825409,-0.1328262090682983
1629897237770,0.2546747922897339,0.3256295919418335,0.1259901672601699,-0.1269336640834808
1629897237913,0.2321334779262542,0.3481586277484894,0.1108932793140411,-0.1251710951328277
1629897237976,0.2055560946464538,0.3675295114517212,0.1014048606157302,-0.1242305934429168
1629897238101,0.1727770417928695,0.3785474896430969,0.1019813120365142,-0.1238220930099487
1629897238195,0.1476720869541168,0.3845747113227844,0.1098241508007049,-0.1259545087814331
1629897238382,0.1398410201072693,0.3902995884418487,0.1189607605338096,-0.1291065216064453
1629897238429,0.1344016194343567,0.3958282768726349,0.1256559938192367,-0.1282936781644821
1629897238476,0.1307516545057296,0.3980061411857605,0.1264064162969589,-0.1262966096401214
1629897238616,0.1198882386088371,0.3949799835681915,0.1196213215589523,-0.120637223124504
1629897238632,0.105458565056324,0.3906785547733307,0.1056569144129753,-0.109774425625801
1629897238788,0.0887369289994239,0.3906620144844055,0.0869146510958671,-0.0962006077170372
1629897238916,0.0648922398686409,0.3980955481529236,0.0665881261229515,-0.0857087597250938
1629897239026,0.0407853797078132,0.412443608045578,0.0475449003279209,-0.0809571221470832
1629897239104,0.0116509869694709,0.4287177622318268,0.0323048792779445,-0.0839231982827186
1629897239229,-0.017346940934658,0.4415074288845062,0.0230577010661363,-0.0920890122652053
1629897239291,-0.0269369035959243,0.4470639228820801,0.0194322597235441,-0.105892464518547
1629897239416,-0.0136202340945601,0.4457995891571045,0.0168237835168838,-0.1289235800504684
1629897239541,-0.0136202340945601,0.4434734284877777,0.0108461547642946,-0.1289235800504684
1629897239588,-0.0136202340945601,0.4441982805728912,0.0015403463039547,-0.1289235800504684
1629897239713,-0.0136202340945601,0.4469855725765228,-0.0054652439430356,-0.1289235800504684
1629897239807,-0.0136202340945601,0.4491542875766754,-0.0034191808663308,-0.1289235800504684
1629897239916,0.338437408208847,0.4535249769687652,0.0106370002031326,-0.1289235800504684
1629897240072,0.3098685145378113,0.4669874608516693,0.0377191379666328,-0.0718129351735115
1629897240150,0.2865960896015167,0.4916862547397613,0.0757951065897941,-0.0140830371528863
1629897240228,0.2736049294471741,0.5205724835395813,0.1174698695540428,0.0282964594662189
1629897240326,0.2702195048332214,0.545509397983551,0.1526855230331421,0.0432008504867553
1629897240419,0.2710228860378265,0.5631402134895325,0.1780709475278854,0.037023339420557
1629897240515,0.2695820927619934,0.5730741024017334,0.1973357051610946,0.025389676913619
1629897240626,0.2609260678291321,0.576299786567688,0.214843213558197,0.0181590802967548
1629897240798,0.25015589594841,0.5745410323143005,0.2310435622930526,0.0176887158304452
1629897240830,0.2382729798555374,0.5712320804595947,0.2431192100048065,0.0175484996289014
1629897240927,0.2276524007320404,0.5690593123435974,0.2507671117782593,0.0110083920881152
1629897241004,0.2219033241271972,0.567690908908844,0.257033497095108,-0.0011150990612804
1629897241131,0.2041849046945572,0.5660724639892578,0.264336884021759,-0.0157561860978603
1629897241292,0.1923610717058181,0.5639656782150269,0.2736539840698242,-0.0209608096629381
1629897241316,0.1821637898683548,0.5619701147079468,0.2859596312046051,-0.0206835884600877
1629897241459,0.1758507341146469,0.5589767098426819,0.3011893332004547,-0.0168630275875329
1629897241538,0.1791522204875946,0.551514744758606,0.3176726102828979,-0.0128006441518664
1629897241617,0.186643436551094,0.5376899838447571,0.3340856432914734,-0.0109484121203422
1629897241726,0.1947068125009536,0.5192545652389526,0.3518270254135132,-0.0103282602503895
1629897241851,0.1991706788539886,0.5019517540931702,0.3729764223098755,-0.0063220290467143
1629897241967,0.1984355449676513,0.4926032423973083,0.3955524861812591,0.0026603220030665
1629897242060,0.2003523111343383,0.4945550858974457,0.414563238620758,0.014911975711584
1629897242185,0.2126671522855758,0.5040386319160461,0.4281054437160492,0.027156276628375
1629897242273,0.2273202836513519,0.5138258934020996,0.4375987350940704,0.0338235795497894
1629897242366,0.2464223206043243,0.5194755792617798,0.4458361268043518,0.0377835929393768
1629897242454,0.262222409248352,0.5225741267204285,0.4531566500663757,0.0414600037038326
1629897242578,0.270974338054657,0.5275999307632446,0.4585953652858734,0.0474031865596771
1629897242674,0.2785031199455261,0.5354278087615967,0.4635547399520874,0.0576752535998821
1629897242752,0.2832136750221252,0.5443478226661682,0.4682980477809906,0.0674261227250099
1629897242879,0.2912731766700744,0.5540761351585388,0.4692752659320831,0.0740483254194259
1629897242958,0.2985739111900329,0.5652421116828918,0.4623654782772064,0.0794314220547676
1629897243097,0.3041011691093445,0.5783180594444275,0.446303516626358,0.0776581987738609
1629897243176,0.307997465133667,0.5920424461364746,0.4218032956123352,0.0679706707596778
1629897243269,0.3092544376850128,0.6046494841575623,0.389411062002182,0.0537299551069736
1629897243412,0.3099916279315948,0.6139295101165771,0.3497925400733948,0.0407897308468818
1629897243474,0.3144066333770752,0.6171445846557617,0.3074434697628021,0.0323507897555828
1629897243601,0.3184182345867157,0.613003671169281,0.2678129971027374,0.0229571852833032
1629897243675,0.3166533708572387,0.6036024689674377,0.2320365607738495,0.006478726863861
1629897243800,0.3147546947002411,0.5933916568756104,0.1975995004177093,-0.0126396846026182
1629897243847,0.3050137460231781,0.5961820483207703,0.1628646403551101,-0.0322808772325515
1629897243958,0.2992058396339416,0.6022292971611023,0.1305785775184631,-0.0381282120943069
1629897244054,0.2992058396339416,0.6075432300567627,0.1018318086862564,-0.0381282120943069
1629897244148,0.2992058396339416,0.5932591557502747,0.0728520676493644,-0.0381282120943069
1629897244336,0.2992058396339416,0.572586178779602,0.0400032177567482,-0.0381282120943069
1629897244367,0.2992058396339416,0.547552764415741,0.0056165014393627,-0.0381282120943069
1629897244538,0.2992058396339416,0.5234037041664124,-0.0232137143611907,-0.0381282120943069
1629897244586,0.2992058396339416,0.506540060043335,-0.0420942083001136,-0.0381282120943069
1629897244681,0.2992058396339416,0.4982508718967438,-0.0526112504303455,-0.0381282120943069
1629897244776,0.2992058396339416,0.4941384196281433,-0.0579548925161361,-0.0381282120943069
1629897244898,0.2992058396339416,0.4862309396266937,-0.0611484870314598,-0.0381282120943069
1629897245027,0.2992058396339416,0.4703669250011444,-0.0663165748119354,-0.0381282120943069
1629897245059,0.2992058396339416,0.4488235414028168,-0.0735764428973198,-0.0381282120943069
1629897245155,0.2992058396339416,0.4269375205039978,-0.0823414102196693,-0.0381282120943069
1629897245339,0.2992058396339416,0.4084140956401825,-0.0902909040451049,-0.0381282120943069
1629897245388,0.2992058396339416,0.3935720920562744,-0.0985549539327621,-0.0381282120943069
1629897245580,0.2992058396339416,0.3800980150699615,-0.1096614748239517,-0.0381282120943069
1629897245658,0.2992058396339416,0.3678106963634491,-0.1250471025705337,-0.0381282120943069
1629897245687,0.2992058396339416,0.3588033616542816,-0.1447647213935852,-0.0381282120943069
1629897245768,0.2992058396339416,0.3579144477844238,-0.1649909019470214,-0.0381282120943069
1629897245890,0.3002921938896179,0.3647404909133911,-0.1792593896389007,-0.0381282120943069
1629897246031,0.4091029167175293,0.3733798563480377,-0.1825621426105499,0.157323732972145
1629897246110,0.5058689117431641,0.3768764138221741,-0.1788213402032852,0.1754150539636612
1629897246190,0.5640282034873962,0.3737873435020447,-0.1764426380395889,0.1802696883678436
1629897246327,0.5862271189689636,0.3681219220161438,-0.1797890216112136,0.1715601533651352
1629897246406,0.5773506164550781,0.3666290044784546,-0.1861710548400879,0.1539500951766967
1629897246513,0.5583231449127197,0.3713908195495605,-0.1915601342916488,0.1539500951766967
1629897246576,0.5419121980667114,0.3789113759994507,-0.1956334114074707,0.1539500951766967
1629897246718,0.5280488133430481,0.3851525783538818,-0.1996705532073974,0.1539500951766967
1629897246860,0.5160473585128784,0.3912750482559204,-0.1998888552188873,0.1539500951766967
1629897246919,0.5020906329154968,0.401869535446167,-0.1913443356752395,0.138535737991333
1629897246997,0.488869696855545,0.4187123775482178,-0.1763219684362411,0.1201960518956184
1629897247171,0.4924546480178833,0.4384847581386566,-0.1604898124933242,0.0991447940468788
1629897247234,0.4937988519668579,0.4551199078559875,-0.150795117020607,0.0770434662699699
1629897247328,0.4904170334339142,0.4642062783241272,-0.1493480056524276,0.0625250339508056
1629897247419,0.4798849523067474,0.4644724726676941,-0.1547158360481262,0.0579258501529693
1629897247530,0.4540941119194031,0.4562486708164215,-0.1677879244089126,0.0583885349333286
1629897247639,0.4115295112133026,0.4406916201114654,-0.1869596987962722,0.0568580031394958
1629897247701,0.3654349744319916,0.4209824502468109,-0.2070333957672119,0.053550224751234
1629897247796,0.330491155385971,0.4017388224601745,-0.2231609225273132,0.0472503304481506
1629897247920,0.3169423043727875,0.3874755203723907,-0.2331975549459457,0.0402911081910133
1629897248042,0.3119682371616363,0.3812784552574157,-0.2366593778133392,0.0276712756603956
1629897248137,0.3053326308727264,0.3809852600097656,-0.2364133149385452,0.017490942031145
1629897248261,0.2982097566127777,0.3821805715560913,-0.2359751611948013,0.015900682657957
1629897248308,0.2896821200847626,0.3793419897556305,-0.2431672662496566,0.0216057412326335
1629897248417,0.289518654346466,0.3689300417900085,-0.261877566576004,0.0354252010583877
1629897248558,0.2913748621940613,0.3525386154651642,-0.2876186072826385,0.0517254136502742
1629897248638,0.2936951518058777,0.3349990844726562,-0.3103746473789215,0.065094843506813
1629897248764,0.2937217056751251,0.3219868242740631,-0.323186993598938,0.0716733634471893
1629897248860,0.2856952548027038,0.3163599073886871,-0.32949960231781,0.0716929957270622
1629897248953,0.2790471315383911,0.3172928690910339,-0.3368660807609558,0.0666566044092178
1629897249044,0.2709059119224548,0.3221611380577087,-0.3461138904094696,0.0561585836112499
1629897249140,0.2639224231243133,0.3283372819423675,-0.3512121140956878,0.0486823320388793
1629897249265,0.256902128458023,0.3338533043861389,-0.3475901484489441,0.0462879464030265
1629897249394,0.2461997270584106,0.337536871433258,-0.3352649807929992,0.0501749739050865
1629897249455,0.2330424785614013,0.3397020995616913,-0.3203901648521423,0.0572585426270961
1629897249536,0.220838651061058,0.3414148688316345,-0.3132547438144684,0.0655076801776886
1629897249660,0.2062791734933853,0.3450724482536316,-0.3153572082519531,0.0763456374406814
1629897249783,0.1896211802959442,0.351189374923706,-0.3221793472766876,0.0857924744486808
1629897249846,0.178722470998764,0.3588145971298218,-0.3281554579734802,0.0908381268382072
1629897249971,0.1638120412826538,0.364932119846344,-0.3330904841423034,0.0861383080482482
1629897250063,0.1523254364728927,0.3672678172588348,-0.3379790782928467,0.0778892040252685
1629897250142,0.1497207283973693,0.36603444814682,-0.3423623740673065,0.0714791193604469
1629897250249,0.1474911421537399,0.3629282116889953,-0.3427054584026336,0.0689480677247047
1629897250422,0.1590897142887115,0.3603684604167938,-0.3367359340190887,0.075312316417694
1629897250498,0.1691898256540298,0.3580818474292755,-0.3287253081798553,0.0879245176911354
1629897250592,0.1763708889484405,0.3535274267196655,-0.3234117925167084,0.1044273003935813
1629897250685,0.1798698157072067,0.345455527305603,-0.3233633041381836,0.1161647513508796
1629897250734,0.1733867079019546,0.334986537694931,-0.3286760747432709,0.1197434142231941
1629897250859,0.1673464477062225,0.3250586092472076,-0.3376157581806183,0.1173513233661651
1629897251028,0.1661006212234497,0.3164982795715332,-0.3462668359279632,0.1094867661595344
1629897251123,0.1667342334985733,0.3074886202812195,-0.3489123284816742,0.0985178053379058
1629897251217,0.1749061495065689,0.2959237396717071,-0.3435570895671844,0.0836600512266159
1629897251294,0.1886591166257858,0.2831967771053314,-0.3342818021774292,0.0652940720319747
1629897251404,0.197904422879219,0.2745194733142853,-0.3267264664173126,0.046850137412548
1629897251464,0.2083463221788406,0.2764070332050323,-0.3214898407459259,0.0336036272346973
1629897251605,0.2139615267515182,0.2897191345691681,-0.316952496767044,0.0270737800747156
1629897251683,0.2115118205547332,0.3072674870491028,-0.3124126195907593,0.0252897404134273
1629897251825,0.2103485614061355,0.3210091590881347,-0.3081077039241791,0.0239282343536615
1629897251889,0.2058068960905075,0.3274042308330536,-0.3017260134220123,0.0162604805082082
1629897252014,0.2054508477449417,0.3243658542633056,-0.2925280928611755,0.0029092577751725
1629897252061,0.2124023139476776,0.3225420415401459,-0.2848741412162781,-0.0122486241161823
1629897252219,0.2203993052244186,0.3257091045379638,-0.2827820777893066,-0.0200777444988489
1629897252311,0.2305120080709457,0.3350389301776886,-0.285455048084259,-0.0190854240208864
1629897252404,0.2369067072868347,0.3470068573951721,-0.2867766916751861,-0.0150384437292814
1629897252484,0.2366378158330917,0.3577610850334167,-0.2860899567604065,-0.0109189888462424
1629897252578,0.2359922677278518,0.3669720590114593,-0.2871630489826202,-0.0114095211029052
1629897252693,0.2327086329460144,0.3795022666454315,-0.2939453721046448,-0.0159470867365598
1629897252847,0.2283602505922317,0.3761332035064697,-0.3067849576473236,-0.0245511606335639
1629897252942,0.2274506539106369,0.3709619641304016,-0.3206875026226043,-0.0361481048166751
1629897252989,0.2233194857835769,0.3540708422660827,-0.332501471042633,-0.046471644192934
1629897253132,0.2180152386426925,0.3199367821216583,-0.3443330526351928,-0.054276805371046
1629897253193,0.2121937125921249,0.2751215100288391,-0.3593857884407043,-0.0584014058113098
1629897253333,0.1995773315429687,0.2306652963161468,-0.3831769824028015,-0.0611107274889946
1629897253428,0.1839868724346161,0.1909779012203216,-0.4188512563705444,-0.0658384039998054
1629897253553,0.1684709042310714,0.1915120780467987,-0.4585432708263397,-0.0773864239454269
1629897253649,0.1483034193515777,0.191963255405426,-0.4881227016448974,-0.0997470542788505
1629897253710,0.1277653574943542,0.1921732872724533,-0.4979878962039947,-0.1297564506530761
1629897253772,0.1076564118266105,0.1917187720537185,-0.4928935468196869,-0.1593697369098663
1629897253932,0.0888416692614555,0.1915976107120514,-0.4864463210105896,-0.1759852319955825
1629897254055,0.0821301639080047,0.1930952668190002,-0.4793658852577209,-0.1737443208694458
1629897254132,0.0837022587656974,0.1970258057117462,-0.4602211117744446,-0.1579727977514267
1629897254210,0.0885843336582183,0.2025670260190963,-0.4216763079166412,-0.1360417902469635
1629897254321,0.0948396772146225,0.2107541710138321,-0.3722128272056579,-0.113983154296875
1629897254416,0.1021229699254036,0.2228084951639175,-0.3269964158535003,-0.0902512818574905
1629897254495,0.1145917400717735,0.2389125674962997,-0.2941215932369232,-0.0625816136598587
1629897254697,0.1329029947519302,0.2581004202365875,-0.2724924683570862,-0.0299784634262323
1629897254746,0.1537764370441436,0.2774971127510071,-0.2559422552585602,0.0032231155782938
1629897254838,0.1725188940763473,0.2945536375045776,-0.2365571856498718,0.0275195464491844
1629897254949,0.1832989156246185,0.308142602443695,-0.2123133689165115,0.0409308522939682
1629897255090,0.1829234063625335,0.3177073001861572,-0.1882121115922927,0.0477991849184036
1629897255136,0.1740967184305191,0.324529618024826,-0.1704107969999313,0.0502412766218185
1629897255277,0.1637236922979354,0.3311936557292938,-0.1619040071964264,0.0479754395782947
1629897255371,0.1598496437072754,0.3387362957000732,-0.1590880155563354,0.0421027056872844
1629897255466,0.1652064472436905,0.3460782468318939,-0.1581604182720184,0.0368523858487606
1629897255559,0.1738447695970535,0.351895809173584,-0.1583362221717834,0.0393179059028625
1629897255637,0.182399034500122,0.3565737903118133,-0.1628047078847885,0.0526191815733909
1629897255746,0.1908343583345413,0.3610590696334839,-0.1732715219259262,0.0722395107150077
1629897255871,0.1993518471717834,0.3640220761299133,-0.1845822483301162,0.0914825350046157
1629897255965,0.2061426639556884,0.3629151284694671,-0.1902552098035812,0.102361261844635
1629897256076,0.213139995932579,0.3565362393856048,-0.1857944279909134,0.1007711887359619
1629897256168,0.2192189544439315,0.3451669812202453,-0.1744275540113449,0.085692398250103
1629897256277,0.2259405851364135,0.3307037055492401,-0.1638169288635254,0.0604622736573219
1629897256324,0.2362495809793472,0.3168838322162628,-0.1593364626169204,0.0357818938791751
1629897256486,0.2491620332002639,0.3087744414806366,-0.1634774655103683,0.0173014607280492
1629897256622,0.2604461014270782,0.3087975978851318,-0.1747744083404541,0.0026392512954771
1629897256654,0.2700367867946625,0.3123045563697815,-0.1880693286657333,-0.0075352755375206
1629897256747,0.2760619521141052,0.3131352365016937,-0.1996218115091323,-0.0111408783122897
1629897256870,0.2760543823242187,0.3091149628162384,-0.2093771547079086,-0.0076209153048694
1629897256947,0.2733554244041443,0.3018268048763275,-0.2182846963405609,-0.0026458364445716
1629897257120,0.2676514089107513,0.2930333316326141,-0.2271131724119186,-0.0065420307219028
1629897257199,0.2592672705650329,0.2817228138446808,-0.2359659671783447,-0.0253427438437938
1629897257262,0.2532951533794403,0.2684195339679718,-0.245942085981369,-0.0517453737556934
1629897257355,0.2465378791093826,0.25765460729599,-0.2600472271442413,-0.0676014497876167
1629897257464,0.2367096245288849,0.253416508436203,-0.2802934646606445,-0.0637282729148864
1629897257542,0.2263852804899215,0.2564370334148407,-0.3082841634750366,-0.0477080643177032
1629897257681,0.213027611374855,0.2657422423362732,-0.3421662449836731,-0.0321819707751274
1629897257777,0.1990885585546493,0.2787834107875824,-0.3756466209888458,-0.0216081589460372
1629897257871,0.1907389014959335,0.2907435894012451,-0.4025258123874664,-0.0095174293965101
1629897257979,0.1839646250009536,0.2945768535137176,-0.4196168780326843,0.0053679989650845
1629897258091,0.1800597757101059,0.2872806191444397,-0.4256655275821686,0.0233612209558486
1629897258166,0.1811189502477646,0.2750887274742126,-0.4223579168319702,0.043596476316452
1629897258341,0.1838525235652923,0.2669529318809509,-0.4113229811191559,0.0634987950325012
1629897258385,0.1940949857234954,0.2676377594470978,-0.3950165212154388,0.0859321132302284
1629897258477,0.2072660475969314,0.2759538292884826,-0.3767659366130829,0.1087618842720985
1629897258601,0.2170288264751434,0.2884703278541565,-0.3566045463085174,0.1287595629692077
1629897258682,0.2210648506879806,0.3021365404129028,-0.333312451839447,0.1435056626796722
1629897258775,0.2165902256965637,0.3135285079479217,-0.3090593814849853,0.1488271504640579
1629897258948,0.2048375308513641,0.3200666010379791,-0.2890496551990509,0.1423286199569702
1629897259025,0.1938298493623733,0.3222836256027221,-0.2756970226764679,0.1286446005105972
1629897259134,0.1830711960792541,0.3225158154964447,-0.2669929563999176,0.1148049458861351
1629897259182,0.1777269840240478,0.3222030997276306,-0.2567854225635528,0.1058443710207939
1629897259261,0.1814775764942169,0.3221514821052551,-0.2426033765077591,0.1041143536567688
1629897259354,0.1880156546831131,0.3227601051330566,-0.2261298894882202,0.1042586490511894
1629897259540,0.1953567564487457,0.3244723677635193,-0.2078719139099121,0.1035754233598709
1629897259664,0.2055660486221313,0.3275743722915649,-0.188560739159584,0.1012303978204727
1629897259727,0.2120678573846817,0.3322339355945587,-0.1721274107694625,0.092647798359394
1629897259791,0.2162045985460281,0.3400501012802124,-0.1631085723638534,0.0776167437434196
1629897259916,0.2151079624891281,0.3508144319057464,-0.1626859605312347,0.0542987957596778
1629897260008,0.2090186774730682,0.3604685962200165,-0.1660621911287307,0.0268588438630104
1629897260163,0.206868901848793,0.3647496402263641,-0.1677148342132568,0.0078428816050291
1629897260261,0.2083121240139007,0.363638699054718,-0.1670199781656265,0.0061584180220961
1629897260359,0.211201786994934,0.360546201467514,-0.1681384891271591,0.0215591825544834
1629897260402,0.2136307805776596,0.3579276502132416,-0.1727152019739151,0.041389100253582
1629897260545,0.2121102958917617,0.3547998368740082,-0.1783556938171386,0.0516333356499671
1629897260594,0.2088880836963653,0.3487696647644043,-0.180889755487442,0.0510829202830791
1629897260781,0.2017275840044021,0.3389807939529419,-0.1796766221523285,0.0437513664364814
1629897260843,0.1903322041034698,0.3278501629829407,-0.1755514591932296,0.0335687063634395
1629897260921,0.175717294216156,0.3207484781742096,-0.1702089160680771,0.0217117872089147
1629897261098,0.161362275481224,0.3233519494533539,-0.1669935584068298,0.007870215922594
1629897261145,0.1470062285661697,0.3358994126319885,-0.1706969141960144,-0.0068969875574111
1629897261204,0.1368548274040222,0.3508834540843963,-0.1808648854494094,-0.0181756522506475
1629897261330,0.131181463599205,0.359567642211914,-0.1923591643571853,-0.0258702505379915
1629897261441,0.13013955950737,0.35896697640419,-0.2007641047239303,-0.0318282283842563
1629897261519,0.133724644780159,0.3525226712226867,-0.2070472836494445,-0.040576085448265
1629897261628,0.1371385902166366,0.3462710678577423,-0.2142561823129654,-0.0593575872480869
1629897261721,0.1419675797224044,0.3433619439601898,-0.2232945561408996,-0.0905278697609901
1629897261817,0.1502715498208999,0.3433713912963867,-0.231177732348442,-0.1313867568969726
1629897261975,0.1627598702907562,0.3461942970752716,-0.236135795712471,-0.1729520112276077
1629897262053,0.1770892143249511,0.352944403886795,-0.2397806942462921,-0.2020778357982635
1629897262148,0.1872820556163787,0.364044725894928,-0.2452332079410553,-0.2162121832370758
1629897262275,0.1909543126821518,0.3768457174301147,-0.2541923820972442,-0.2164937704801559
1629897262351,0.1923179924488067,0.3864948749542236,-0.266648918390274,-0.2073352336883545
1629897262427,0.1950616091489792,0.3908758163452148,-0.2824753522872925,-0.193132534623146
1629897262631,0.1968444585800171,0.3896167576313019,-0.3013913929462433,-0.1790645271539688
1629897262694,0.2001191973686218,0.3828341364860534,-0.3157273530960083,-0.1652556508779525
1629897262759,0.2022628784179687,0.3733120858669281,-0.3246226608753204,-0.1513551771640777
1629897262867,0.2019469887018203,0.364202082157135,-0.3262738287448883,-0.1382280737161636
1629897262974,0.2013280540704727,0.3573763966560364,-0.3220288455486297,-0.1262665539979934
1629897263071,0.1951636672019958,0.3547384142875671,-0.3157082498073578,-0.1153886094689369
1629897263176,0.1894665509462356,0.3576498329639435,-0.3135117292404175,-0.1032900959253311
1629897263331,0.1849470436573028,0.3668057918548584,-0.3208021223545074,-0.0914760753512382
1629897263413,0.1868360787630081,0.3817487955093384,-0.3356680870056152,-0.0792794078588485
1629897263491,0.1994599848985672,0.3659818172454834,-0.3396450877189636,-0.0635379254817962
1629897263553,0.2242063134908676,0.3475473523139953,-0.3311602175235748,-0.0396944358944892
1629897263649,0.2585700452327728,0.319291740655899,-0.3185261189937591,-0.00972406193614
1629897263809,0.2951570451259613,0.2740226984024048,-0.3141394555568695,0.0170742645859718
1629897263904,0.3241606056690216,0.2105401158332824,-0.3194753229618072,0.0340047925710678
1629897263965,0.3421115577220917,0.1833602786064148,-0.3212357461452484,0.0402587428689003
1629897264110,0.352011889219284,0.1656149178743362,-0.2992998361587524,0.0414510667324066
1629897264155,0.3594736754894256,0.1641677916049957,-0.2587601840496063,0.0414723977446556
1629897264282,0.3676703572273254,0.1750769913196563,-0.2146877199411392,0.0433309823274612
1629897264390,0.378028005361557,0.1890079826116562,-0.1800536215305328,0.0477011986076831
1629897264543,0.3905833959579468,0.1995250731706619,-0.1553519666194915,0.0554197542369365
1629897264575,0.4044846296310425,0.2056637406349182,-0.1396471410989761,0.062470369040966
1629897264700,0.4153514504432678,0.210392951965332,-0.1332730054855346,0.0620612576603889
1629897264779,0.4201525151729584,0.2152910828590393,-0.1363441050052642,0.0544133931398391
1629897264861,0.4151731431484222,0.2203157842159271,-0.1361191868782043,0.0393919311463832
1629897265011,0.4002317488193512,0.226271852850914,-0.1398273259401321,0.0178861357271671
1629897265090,0.378328800201416,0.2295763939619064,-0.1390093266963958,-0.0116319516673684
1629897265186,0.3507942855358124,0.2333098500967025,-0.1303699612617492,-0.0501426868140697
1629897265280,0.3248490691184997,0.240819051861763,-0.1162925213575363,-0.0912768840789794
1629897265405,0.307806134223938,0.2524855732917785,-0.1036228016018867,-0.1273145079612732
1629897265481,0.2989211082458496,0.2660398781299591,-0.0984944328665733,-0.1521238833665847
1629897265608,0.3007644414901733,0.2787844240665436,-0.1028384789824485,-0.1651725023984909
1629897265686,0.2999676465988159,0.2884496450424194,-0.1163432747125625,-0.1736582517623901
1629897265825,0.2936641573905945,0.2947809100151062,-0.135191410779953,-0.1841664314270019
1629897265916,0.2832387387752533,0.2996326684951782,-0.1556045860052108,-0.2028293758630752
1629897266030,0.2665425837039947,0.3043908774852752,-0.1777377724647522,-0.2322362959384918
1629897266105,0.2499207705259323,0.3085277080535888,-0.200002908706665,-0.2651594877243042
1629897266247,0.2359381467103958,0.3099218308925628,-0.2172720283269882,-0.2863783836364746
1629897266340,0.2291382700204849,0.3085711002349853,-0.2249527722597122,-0.287403792142868
1629897266418,0.2258182317018509,0.3071056604385376,-0.2241973131895065,-0.2688005864620209
1629897266526,0.2258388996124267,0.3070702850818634,-0.2234842926263809,-0.2396202981472015
1629897266606,0.2238546162843704,0.3084941804409027,-0.2322719246149063,-0.213574931025505
1629897266684,0.2209522277116775,0.3113481998443603,-0.2526837885379791,-0.1946173161268234
1629897266871,0.217242881655693,0.3160589337348938,-0.2797361612319946,-0.1810702681541443
1629897266933,0.206574335694313,0.3213440775871277,-0.3028741478919983,-0.1697407811880111
1629897267044,0.1915275901556015,0.3238097429275512,-0.3147301971912384,-0.1587901562452316
1629897267138,0.1736964881420135,0.3203667998313904,-0.319346010684967,-0.1480827927589416
1629897267216,0.1581432670354843,0.3118897974491119,-0.3263101875782013,-0.1394985765218734
1629897267279,0.1529118418693542,0.301680713891983,-0.3410470187664032,-0.1338552832603454
1629897267500,0.1585962027311325,0.2918305397033691,-0.3607251346111297,-0.1262835711240768
1629897267546,0.1712904423475265,0.2829406261444092,-0.3777599334716797,-0.1133758500218391
1629897267642,0.1879325062036514,0.2757442891597748,-0.3887228965759277,-0.0927611663937568
1629897267719,0.2070500254631042,0.2713175117969513,-0.3977231085300445,-0.0670168697834014
1629897267848,0.2279054373502731,0.2702623605728149,-0.4082140028476715,-0.0460025854408741
1629897267970,0.2509678602218628,0.2699946165084839,-0.4209643602371216,-0.0362551175057888
1629897268066,0.2700670063495636,0.2687268853187561,-0.4302239716053009,-0.0365704335272312
1629897268160,0.2816112637519836,0.2663868069648742,-0.429421067237854,-0.0406025908887386
1629897268238,0.2854243516921997,0.2628767490386963,-0.4180364906787872,-0.0430171713232994
1629897268316,0.2830970287322998,0.2593088746070862,-0.400803655385971,-0.0440978109836578
1629897268458,0.2828634679317474,0.2597419023513794,-0.3882157802581787,-0.0464267507195472
1629897268553,0.2839844226837158,0.2689246833324432,-0.3857492506504059,-0.0498611778020858
1629897268707,0.2831171751022339,0.2869923710823059,-0.3889469802379608,-0.0555997192859649
1629897268752,0.2834416627883911,0.3076110184192657,-0.387904942035675,-0.0636887773871421
1629897268862,0.2816632390022278,0.3247234225273132,-0.3790787756443023,-0.0732364505529403
1629897268958,0.2773446142673492,0.3379257023334503,-0.3681565523147583,-0.0855493322014808
1629897269036,0.2731034457683563,0.3496754169464111,-0.3609703481197357,-0.1007988080382347
1629897269146,0.2645266354084015,0.3608457148075104,-0.3552490174770355,-0.1191605627536773
1629897269273,0.2474299371242523,0.3707475662231445,-0.3443154394626617,-0.1394893825054168
1629897269350,0.2223964929580688,0.3783166706562042,-0.3248654007911682,-0.157197818160057
1629897269507,0.1932130008935928,0.3842799365520477,-0.2991586327552795,-0.1658758521080017
1629897269554,0.1663610786199569,0.3900440335273742,-0.2760579288005829,-0.1658664643764495
1629897269663,0.1487741321325302,0.3960033655166626,-0.2619645297527313,-0.159443512558937
1629897269742,0.1422517448663711,0.4017245173454284,-0.2569073736667633,-0.145703837275505
1629897269868,0.1400803923606872,0.4048931896686554,-0.2565168440341949,-0.1296659708023071
1629897269977,0.13686403632164,0.402010828256607,-0.2536476254463196,-0.1153356209397316
1629897270088,0.1403152197599411,0.391221135854721,-0.2449917942285537,-0.1035009324550628
1629897270166,0.1470246911048889,0.3733766973018646,-0.2345198988914489,-0.0926332175731659
1629897270246,0.1561806797981262,0.3524126708507538,-0.2276148200035095,-0.0748212411999702
1629897270338,0.160354346036911,0.3329880833625793,-0.2265247255563736,-0.0519621446728706
1629897270509,0.155381754040718,0.3176557719707489,-0.2287663966417312,-0.0287503115832805
1629897270587,0.1474315673112869,0.3073767125606537,-0.22895348072052,-0.0045113242231309
1629897270682,0.1458375602960586,0.3027351498603821,-0.2226041108369827,0.0223478730767965
1629897270782,0.156400665640831,0.3028762638568878,-0.2083802968263626,0.05134953930974
1629897270844,0.1749177724123001,0.3040654957294464,-0.1898641884326934,0.0790339037775993
1629897270987,0.1948177069425583,0.3026138246059418,-0.1735940724611282,0.0982861816883087
1629897271112,0.2100864797830581,0.2977565824985504,-0.1625432670116424,0.1050783842802047
1629897271221,0.2213686257600784,0.2913857400417328,-0.1560618579387664,0.1004292517900466
1629897271315,0.2269880324602127,0.2855858504772186,-0.1537782549858093,0.0859177634119987
1629897271378,0.2326476126909256,0.2827221155166626,-0.1563020944595337,0.0673296377062797
1629897271503,0.2372444421052932,0.2856217324733734,-0.1643017083406448,0.0502307265996933
1629897271596,0.2337463051080703,0.2941392958164215,-0.1781256347894668,0.0356125943362712
1629897271737,0.2297581136226654,0.3059186339378357,-0.1941182762384414,0.0234535876661539
1629897271846,0.2288479208946228,0.3174805343151092,-0.2092930823564529,0.00960264634341
1629897271896,0.2349706143140792,0.3274993598461151,-0.221209779381752,-0.0071036703884601
1629897271990,0.2476029694080352,0.3373640179634094,-0.2279185652732849,-0.0231129564344882
1629897272083,0.2575654983520508,0.3480567336082458,-0.2322531193494796,-0.0387948751449584
1629897272193,0.2562451660633087,0.3579168021678924,-0.240431323647499,-0.0593866296112537
1629897272302,0.2512093484401703,0.3650901615619659,-0.256642073392868,-0.08833859115839
1629897272427,0.2452827394008636,0.3695549964904785,-0.2808232605457306,-0.1231450587511062
1629897272521,0.2399922311305999,0.3730405867099762,-0.3083870708942413,-0.1553905606269836
1629897272630,0.2429147362709045,0.3758203685283661,-0.3325854539871216,-0.1740331649780273
1629897272786,0.247867539525032,0.3758496642112732,-0.3512701094150543,-0.1765598952770233
1629897272818,0.2512248158454895,0.3730545341968536,-0.3625442087650299,-0.1684634089469909
1629897272919,0.2509543895721435,0.3701764345169067,-0.3626881837844848,-0.1534147262573242
1629897273065,0.2458423376083374,0.369966059923172,-0.3482463657855987,-0.1369364261627197
1629897273127,0.2424772828817367,0.3728337287902832,-0.3211052417755127,-0.1247164830565452
1629897273252,0.2423256635665893,0.3771770894527435,-0.2916531562805176,-0.1175476908683776
1629897273299,0.2387292087078094,0.3815268278121948,-0.2682926058769226,-0.1170645281672477
1629897273440,0.2298056185245514,0.383822351694107,-0.2537375092506408,-0.1220717057585716
1629897273549,0.2169633954763412,0.3802500367164612,-0.246684581041336,-0.1314070373773574
1629897273612,0.2053262293338775,0.367971658706665,-0.244686871767044,-0.1483679413795471
1629897273752,0.2002105563879013,0.3483931422233581,-0.2485495060682296,-0.1702100187540054
1629897273830,0.1947421729564666,0.3265959322452545,-0.2587426304817199,-0.193683847784996
1629897273942,0.1850288808345794,0.3092609345912933,-0.2711731791496277,-0.2153225243091583
1629897274036,0.1766166985034942,0.2998567819595337,-0.2783378958702087,-0.2323008179664611
1629897274130,0.1663582175970077,0.297467976808548,-0.2749347984790802,-0.2436443567276001
1629897274286,0.1523579508066177,0.2995336949825287,-0.2630703747272491,-0.2496372759342193
1629897274364,0.1455840915441513,0.3021934330463409,-0.2527880072593689,-0.2533388435840606
1629897274442,0.1416537910699844,0.3010886907577514,-0.2510488033294678,-0.2583091557025909
1629897274552,0.1471333652734756,0.2930905520915985,-0.2594248056411743,-0.2674050629138946
1629897274630,0.1580948233604431,0.2789100110530853,-0.272714614868164,-0.2763752937316894
1629897274770,0.1621680855751037,0.2623869180679321,-0.282057911157608,-0.2815253436565399
1629897274848,0.1623631715774536,0.2474059462547302,-0.2820522785186767,-0.280779480934143
1629897274992,0.1585581302642822,0.236042633652687,-0.2731207609176636,-0.2726767957210541
1629897275054,0.152020126581192,0.2300624847412109,-0.2576147019863128,-0.2507045865058899
1629897275195,0.1407195329666137,0.2299626171588897,-0.2404298037290573,-0.2154050767421722
1629897275273,0.1307158023118972,0.233892410993576,-0.2247157245874405,-0.1755248308181762
1629897275351,0.1312909871339798,0.2366954833269119,-0.2118410170078277,-0.1393995136022567
1629897275523,0.1503547132015228,0.2332486063241958,-0.2045130878686905,-0.1121155172586441
1629897275585,0.1796839982271194,0.222072422504425,-0.2043380886316299,-0.08681221306324
1629897275710,0.2032776027917862,0.2051507234573364,-0.2126982510089874,-0.0615091137588024
1629897275757,0.2205167263746261,0.1870163530111313,-0.2280833572149276,-0.0362038612365722
1629897275867,0.2260875701904297,0.1716054230928421,-0.2389559894800186,-0.013121641241014
1629897276057,0.227536603808403,0.1604926586151123,-0.2375543564558029,0.0035210025962442
1629897276119,0.226565271615982,0.1535839438438415,-0.2269029766321182,0.0130901290103793
1629897276151,0.2254093736410141,0.1506669521331787,-0.2182781994342804,0.015916733071208
1629897276275,0.2292987257242202,0.1524574011564254,-0.2202686816453933,0.0130794895812869
1629897276400,0.2392732053995132,0.1588176786899566,-0.2312267124652862,0.007627326529473
1629897276463,0.2498212456703186,0.1670120060443878,-0.2452923953533172,0.0017084390856325
1629897276588,0.255998432636261,0.1716489195823669,-0.2568508386611938,-0.0081351660192012
1629897276713,0.2629654109477997,0.1694923192262649,-0.263041228055954,-0.0211174227297306
1629897276775,0.2675994038581848,0.1614331603050232,-0.2614021599292755,-0.0339006446301937
1629897276900,0.2673860788345337,0.1534506827592849,-0.2511360049247741,-0.040511380881071
1629897276963,0.2658730745315552,0.15394227206707,-0.2332603186368942,-0.0356171764433383
1629897277025,0.2573747932910919,0.1652346700429916,-0.2112427502870559,-0.0286825988441705
1629897277197,0.2499836832284927,0.1827821582555771,-0.1895684599876403,-0.0250314716249704
1629897277291,0.2487762570381164,0.1999111771583557,-0.1722796857357025,-0.0246679540723562
1629897277385,0.2472789734601974,0.2120483964681625,-0.1638819426298141,-0.0257078800350427
1629897277531,0.2475823312997818,0.2201806902885437,-0.1644672900438308,-0.0255000088363885
1629897277593,0.2460668683052063,0.2280113995075225,-0.1699898391962051,-0.0243816990405321
1629897277687,0.2399072796106338,0.2372208684682846,-0.1753250956535339,-0.0247200690209865
1629897277811,0.2355457246303558,0.2469936311244964,-0.1780987381935119,-0.0243405401706695
1629897277923,0.2308275997638702,0.2541138231754303,-0.1808798015117645,-0.0202138982713222
1629897277994,0.2298095524311065,0.256654292345047,-0.1849903613328933,-0.0092087686061859
1629897278066,0.2356676161289215,0.2563446462154388,-0.1921815574169159,0.0051098731346428
1629897278181,0.2429045736789703,0.2574151456356048,-0.2019645571708679,0.0143719520419836
1629897278284,0.249393343925476,0.2639540731906891,-0.2145316451787948,0.0130628226324915
1629897278443,0.2556477189064026,0.2752115428447723,-0.2297107726335525,0.0011681038886308
1629897278521,0.2549556493759155,0.2851841747760772,-0.2473547458648681,-0.0157388616353273
1629897278616,0.2512353658676147,0.289144366979599,-0.2678739428520202,-0.0309497565031051
1629897278721,0.2478000223636627,0.2881301045417785,-0.2880786657333374,-0.042567178606987
1629897278799,0.2450792789459228,0.2869346737861633,-0.3009018301963806,-0.054466612637043
1629897278887,0.2530099749565124,0.2897317111492157,-0.3034733831882477,-0.0700494721531868
1629897279036,0.267376184463501,0.2952226102352142,-0.3015177845954895,-0.0854587256908416
1629897279099,0.2829389572143554,0.299668401479721,-0.3036665618419647,-0.0943512991070747
1629897279224,0.2962472438812256,0.3006276488304138,-0.3104487955570221,-0.092830404639244
1629897279317,0.297825425863266,0.2973863184452057,-0.3136977553367615,-0.0858889818191528
1629897279454,0.2882006466388702,0.2920544743537903,-0.3074966967105865,-0.0826679542660713
1629897279502,0.2759677171707153,0.287695974111557,-0.2950550019741058,-0.0874515548348426
1629897279659,0.2659160792827606,0.2869328558444977,-0.28523850440979,-0.096324048936367
1629897279722,0.2584598064422607,0.2913266718387604,-0.2817153632640838,-0.0984827503561973
1629897279800,0.2577009797096252,0.2999180555343628,-0.2789462804794311,-0.0853668898344039
1629897279909,0.2531813085079193,0.3103340268135071,-0.2716419100761413,-0.0634272396564483
1629897280015,0.2416657209396362,0.3204913735389709,-0.2597384452819824,-0.0449879057705402
1629897280085,0.2306596636772155,0.3287217617034912,-0.2484925836324691,-0.0332731306552886
1629897280241,0.2159887701272964,0.3339075148105621,-0.244504377245903,-0.026490181684494
1629897280350,0.2036290019750595,0.3351868391036987,-0.2486534267663955,-0.0192375238984823
1629897280446,0.1967146098613739,0.3336911797523498,-0.2551662921905517,-0.0080077890306711
1629897280519,0.1893720775842666,0.3343632221221924,-0.2534641325473785,0.001736426143907
1629897280612,0.1865927129983902,0.340591549873352,-0.2379034161567688,0.0073565114289522
1629897280753,0.1859838515520095,0.3506046533584595,-0.2140649855136871,0.0086663654074072
1629897280862,0.190191850066185,0.3591513931751251,-0.1933293342590332,0.0081688947975635
1629897280975,0.2016806304454803,0.3648678064346313,-0.1796625703573227,0.0137235578149557
1629897281069,0.2130540907382965,0.3717875480651855,-0.169022724032402,0.027524396777153
1629897281116,0.2172815352678299,0.3830585777759552,-0.1562532484531402,0.0464060828089714
1629897281225,0.2167356163263321,0.3956838250160217,-0.1435758173465728,0.0606354214251041
1629897281366,0.2124859392642974,0.4040918052196502,-0.1372846513986587,0.064669668674469
1629897281460,0.2075730860233307,0.4063717424869537,-0.1424255818128585,0.0617559254169464
1629897281553,0.209523394703865,0.4048676490783691,-0.1581023037433624,0.0584032163023948
1629897281647,0.207136258482933,0.4027645885944366,-0.1776399612426757,0.0558862537145614
1629897281725,0.2054656445980072,0.4008765518665313,-0.1937920898199081,0.0512086451053619
1629897281850,0.2019107639789581,0.3988445401191711,-0.2021772265434265,0.0410317070782184
1629897281913,0.1888407617807388,0.395995020866394,-0.2035534828901291,0.0253899972885847
1629897282087,0.1806049346923828,0.3907215893268585,-0.2027148753404617,0.0123082539066672
1629897282165,0.1722934246063232,0.381395161151886,-0.2035858333110809,0.0074152294546365
1629897282315,0.1665603816509246,0.3691510558128357,-0.2102340310811996,0.0122165661305189
1629897282362,0.1643230020999908,0.3592585921287536,-0.2229126095771789,0.0235372707247734
1629897282518,0.1566226035356521,0.3569040298461914,-0.2391197830438614,0.0317395515739917
1629897282565,0.1454692929983139,0.3613371253013611,-0.2564080953598022,0.0314810574054718
1629897282722,0.1395844519138336,0.3671528697013855,-0.2716726958751678,0.0229701064527034
1629897282815,0.1350785940885543,0.3694029748439789,-0.2824349403381347,0.0110311452299356
1629897282847,0.1329132318496704,0.3672032952308655,-0.2880091965198517,-0.0006546902004629
1629897282964,0.1356971710920334,0.3629379272460937,-0.2865056097507477,-0.0124826654791831
1629897283085,0.1343721449375152,0.358724445104599,-0.2794461548328399,-0.0288958977907896
1629897283163,0.1388872563838958,0.3554640114307403,-0.2715745866298675,-0.048262283205986
1629897283331,0.1470515727996826,0.3540822565555572,-0.2667830288410187,-0.0655041709542274
1629897283392,0.1587590873241424,0.3558123707771301,-0.2686236500740051,-0.0744474157691001
1629897283485,0.1751096099615097,0.3601760268211365,-0.2790761291980743,-0.0736407488584518
1629897283579,0.184670478105545,0.3648419678211212,-0.2988348007202148,-0.0711287334561348
1629897283657,0.1896785497665405,0.3679766952991485,-0.327385276556015,-0.073206178843975
1629897283751,0.1935823410749435,0.3694618940353393,-0.3573142886161804,-0.0824170559644699
1629897283910,0.1961472332477569,0.3690437376499176,-0.376524806022644,-0.0965457558631897
1629897283988,0.2000494748353958,0.3627176284790039,-0.3801133334636688,-0.1122806444764137
1629897284097,0.2043460756540298,0.3468945920467376,-0.3728828430175781,-0.1273911446332931
1629897284207,0.2033597081899643,0.323031485080719,-0.3639875948429107,-0.1379236280918121
1629897284300,0.1994856745004654,0.2992972731590271,-0.3565610647201538,-0.1353757530450821
1629897284363,0.1976024508476257,0.2840055525302887,-0.3493506610393524,-0.1167275235056877
1629897284504,0.1983690410852432,0.2779544293880462,-0.3447948396205902,-0.0897618681192398
1629897284613,0.2028186917304992,0.2769396603107452,-0.3453156948089599,-0.0622280687093734
1629897284722,0.2085660248994827,0.2770572900772095,-0.3476072251796722,-0.0400121808052063
1629897284850,0.2127811461687088,0.2762392163276672,-0.3424432575702667,-0.0217208694666624
1629897284913,0.2152004241943359,0.272987425327301,-0.3261022865772247,-0.0080934185534715
1629897285022,0.2219480127096176,0.266740083694458,-0.3034665286540985,0.0003978490130975
1629897285132,0.2274066358804702,0.2584763765335083,-0.2843393683433532,0.0037945637013763
1629897285194,0.2278784215450287,0.2502466142177582,-0.2719825208187103,0.0043377233669161
1629897285272,0.2216808050870895,0.2437221556901931,-0.2643463015556335,0.0050413752906024
1629897285444,0.2093298584222793,0.2410327792167663,-0.2613120675086975,0.00534946937114
1629897285506,0.201680988073349,0.2469482719898224,-0.2601685523986816,0.0033316705375909
1629897285616,0.2069375216960907,0.2627748548984527,-0.2540247738361358,-0.0010415005963295
1629897285725,0.2204866558313369,0.2828767895698547,-0.2388963848352432,-0.0094377472996711
1629897285866,0.2396627515554428,0.2979300618171692,-0.2185316532850265,-0.0243659596890211
1629897285928,0.2499724477529525,0.3032644689083099,-0.2040646374225616,-0.0492821894586086
1629897285991,0.2485778033733368,0.301526665687561,-0.1980202198028564,-0.0816862061619758
1629897286100,0.2438174933195114,0.2969306111335754,-0.1953316330909729,-0.1128630712628364
1629897286241,0.23897685110569,0.2914882898330688,-0.1936687529087066,-0.1345569640398025
1629897286336,0.2344687283039093,0.2853132784366607,-0.1963067203760147,-0.1461301743984222
1629897286476,0.228370800614357,0.2789715230464935,-0.2049460858106613,-0.1506261676549911
1629897286539,0.2107818722724914,0.2741087675094604,-0.2170351147651672,-0.1514535546302795
1629897286648,0.1854083836078643,0.2705001533031463,-0.2262284308671951,-0.1479913592338562
1629897286742,0.1623935848474502,0.2680639028549194,-0.2299236059188842,-0.1416422128677368
1629897286839,0.1467489153146743,0.2674963474273681,-0.2287860065698623,-0.1365552991628646
1629897286964,0.1432167440652847,0.2681558728218078,-0.2231058180332183,-0.13417449593544
1629897287073,0.1483063846826553,0.2654309868812561,-0.217634916305542,-0.1315556615591049
1629897287136,0.1470365077257156,0.2550506591796875,-0.2222994118928909,-0.1305677890777588
1629897287276,0.1436569690704345,0.2385070770978927,-0.2433414161205291,-0.1280568838119506
1629897287370,0.1437844038009643,0.2223416268825531,-0.2782635986804962,-0.1237428337335586
1629897287495,0.1508940458297729,0.2099535912275314,-0.3132591545581817,-0.1133579090237617
1629897287558,0.1687808334827423,0.19850455224514,-0.3385533690452575,-0.0959870740771293
1629897287683,0.1828925162553787,0.1859326958656311,-0.3532052636146545,-0.077654592692852
1629897287761,0.1915219128131866,0.1780852675437927,-0.3559670448303222,-0.0619165450334548
1629897287839,0.20443195104599,0.1827468425035476,-0.3456951677799225,-0.0520422868430614
1629897287932,0.218607559800148,0.1995792686939239,-0.3266657888889313,-0.0483552478253841
1629897288042,0.2356980890035629,0.2214169651269912,-0.306814044713974,-0.0480788499116897
1629897288153,0.2561209797859192,0.2431806921958923,-0.292607843875885,-0.044603768736124
1629897288277,0.2748866975307464,0.2618280351161957,-0.2842901945114136,-0.030372254550457
1629897288374,0.2933363616466522,0.2755571603775024,-0.2796846032142639,-0.0057021053507924
1629897288497,0.3080227673053741,0.2850365042686462,-0.281009167432785,0.022135492414236
1629897288588,0.3182376325130462,0.2949848473072052,-0.2889356613159179,0.0465481728315353
1629897288621,0.3264552056789398,0.3098818361759186,-0.2973133325576782,0.0681501030921936
1629897288791,0.3318428993225097,0.3277734518051147,-0.2965977489948272,0.0880360901355743
1629897288931,0.3309183120727539,0.3431864976882934,-0.2801090180873871,0.1058824360370636
1629897288965,0.3225680589675903,0.3532163500785827,-0.2541146278381347,0.1170402243733406
1629897289060,0.3121812045574188,0.3592768609523773,-0.2284887731075287,0.1204839870333671
1629897289170,0.3110733330249786,0.3642166554927826,-0.2070775479078292,0.120013527572155
1629897289239,0.3195309340953827,0.3688790500164032,-0.1883585602045059,0.1194988712668418
1629897289379,0.3345423638820648,0.3726846873760223,-0.1702222675085067,0.1218511536717414
1629897289489,0.3449199795722961,0.373471736907959,-0.1547607183456421,0.1237845048308372
1629897289604,0.3466337621212005,0.3687538206577301,-0.1454753577709198,0.1214489489793777
1629897289698,0.340215116739273,0.3578552007675171,-0.1423649936914444,0.111700028181076
1629897289776,0.3271287679672241,0.3441595137119293,-0.1428516507148742,0.0910855233669281
1629897289881,0.3137834370136261,0.3333713114261627,-0.1438699215650558,0.0623490363359451
1629897290005,0.305653303861618,0.327491819858551,-0.1422160267829895,0.0304582770913839
1629897290052,0.2990859150886535,0.3229016363620758,-0.1375188827514648,0.0004073253658134
1629897290162,0.2970938682556152,0.3152675330638885,-0.1331194341182708,-0.0250828862190246
1629897290271,0.3017632961273193,0.3059484958648681,-0.1332143098115921,-0.049394391477108
1629897290380,0.3125191628932953,0.3004750907421112,-0.1411523222923278,-0.0740444958209991
1629897290474,0.3302724659442901,0.3029884099960327,-0.1523270010948181,-0.0948397815227508
1629897290630,0.3455607295036316,0.3115198910236358,-0.1594131290912628,-0.1080437302589416
1629897290693,0.3518934845924377,0.3215575516223907,-0.1604697108268737,-0.1091107055544853
1629897290819,0.3499104678630829,0.3291380107402801,-0.1610601097345352,-0.0959868431091308
1629897290867,0.3361964225769043,0.3317993581295013,-0.1657587140798568,-0.0723433271050453
1629897290976,0.3195268511772156,0.3304959833621979,-0.1714255660772323,-0.0421800427138805
1629897291133,0.3054051101207733,0.3288130462169647,-0.1716165691614151,-0.012910321354866
1629897291211,0.2937870323657989,0.3303034901618957,-0.1652864217758178,0.0069315917789936
1629897291289,0.2876019477844238,0.336507111787796,-0.1548040807247162,0.018015369772911
1629897291398,0.2809547781944275,0.344933420419693,-0.1432716101408004,0.0227665212005376
1629897291492,0.2700611650943756,0.351639449596405,-0.1329775303602218,0.0257130712270736
1629897291617,0.2619330286979675,0.3546241819858551,-0.1239452436566352,0.0326839461922645
1629897291664,0.2524860501289367,0.354263424873352,-0.1158142760396003,0.0404119789600372
1629897291836,0.240654170513153,0.3525607585906982,-0.1068378165364265,0.046494010835886
1629897291916,0.22686567902565,0.3517239391803741,-0.095752976834774,0.0477485246956348
1629897292026,0.2093963921070099,0.3527753353118896,-0.0843691602349281,0.0424808003008365
1629897292119,0.1912217438220977,0.3550092279911041,-0.0752788856625557,0.0318287685513496
1629897292213,0.1732396632432937,0.3555820882320404,-0.0701959356665611,0.0137795731425285
1629897292291,0.1563625335693359,0.3511900305747986,-0.0699582248926162,-0.0142740802839398
1629897292432,0.1509324759244918,0.3414273262023926,-0.0748030692338943,-0.0509100183844566
1629897292541,0.1663500964641571,0.3303317129611969,-0.0838365629315376,-0.0887966677546501
1629897292635,0.1983839124441146,0.3230312764644623,-0.0955865532159805,-0.1197010278701782
1629897292713,0.2325899749994278,0.3207513093948364,-0.1076256558299064,-0.136549025774002
1629897292821,0.2564251124858856,0.3184707760810852,-0.1208882480859756,-0.1425428986549377
1629897292914,0.2711623013019562,0.3106377422809601,-0.1354863494634628,-0.1429352909326553
1629897293053,0.2793752253055572,0.2970961928367615,-0.1483123302459716,-0.1439379751682281
1629897293116,0.2803887128829956,0.2817729413509369,-0.1570401191711425,-0.1548062115907669
1629897293209,0.275938481092453,0.2684692740440368,-0.1612931042909622,-0.1715440452098846
1629897293350,0.2667414247989654,0.2565459311008453,-0.1659683436155319,-0.1896055191755294
1629897293428,0.2565669119358063,0.2421774417161941,-0.1755450069904327,-0.2006622701883316
1629897293506,0.2519775331020355,0.2239691168069839,-0.1903192102909088,-0.196376696228981
1629897293647,0.2552522420883178,0.2072020173072815,-0.2074187844991684,-0.1738030165433883
1629897293741,0.2634299695491791,0.1995207071304321,-0.2220926284790039,-0.1361842602491378
1629897293850,0.2656786441802978,0.205213725566864,-0.2299573868513107,-0.0973685458302497
1629897293931,0.2557258903980255,0.2208566069602966,-0.2303323447704315,-0.0735829398036003
1629897294072,0.2313378900289535,0.2375291138887405,-0.2270363271236419,-0.0710071772336959
1629897294133,0.196757510304451,0.2477579414844513,-0.224108338356018,-0.0813712626695633
1629897294265,0.1699440032243728,0.2487681210041046,-0.2229271680116653,-0.0917049199342727
1629897294359,0.1630664318799972,0.2424225360155105,-0.2207346707582473,-0.0945642739534378
1629897294437,0.1671343892812729,0.2333372831344604,-0.2187561094760894,-0.093741774559021
1629897294578,0.1747805476188659,0.2245567739009857,-0.2216282337903976,-0.0907471850514411
1629897294737,0.1756070554256439,0.2162556946277618,-0.2330210953950882,-0.0858815759420394
1629897294784,0.1687807589769363,0.208566129207611,-0.2514097690582275,-0.0803938060998916
1629897294940,0.1615461260080337,0.203470230102539,-0.2695276141166687,-0.0725120604038238
1629897294971,0.153990089893341,0.2042172998189926,-0.2821105718612671,-0.06324003636837
1629897295065,0.1427887976169586,0.2123899459838867,-0.2888278067111969,-0.0547350868582725
1629897295221,0.1304743289947509,0.2248236387968063,-0.2942334115505218,-0.054058764129877
1629897295268,0.1143153458833694,0.2365448474884033,-0.3045981526374817,-0.0714840069413185
1629897295346,0.1018723547458648,0.2442868053913116,-0.3240012228488922,-0.1062641218304634
1629897295487,0.0943426862359047,0.2479552030563354,-0.3522777259349823,-0.143326461315155
1629897295596,0.0884402617812156,0.2491624504327774,-0.3815553188323974,-0.1674854606389999
1629897295674,0.0848305746912956,0.2503590285778045,-0.4017379879951477,-0.1757178455591201
1629897295755,0.0783633887767791,0.2542842626571655,-0.407680869102478,-0.1779932230710983
1629897295833,0.0641667917370796,0.2632910907268524,-0.403310090303421,-0.1842854022979736
1629897295927,0.0468458421528339,0.2772452235221863,-0.3968687355518341,-0.194031149148941
1629897296083,0.0313814990222454,0.2931276857852936,-0.3914683759212494,-0.2039829045534134
1629897296177,0.0238998867571353,0.3073210716247558,-0.3875552117824554,-0.2071804404258728
1629897296302,0.0315176248550415,0.3175836205482483,-0.3856140673160553,-0.1996758431196212
1629897296380,0.0443302281200885,0.323831558227539,-0.3872621059417724,-0.1876402348279953
1629897296489,0.0497972704470157,0.3272781670093536,-0.3888681828975677,-0.168375164270401
1629897296599,0.0536793544888496,0.3305626809597015,-0.3788607120513916,-0.1116070970892906
1629897296692,0.0504887960851192,0.3380478918552398,-0.3385141491889953,0.015883145853877
1629897296855,0.0479121208190918,0.3518054187297821,-0.2640890181064605,0.1842629015445709
1629897296886,0.0529608428478241,0.3668483197689056,-0.1806869506835937,0.3244387805461883
1629897297042,0.0645569562911987,0.3775102198123932,-0.1106823831796646,0.4153093993663788
1629897297120,0.0834920033812522,0.3826122879981994,-0.0664693489670753,0.4592340886592865
1629897297245,0.0998325496912002,0.3868103325366974,-0.0441813953220844,0.4773793816566467
1629897297308,0.1048278659582138,0.3928748071193695,-0.0370007082819938,0.4856580793857574
1629897297401,0.0990856289863586,0.39911088347435,-0.0381449870765209,0.491095095872879
1629897297526,0.0898922681808471,0.4020603895187378,-0.04180508852005,0.4942091107368469
1629897297589,0.0898922681808471,0.4010464549064636,-0.0449591726064682,0.4948355555534363
1629897297729,0.0898922681808471,0.3990795612335205,-0.0449096076190471,0.4938156008720398
1629897297795,0.0898922681808471,0.3994013667106628,-0.0414913743734359,0.4918055832386017
1629897297920,0.0898922681808471,0.4023820757865906,-0.0342704765498638,0.4903200268745422
1629897298013,0.0249680653214454,0.4048556089401245,-0.0256377402693033,0.4884004890918731
1629897298107,0.0608575455844402,0.401938647031784,-0.02296301163733,0.4769923388957977
1629897298216,0.0833728089928627,0.390567272901535,-0.0371529310941696,0.4388433694839477
1629897298295,0.1123234555125236,0.3726882934570312,-0.0767903625965118,0.3577531278133392
1629897298435,0.1436601877212524,0.3556132018566131,-0.1374207437038421,0.2411237955093383
1629897298560,0.1762591153383255,0.3440186083316803,-0.2063082307577133,0.118022508919239
1629897298623,0.2046637684106826,0.3367011547088623,-0.2620313465595245,0.0407058149576187
1629897298812,0.2160789519548416,0.3280659914016723,-0.2966374158859253,0.0101797701790928
1629897298844,0.2177328765392303,0.3174628913402557,-0.3130860030651092,-8.136643737088889e-05
1629897298906,0.2120338082313537,0.3086582124233246,-0.3185319602489471,-0.0040594702586531
1629897298984,0.201219379901886,0.3049107193946838,-0.3183429539203644,-0.0002790981379803
1629897299141,0.1924796998500824,0.3049862086772918,-0.3174239099025726,0.0101680364459753
1629897299219,0.1967067271471023,0.3043886125087738,-0.3208230137825012,0.0202976036816835
1629897299328,0.2006432265043258,0.2998600602149963,-0.3298573493957519,0.023536005988717
1629897299437,0.2020377963781356,0.2910665571689605,-0.3471374213695526,0.0155136967077851
1629897299515,0.1980634331703186,0.2809737622737884,-0.3711580634117126,-0.002160949865356
1629897299609,0.1935697942972183,0.2722252309322357,-0.397185355424881,-0.0240246728062629
1629897299751,0.1885113269090652,0.2633110284805298,-0.420905202627182,-0.044050458818674
1629897299924,0.177747368812561,0.2502350807189941,-0.4371964633464813,-0.0613438077270984
1629897299987,0.1611461490392685,0.2324215918779373,-0.4413992166519165,-0.0778179615736007
1629897300049,0.1404922604560852,0.2158020883798599,-0.4294953048229217,-0.094848908483982
1629897300127,0.1150799915194511,0.2075979560613632,-0.4084697663784027,-0.1135081946849823
1629897300252,0.0983982607722282,0.2098899632692337,-0.3882369101047516,-0.1269395649433136
1629897300393,0.0905590504407882,0.217397540807724,-0.374846875667572,-0.1296214163303375
1629897300470,0.0903258547186851,0.2243661880493164,-0.3669535219669342,-0.1205978840589523
1629897300533,0.0980434492230415,0.2298671454191208,-0.3584630787372589,-0.1062835454940795
1629897300642,0.1051655188202858,0.2359866499900818,-0.3424199223518371,-0.0963959470391273
1629897300736,0.1120916679501533,0.2453060895204544,-0.3135501742362976,-0.0917901247739791
1629897300864,0.119568295776844,0.2580797672271728,-0.27536740899086,-0.087988793849945
1629897301004,0.1283666789531707,0.2714658379554748,-0.2370452582836151,-0.0804586410522461
1629897301067,0.133311465382576,0.2817379236221313,-0.2071290463209152,-0.0723891705274581
1629897301161,0.1333736479282379,0.2876622378826141,-0.185741439461708,-0.067332699894905
1629897301286,0.1338981837034225,0.2912802100181579,-0.1680085062980651,-0.0667603835463523
1629897301395,0.1364979445934295,0.2957697510719299,-0.1509694904088974,-0.0703646019101142
1629897301457,0.147277683019638,0.3021357953548431,-0.1355603635311126,-0.0772884488105773
1629897301614,0.160700112581253,0.3074038028717041,-0.1255218237638473,-0.0873192846775055
1629897301692,0.1742951422929763,0.3085097670555115,-0.1216117739677429,-0.0984903872013092
1629897301789,0.1847238689661026,0.3041461706161499,-0.1221945285797119,-0.1120396628975868
1629897301894,0.1855769604444503,0.2955905795097351,-0.1222452968358993,-0.132629781961441
1629897301985,0.1786698549985885,0.285324364900589,-0.1178427264094352,-0.1633711010217666
1629897302063,0.168428286910057,0.2748495042324066,-0.1087365895509719,-0.2005181908607483
1629897302188,0.1574505418539047,0.2655049562454223,-0.0995338931679725,-0.2317034304141998
1629897302266,0.1492827534675598,0.2576571702957153,-0.0981687530875206,-0.2477442920207977
1629897302422,0.1458933651447296,0.2508303821086883,-0.1089826077222824,-0.252459853887558
1629897302453,0.139182299375534,0.245201364159584,-0.1292828321456909,-0.2554259896278381
1629897302594,0.1357993930578231,0.2420742362737655,-0.1506939679384231,-0.2565816640853882
1629897302703,0.1339479982852935,0.2438892275094986,-0.1675606220960617,-0.2542003989219665
1629897302831,0.1299455612897873,0.2504617273807525,-0.1805078238248825,-0.2488603442907333
1629897302940,0.1273338794708252,0.2584017813205719,-0.1929795145988464,-0.2419954091310501
1629897302971,0.1178317889571189,0.2641542255878448,-0.2087233662605285,-0.2390602380037307
1629897303095,0.0984888449311256,0.268492579460144,-0.2281294465065002,-0.2425996661186218
1629897303207,0.0880411714315414,0.2763096988201141,-0.248340368270874,-0.2452969998121261
1629897303252,0.0913779139518737,0.2910217642784118,-0.2648042738437652,-0.2427113354206085
1629897303453,0.1308553814888,0.3113197386264801,-0.2771768271923065,-0.2255654335021972
1629897303517,0.1969366818666458,0.332760751247406,-0.2885955572128296,-0.1909830719232559
1629897303609,0.2537543177604675,0.3516043722629547,-0.3057162165641784,-0.1459587812423706
1629897303686,0.2919112145900726,0.3662426173686981,-0.3321394026279449,-0.1016256958246231
1629897303798,0.3082417547702789,0.3760960698127746,-0.3630532920360565,-0.0694834738969802
1629897303910,0.30640310049057,0.3810213208198547,-0.3892438113689422,-0.0511119216680526
1629897304063,0.3010738790035248,0.3818823397159576,-0.4044524133205414,-0.0426713414490222
1629897304110,0.2953097224235534,0.3795892000198364,-0.4100127220153808,-0.0381453856825828
1629897304236,0.2923436164855957,0.3738308548927307,-0.4110845327377319,-0.0364860370755195
1629897304315,0.2964290678501129,0.3649912476539612,-0.412410706281662,-0.0368180684745311
1629897304395,0.3030596673488617,0.3544874787330627,-0.4144283533096313,-0.0374795012176036
1629897304519,0.3076111972332001,0.3443539142608642,-0.4146085977554321,-0.0379855148494243
1629897304613,0.3147397339344024,0.3358486294746399,-0.4097915887832641,-0.0335702113807201
1629897304725,0.3168000280857086,0.3259533643722534,-0.3991071581840515,-0.0277406647801399
1629897304818,0.3153996467590332,0.3106878995895386,-0.3865153193473816,-0.0241026468575
1629897304961,0.3012302219867706,0.2875645458698272,-0.3756695091724396,-0.0274519938975572
1629897305041,0.2686014771461487,0.2577188611030578,-0.3710042238235473,-0.045799646526575
1629897305087,0.2321600764989853,0.2259951680898666,-0.3716476857662201,-0.0799171030521392
1629897305213,0.2026973813772201,0.197287917137146,-0.371531993150711,-0.1242140457034111
1629897305308,0.1839488744735717,0.175303429365158,-0.3645057380199432,-0.1694089472293853
1629897305402,0.1786616742610931,0.1627755165100097,-0.3468170464038849,-0.2026791274547577
1629897305542,0.1793752759695053,0.1614570021629333,-0.3224255442619324,-0.2190447598695755
1629897305622,0.1840214282274246,0.1724508106708526,-0.2999549210071563,-0.2245169579982757
1629897305747,0.1949714422225952,0.1952116340398788,-0.2829051911830902,-0.2205974906682968
1629897305840,0.2035852521657943,0.2241288423538208,-0.2688023447990417,-0.2067410200834274
1629897305966,0.2036011964082718,0.2521323561668396,-0.2569020688533783,-0.187175303697586
1629897306046,0.2018508166074752,0.2757080793380737,-0.2477252036333084,-0.1643402874469757
1629897306154,0.1935360729694366,0.2941041886806488,-0.2435502558946609,-0.1467226296663284
1629897306247,0.178813949227333,0.3083231151103973,-0.2457775920629501,-0.1379979252815246
1629897306340,0.1599243134260177,0.3182928562164306,-0.2502443492412567,-0.1296653151512146
1629897306512,0.1349267363548278,0.3255480825901031,-0.2522225081920624,-0.116067461669445
1629897306558,0.1090201288461685,0.3332248032093048,-0.2494720667600631,-0.0963488891720771
1629897306620,0.0898683294653892,0.3440782725811004,-0.2428244799375534,-0.0768030509352684
1629897306744,0.0727864578366279,0.3579915761947632,-0.2380944341421127,-0.0675341188907623
1629897306869,0.07379000633955,0.3728522658348083,-0.2415413409471511,-0.0672220066189765
1629897306900,0.0888469740748405,0.3855125606060028,-0.2554528713226318,-0.0709185302257537
1629897307057,0.1078798696398735,0.3927198052406311,-0.277159720659256,-0.0737711936235427
1629897307149,0.1275363564491272,0.3925038278102875,-0.3001608848571777,-0.074368767440319
1629897307245,0.13274747133255,0.3853372931480407,-0.3217022716999054,-0.0738931447267532
1629897307321,0.1312197744846344,0.3752578198909759,-0.3398852348327636,-0.0759360417723655
1629897307447,0.1353473961353302,0.366787850856781,-0.3473672866821289,-0.079471580684185
1629897307558,0.1417286992073059,0.3613190352916717,-0.3378674387931824,-0.080937422811985
1629897307684,0.1533372551202774,0.3580018877983093,-0.3111273348331451,-0.0788705423474311
1629897307810,0.1698307991027832,0.3564182221889496,-0.2757869660854339,-0.0724127367138862
1629897307854,0.1860010176897049,0.3585254848003387,-0.2441081404685974,-0.0683698505163192
1629897307947,0.2025400549173355,0.3650120794773102,-0.221263125538826,-0.0714581906795501
1629897308072,0.2197876572608947,0.3732421696186065,-0.2069718539714813,-0.0804254785180091
1629897308149,0.2316211462020874,0.3782041668891907,-0.1993165165185928,-0.0899700596928596
1629897308275,0.2419519871473312,0.377704918384552,-0.192346841096878,-0.0899820253252983
1629897308368,0.2501851916313171,0.3736918270587921,-0.1804929822683334,-0.0763700455427169
1629897308462,0.2515835165977478,0.369449257850647,-0.1622287034988403,-0.0544646196067333
1629897308541,0.2480749487876892,0.367400199174881,-0.1414786428213119,-0.0301870051771402
1629897308681,0.2421219795942306,0.3674505352973938,-0.123267650604248,-0.0073550450615584
1629897308820,0.2353011220693588,0.3671923577785492,-0.107725977897644,0.0087952343747019
1629897308880,0.233060136437416,0.3645581603050232,-0.0939749330282211,0.0195254199206829
1629897308991,0.2299989759922027,0.358911395072937,-0.0845935717225074,0.0274073798209428
1629897309099,0.2292661219835281,0.3508888483047485,-0.0838005393743515,0.0355519354343414
1629897309164,0.2325523644685745,0.3422438204288482,-0.0937154069542884,0.0441916361451149
1629897309286,0.2354599237442016,0.3347441256046295,-0.1102874353528022,0.0496088527143001
1629897309382,0.2371452897787094,0.3284745812416076,-0.1256555318832397,0.050796803086996
1629897309504,0.2376641184091568,0.3222526907920837,-0.1348254233598709,0.0485301874577999
1629897309582,0.2310431450605392,0.31442990899086,-0.1366460621356964,0.0477816462516784
1629897309690,0.2229582220315933,0.3048674762248993,-0.1340871602296829,0.0501407757401466
1629897309783,0.2151761800050735,0.2946777641773224,-0.1290546953678131,0.0533137135207653
1629897309847,0.2042055875062942,0.2847357988357544,-0.1247309893369674,0.0511208623647689
1629897309986,0.2007334232330322,0.2770470678806305,-0.1252980232238769,0.0387632101774215
1629897310111,0.2116975784301757,0.2741908431053161,-0.1290327608585357,0.0189282912760972
1629897310237,0.2285240888595581,0.2766183316707611,-0.133063331246376,-0.0014939884422346
1629897310300,0.25394007563591,0.2820650339126587,-0.1361392885446548,-0.0112334275618195
1629897310378,0.2713604271411896,0.2872762978076935,-0.1395764797925949,-0.0072606755420565
1629897310489,0.2805631458759308,0.2904528081417084,-0.1447028219699859,0.003430851502344
1629897310567,0.2914544939994812,0.2912423014640808,-0.1496355682611465,0.0157483201473951
1629897310753,0.3060403764247894,0.2898607552051544,-0.1526734381914138,0.0345208011567592
1629897310815,0.3252393305301666,0.2871293127536773,-0.1571837663650512,0.0629003196954727
1629897310879,0.343106210231781,0.2845005095005035,-0.1657896637916565,0.0940730050206184
1629897311050,0.3508336842060089,0.2831864953041076,-0.1784140467643737,0.1158695742487907
1629897311100,0.3569626808166504,0.2851511538028717,-0.1904461085796356,0.1250494718551635
1629897311221,0.3613168895244598,0.2920706570148468,-0.1972422003746032,0.1246951669454574
1629897311316,0.3644939064979553,0.303545594215393,-0.2013029754161834,0.119349181652069
1629897311427,0.3667946457862854,0.3156693577766418,-0.2065934985876083,0.1128891184926033
1629897311569,0.3643442988395691,0.323661744594574,-0.2144903242588043,0.1090440526604652
1629897311646,0.3546530902385711,0.3256020843982696,-0.2230452448129654,0.1076063066720962
1629897311709,0.339864432811737,0.3234557807445526,-0.2283151745796203,0.1061633750796318
1629897311852,0.3188917338848114,0.3201720416545868,-0.2304572016000747,0.0989034548401832
1629897311977,0.2973428070545196,0.317099928855896,-0.2318224906921386,0.0832356661558151
1629897312087,0.2805730700492859,0.3149924874305725,-0.2363294512033462,0.0611324235796928
1629897312151,0.2601451873779297,0.3147652149200439,-0.2463333457708358,0.033450074493885
1629897312229,0.2327636927366256,0.3159132599830627,-0.259574830532074,-0.001869935542345
1629897312322,0.2039935290813446,0.3171463012695312,-0.2685438692569732,-0.0451680161058902
1629897312403,0.1783940494060516,0.3178788721561432,-0.2707420885562897,-0.0901432782411575
1629897312578,0.1698464155197143,0.3194751739501953,-0.2695881426334381,-0.117666095495224
1629897312688,0.1743555665016174,0.3219449818134308,-0.274559736251831,-0.1209885999560356
1629897312750,0.1851971894502639,0.3232716619968414,-0.2878080904483795,-0.1085709780454635
1629897312825,0.1995519548654556,0.3214012682437897,-0.3045572638511657,-0.0932992100715637
1629897312889,0.2160301357507705,0.3173228800296783,-0.3179061114788055,-0.0814227536320686
1629897313029,0.2285379469394683,0.313759446144104,-0.3211955428123474,-0.075828269124031
1629897313139,0.238940954208374,0.3125492036342621,-0.3152429461479187,-0.0744501873850822
1629897313281,0.2475988417863845,0.3137393295764923,-0.3050674200057983,-0.0748591572046279
1629897313375,0.2557522356510162,0.3164715468883514,-0.2953040897846222,-0.0712432935833931
1629897313420,0.2657413184642792,0.3191099166870117,-0.2895617485046386,-0.0644284784793853
1629897313498,0.273419588804245,0.3201945424079895,-0.2860819697380066,-0.0589935891330242
1629897313655,0.2780626714229584,0.3199148774147033,-0.2820721566677093,-0.0594162233173847
1629897313731,0.2801006138324737,0.3201036155223846,-0.276006132364273,-0.067196324467659
1629897313871,0.2734050452709198,0.3216032087802887,-0.2699422836303711,-0.0740245580673217
1629897313948,0.2612725794315338,0.3225756287574768,-0.2663452923297882,-0.0714649185538292
1629897314105,0.2462861835956573,0.3201347887516022,-0.2667448818683624,-0.0604306384921073
1629897314149,0.2275930643081665,0.313235878944397,-0.2701229751110077,-0.0508667677640914
1629897314228,0.2134452760219574,0.3027776181697845,-0.275696337223053,-0.0474998690187931
1629897314371,0.2063902616500854,0.2916687130928039,-0.2827322781085968,-0.0464650429785251
1629897314465,0.2010337561368942,0.282677412033081,-0.2891948819160461,-0.0428264029324054
1629897314576,0.2012335360050201,0.2786887288093567,-0.2911803424358368,-0.0301754977554082
1629897314683,0.1979161649942398,0.2807919979095459,-0.2888341844081878,-0.0132890539243817
1629897314746,0.1903261840343475,0.2869380712509155,-0.2845443785190582,0.0007793435943312
1629897314839,0.1813336312770843,0.2946148812770843,-0.2805324494838714,0.0063221110031008
1629897314962,0.1706215739250183,0.3023916184902191,-0.2759845554828644,0.0038296685088425
1629897315057,0.1664041578769683,0.310095876455307,-0.2693451046943664,0.0032435907050967
1629897315184,0.1703768968582153,0.3167149126529693,-0.2607026100158691,0.0108763063326478
1629897315325,0.1752886772155761,0.3208979964256286,-0.2523592114448547,0.0222298000007867
1629897315372,0.1881406903266906,0.3236801624298095,-0.2462326437234878,0.0285212285816669
1629897315464,0.2035705149173736,0.328770637512207,-0.2422197312116623,0.020816970616579
1629897315606,0.2152418792247772,0.3384790122509002,-0.2393380999565124,-0.0004272807273082
1629897315698,0.2260805517435073,0.3514749407768249,-0.2353430092334747,-0.0275054909288883
1629897315853,0.229268804192543,0.3646348416805267,-0.2284542173147201,-0.0520450137555599
1629897315901,0.2221756428480148,0.3749687969684601,-0.2187153100967407,-0.0688838213682174
1629897315994,0.210843339562416,0.3812277615070343,-0.2071821242570877,-0.0785740837454795
1629897316087,0.191016599535942,0.3816181123256683,-0.1989880055189132,-0.0880094245076179
1629897316212,0.1727028489112854,0.3764673769474029,-0.1977518945932388,-0.0977750122547149
1629897316293,0.1650610268115997,0.3704319894313812,-0.2050807327032089,-0.1030844300985336
1629897316418,0.1660303473472595,0.3699267208576202,-0.2183623611927032,-0.0996281057596206
1629897316514,0.1755421459674835,0.3782026469707489,-0.2333187758922577,-0.0885579213500022
1629897316544,0.1875261515378952,0.3928131461143493,-0.2472918778657913,-0.0798083916306495
1629897316653,0.1945197880268097,0.4086746871471405,-0.2594833672046661,-0.0792398750782013
1629897316794,0.2037653028964996,0.4230368137359619,-0.2707306444644928,-0.0818119123578071
1629897316950,0.2077178508043289,0.4351450800895691,-0.2803637683391571,-0.0835678353905677
1629897317011,0.2074367105960846,0.443601906299591,-0.2854699194431305,-0.0784529149532318
1629897317088,0.2153242975473404,0.4474848210811615,-0.2798618376255035,-0.0659219548106193
1629897317183,0.2263996005058288,0.4480036795139313,-0.2615211308002472,-0.050386719405651
1629897317279,0.2405483275651931,0.4492214024066925,-0.2354461699724197,-0.035811897367239
1629897317420,0.2580960094928741,0.4541317522525787,-0.2097326517105102,-0.0263887643814086
1629897317497,0.2653241157531738,0.4609293937683105,-0.1930311620235443,-0.0244311038404703
1629897317625,0.2722190022468567,0.4669062197208404,-0.1864892840385437,-0.0280255079269409
1629897317717,0.2763638794422149,0.470131367444992,-0.1848800629377365,-0.0337865315377712
1629897317841,0.2756750583648681,0.4688999354839325,-0.1807129383087158,-0.0399206057190895
1629897317874,0.2732739746570587,0.460981011390686,-0.1693830639123916,-0.0470938198268413
1629897318031,0.2668834328651428,0.4449940919876098,-0.1524792313575744,-0.0555633790791034
1629897318109,0.2520096004009247,0.4223037362098694,-0.1361249983310699,-0.0672307834029197
1629897318252,0.234974518418312,0.3979990184307098,-0.1241959109902381,-0.0797691941261291
1629897318295,0.2157970517873764,0.3761284649372101,-0.116522803902626,-0.0945985317230224
1629897318389,0.1977772712707519,0.3572514653205871,-0.1101637259125709,-0.1124505996704101
1629897318497,0.1883418262004852,0.3398955762386322,-0.103547565639019,-0.1334345489740371
1629897318640,0.1747130453586578,0.3225791752338409,-0.1010002195835113,-0.158373475074768
1629897318732,0.1555436849594116,0.3062430322170257,-0.1080872938036918,-0.1870695352554321
1629897318811,0.131741464138031,0.2918151021003723,-0.1251067668199539,-0.2180357724428177
1629897318934,0.1066139712929725,0.2813464403152466,-0.1469457447528839,-0.2495099306106567
1629897319044,0.0993200615048408,0.2792592644691467,-0.1649581491947174,-0.2753024995326996
1629897319108,0.1079806312918663,0.287580668926239,-0.1751933395862579,-0.2883507311344147
1629897319266,0.1259579211473465,0.3018175065517425,-0.1804411113262176,-0.294312059879303
1629897319372,0.142286479473114,0.3135975003242492,-0.1864663511514663,-0.3016564846038818
1629897319450,0.1545025110244751,0.3189148902893066,-0.1975042074918747,-0.3139029741287231
1629897319557,0.1605528891086578,0.3200197219848633,-0.2130827009677887,-0.3354479670524597
1629897319590,0.169480875134468,0.3206382095813751,-0.2247418165206909,-0.3570747971534729
1629897319731,0.182096242904663,0.3218487203121185,-0.2240157276391983,-0.3802167773246765
1629897319885,0.197737768292427,0.3230668306350708,-0.210835188627243,-0.4007509350776672
1629897319948,0.2182306796312332,0.3246345520019531,-0.1942220628261566,-0.410999596118927
1629897320071,0.2326076030731201,0.3284011781215668,-0.1847212314605713,-0.4127433896064758
1629897320195,0.2367668002843856,0.3347719013690948,-0.1844871193170547,-0.4064467549324035
1629897320244,0.2352107018232345,0.3414031565189361,-0.1880853027105331,-0.3933449983596802
1629897320367,0.233781948685646,0.3453082740306854,-0.1919893771409988,-0.3715957105159759
1629897320478,0.2345236241817474,0.3444091379642486,-0.1957218796014785,-0.3384147882461548
1629897320600,0.2385379821062088,0.3387706279754638,-0.1969492733478546,-0.2997261881828308
1629897320647,0.2392803579568863,0.3297933936119079,-0.1924024373292923,-0.2621392607688904
1629897320754,0.2375382930040359,0.3200211524963379,-0.1819496154785156,-0.2270361483097076
1629897320878,0.240859255194664,0.3133041560649872,-0.1702728271484375,-0.1928835064172744
1629897320926,0.2411121129989624,0.3112051486968994,-0.160670518875122,-0.1613010317087173
1629897321067,0.2427190393209457,0.3128518760204315,-0.1500133872032165,-0.1349857747554779
1629897321175,0.2388869225978851,0.31684410572052,-0.1369680017232895,-0.1182614639401435
1629897321253,0.2268022149801254,0.3230461776256561,-0.1254438459873199,-0.1095257773995399
1629897321347,0.2105855196714401,0.3322128355503082,-0.1191105172038078,-0.1057874485850334
1629897321471,0.1900456100702285,0.3428510427474975,-0.1160889416933059,-0.1063044294714927
1629897321564,0.1695946902036667,0.35115447640419,-0.1106995642185211,-0.1092865467071533
1629897321673,0.1561325639486313,0.3546110391616821,-0.1029955595731735,-0.1134116128087043
1629897321782,0.148376777768135,0.3538374602794647,-0.0975183472037315,-0.1145780906081199
1629897321862,0.1397754549980163,0.3504855036735534,-0.0973634719848632,-0.115507498383522
1629897321987,0.129058301448822,0.3459587693214416,-0.1008662730455398,-0.118721067905426
1629897322065,0.1173141747713089,0.3402961194515228,-0.1060622110962867,-0.1229178756475448
1629897322192,0.1073343381285667,0.3335025906562805,-0.1132747679948806,-0.1277779042720794
1629897322365,0.1019299253821373,0.3259269595146179,-0.1231601908802986,-0.1295473575592041
1629897322396,0.0897799581289291,0.3175984919071197,-0.1337471306324005,-0.1358480453491211
1629897322491,0.0769854038953781,0.3090127408504486,-0.1413052678108215,-0.1495804637670517
1629897322569,0.0638123527169227,0.3003861308097839,-0.1455582082271576,-0.1643540263175964
1629897322710,0.0561392977833747,0.2916174829006195,-0.1498000919818878,-0.1743970215320587
1629897322759,0.056277398020029,0.2807392179965973,-0.1565638035535812,-0.1761368066072464
1629897322932,0.0594829991459846,0.2647841572761535,-0.1667534410953521,-0.1741258800029754
1629897322979,0.0592595934867858,0.2438288778066635,-0.1815007328987121,-0.169235423207283
1629897323104,0.0598700270056724,0.2228773683309555,-0.2001722007989883,-0.1558315008878708
1629897323196,0.0673049762845039,0.2102865427732467,-0.2190903425216674,-0.1340551674365997
1629897323258,0.0842952951788902,0.2094131708145141,-0.2310829162597656,-0.1079400777816772
1629897323368,0.1154779270291328,0.2075914442539215,-0.2280835807323455,-0.0843536779284477
1629897323508,0.1486609131097793,0.2077909857034683,-0.2107586860656738,-0.070674754679203
1629897323631,0.1704082041978836,0.206841766834259,-0.1860749125480651,-0.0693817362189292
1629897323694,0.184159442782402,0.2032644003629684,-0.1622345745563507,-0.0782389044761657
1629897323820,0.1850537061691284,0.1980842053890228,-0.1564937382936477,-0.097622737288475
1629897323914,0.1818037629127502,0.1952327638864517,-0.1501181870698928,-0.1194374933838844
1629897323975,0.1846543401479721,0.1977968513965606,-0.1451442837715149,-0.1355795860290527
1629897324114,0.1887523233890533,0.2055153399705886,-0.1520846039056778,-0.1450778394937515
1629897324252,0.2000695914030075,0.2149405479431152,-0.1669276058673858,-0.1440517306327819
1629897324364,0.2165351510047912,0.2339871972799301,-0.1813595294952392,-0.1340274065732956
1629897324408,0.229877158999443,0.2487318664789199,-0.1908663064241409,-0.1203703507781028
1629897324517,0.2450820654630661,0.2633342742919922,-0.1941627264022827,-0.1103745251893997
1629897324595,0.2586518228054046,0.2776161134243011,-0.1953446418046951,-0.1121179088950157
1629897324719,0.2659556269645691,0.2874245345592499,-0.19245545566082,-0.1270164102315902
1629897324828,0.2690648734569549,0.2940872311592102,-0.1850740909576416,-0.1530584096908569
1629897324938,0.2641752064228058,0.3056629598140716,-0.1796556860208511,-0.1855088770389557
1629897325063,0.2584163844585418,0.3158952593803406,-0.1809862554073333,-0.2156823128461837
1629897325110,0.2560244798660278,0.3213556706905365,-0.1899842023849487,-0.2388633340597152
1629897325189,0.2503193616867065,0.3230950236320495,-0.201080322265625,-0.2565719485282898
1629897325362,0.2460698783397674,0.3256240785121918,-0.1900863051414489,-0.2664074003696441
1629897325487,0.2421196401119232,0.3320076763629913,-0.1825226694345474,-0.2688601315021515
1629897325532,0.234504759311676,0.3398513793945312,-0.181135892868042,-0.2628579437732696
1629897325609,0.2307801991701126,0.344559907913208,-0.1784273833036422,-0.2468336373567581
1629897325749,0.2257695198059082,0.3443895280361175,-0.1783000826835632,-0.2327403575181961
1629897325814,0.2197950184345245,0.3454701900482178,-0.1815090775489807,-0.2253129333257675
1629897325956,0.2191859185695648,0.3479927182197571,-0.1823715418577194,-0.2145864516496658
1629897326065,0.2149655222892761,0.3515831530094147,-0.1782704591751098,-0.1961512267589569
