timestamp,TP9,AF7,AF8,TP10
1629897192392,0.2183094471693039,0.3275970220565796,0.5861431956291199,0.0811752751469612
1629897192483,0.336656242609024,0.2930081188678741,0.530751645565033,0.0851556062698364
1629897192607,0.4977241158485412,0.2707400023937225,0.4237222075462341,0.0957030206918716
1629897192702,0.6434059143066406,0.2697459459304809,0.2636358439922333,0.1181418672204017
1629897192780,0.7406762838363647,0.2697459459304809,0.0850542858242988,0.1364054679870605
1629897192889,0.7897701859474182,0.2697459459304809,-0.0391140840947628,0.140244647860527
1629897192966,0.8060531616210938,0.2697459459304809,-0.0784708485007286,0.1312135905027389
1629897193140,0.8052625060081482,0.2909478545188904,-0.0782200172543525,0.1176727935671806
1629897193217,0.799481213092804,0.2942796051502228,-0.0552639439702034,0.1275506764650344
1629897193279,0.7969124913215637,0.3002644181251526,0.0161968432366848,0.2130344659090042
1629897193469,0.8234067559242249,0.3038008511066437,0.1317411661148071,0.3934729099273681
1629897193530,0.8672379851341248,0.2848082184791565,0.2460387945175171,0.5697868466377258
1629897193576,0.9147279262542723,0.2690272629261017,0.323377251625061,0.6910611391067505
1629897193703,0.9416580200195312,0.2664530575275421,0.3590523600578308,0.7107687592506409
1629897193796,0.9692818522453308,0.2826792299747467,0.3760673105716705,0.7314347624778748
1629897193920,0.9952463507652284,0.3136962652206421,0.3976141214370727,0.7563499212265015
1629897194000,1.0132802724838257,0.3498451113700866,0.4230845272541046,0.7859225869178772
1629897194110,1.0147159099578855,0.3891382217407226,0.4493907988071441,0.8178016543388367
1629897194204,0.995229423046112,0.4159049391746521,0.4751275479793548,0.851219892501831
1629897194330,0.963627278804779,0.4159049391746521,0.5020992755889893,0.8894273042678833
1629897194443,0.9389694929122924,0.4159049391746521,0.534013032913208,0.9367665648460388
1629897194501,0.9364713430404664,0.4159049391746521,0.574258029460907,0.9961842894554138
1629897194627,0.9598814845085144,0.4159049391746521,0.6246720552444458,1.069388747215271
1629897194692,1.0041488409042358,0.4159049391746521,0.6815280318260193,1.1532714366912842
1629897194764,1.0041488409042358,0.4159049391746521,0.7252008318901062,1.1532714366912842
1629897194907,1.0041488409042358,0.4159049391746521,0.7252008318901062,1.1532714366912842
1629897195046,1.0041488409042358,0.4159049391746521,0.7252008318901062,1.1532714366912842
1629897195138,1.0041488409042358,0.4159049391746521,0.7252008318901062,1.1532714366912842
1629897195230,1.0041488409042358,0.4159049391746521,0.7252008318901062,1.1532714366912842
1629897195308,1.0041488409042358,0.4159049391746521,0.7252008318901062,1.1532714366912842
1629897195418,1.0041488409042358,0.4159049391746521,0.7252008318901062,1.1532714366912842
1629897195559,1.0041488409042358,0.4159049391746521,0.7252008318901062,1.1532714366912842
1629897195669,1.0041488409042358,0.4159049391746521,0.225142017006874,1.1532714366912842
1629897195793,1.0041488409042358,0.4159049391746521,0.2160877585411071,1.1532714366912842
1629897195842,1.0041488409042358,0.4159049391746521,0.2004420608282089,1.1532714366912842
1629897195906,1.0041488409042358,0.4159049391746521,0.1695985049009323,1.1532714366912842
1629897196060,1.0041488409042358,0.4159049391746521,0.1289292573928833,1.1532714366912842
1629897196138,1.0041488409042358,0.4159049391746521,0.0899975001811981,1.1532714366912842
1629897196247,1.0041488409042358,0.4159049391746521,0.0565844811499118,1.1532714366912842
1629897196309,1.0041488409042358,0.4159049391746521,0.0298786759376525,1.1532714366912842
1629897196405,1.0041488409042358,0.4159049391746521,0.0065925219096243,1.1532714366912842
1629897196557,1.0041488409042358,0.1553763896226883,-0.0165930222719907,1.1532714366912842
1629897196652,1.0041488409042358,0.1716381013393402,-0.0406337305903434,1.1532714366912842
1629897196823,1.0041488409042358,0.1667124480009079,-0.0613526068627834,1.1532714366912842
1629897196870,1.0041488409042358,0.1509463340044021,-0.1294331401586532,1.1532714366912842
1629897196934,-0.0723897144198417,0.1316683143377304,-0.1631208211183548,1.1532714366912842
1629897197043,-0.1099421754479408,0.1103420034050941,-0.1717595010995865,0.1125063300132751
1629897197123,-0.146824449300766,0.0860526710748672,-0.188982218503952,0.1120629832148552
1629897197234,-0.1641821563243866,0.0572344399988651,-0.2256747335195541,0.1130907461047172
1629897197357,-0.1569727212190628,0.0256398357450962,-0.2631459534168243,0.1299093812704086
1629897197439,-0.1290453225374221,-0.0059037506580352,-0.2855516076087951,0.1614032983779907
1629897197546,-0.1035674214363098,-0.0356432981789112,-0.293298065662384,0.1905443370342254
1629897197624,-0.090210847556591,-0.0623309016227722,-0.2970630526542663,0.2061777859926223
1629897197751,-0.0866729393601417,-0.0877640396356582,-0.292668342590332,0.2110156714916229
1629897197847,-0.085288368165493,-0.1182660087943077,-0.2767789959907532,0.2135993391275406
1629897197955,-0.0703887119889259,-0.1545023322105407,-0.246646836400032,0.2186811715364456
1629897198097,-0.0381664857268333,-0.1850397735834121,-0.2085907906293869,0.2220933437347412
1629897198192,0.0027775079943239,-0.1964729726314544,-0.1701879054307937,0.2207843512296676
1629897198269,0.0543438047170639,-0.1883440166711807,-0.1396848261356353,0.2209532856941223
1629897198361,0.0948805063962936,-0.1750045716762542,-0.1255186349153518,0.2158796191215515
1629897198471,0.1177325472235679,-0.1637250483036041,-0.1306843161582946,0.2050036787986755
1629897198597,0.1335191875696182,-0.1408845484256744,-0.149859070777893,0.1894246339797973
1629897198711,0.1470904201269149,-0.0903267636895179,-0.174736738204956,0.1722505539655685
1629897198787,0.15891994535923,-0.0190693903714418,-0.1968548446893692,0.1535174399614334
1629897198882,0.1656883955001831,0.0490960404276847,-0.2139310836791992,0.1279987841844558
1629897198990,0.1682580709457397,0.1003132387995719,-0.2212447524070739,0.0929260179400444
1629897199038,0.176664650440216,0.1340719163417816,-0.2156460732221603,0.055478036403656
1629897199193,0.1943544000387191,0.1572718322277069,-0.2019421011209488,0.0247803647071123
1629897199303,0.2154797464609146,0.1723159253597259,-0.1944375336170196,1.6081585272331722e-05
1629897199381,0.2306244671344757,0.1771039813756942,-0.2041417062282562,-0.0296745132654905
1629897199473,0.2319447845220565,0.1710700243711471,-0.2337084263563156,-0.0712342709302902
1629897199582,0.2171048074960708,0.1541414409875869,-0.2749778926372528,-0.1142799481749534
1629897199677,0.1891325265169143,0.1536547690629959,-0.3185526430606842,-0.1476823836565017
1629897199789,0.1572800278663635,0.150358110666275,-0.3573494851589203,-0.1617242097854614
1629897199928,0.1309661716222763,0.1505847126245498,-0.3795919418334961,-0.1568633317947387
1629897200021,0.1187904477119445,0.1568683832883834,-0.3672938942909241,-0.1367300152778625
1629897200116,0.1178769320249557,0.1351707428693771,-0.3164269626140594,-0.1119495034217834
1629897200258,0.12651889026165,0.1003077179193496,-0.2479998618364334,-0.092251680791378
1629897200303,0.1372850239276886,0.0452980101108551,-0.1890038698911667,-0.0819388628005981
1629897200491,0.1451729387044906,-0.0265034046024084,-0.152780219912529,-0.0768510699272155
1629897200519,0.1525852233171463,-0.1033684238791465,-0.137139156460762,-0.0754620134830474
1629897200598,0.1624975651502609,-0.1733939945697784,-0.136154443025589,-0.0772761031985282
1629897200693,0.176892876625061,-0.2270554900169372,-0.1445180624723434,-0.0826468393206596
1629897200776,0.1901186108589172,-0.2485149949789047,-0.1569088250398636,-0.0919648259878158
1629897200866,0.1952233165502548,-0.2126232832670211,-0.1672642678022384,-0.1013896986842155
1629897201052,0.1938406825065612,-0.1367348432540893,-0.1716726571321487,-0.1039809584617614
1629897201117,0.1895769089460373,-0.0559996739029884,-0.1704027950763702,-0.0962781608104705
1629897201274,0.1808796972036361,-0.0245783999562263,-0.167644202709198,-0.0841264203190803
1629897201304,0.1689804494380951,-0.0158394426107406,-0.1678542196750641,-0.0764364451169967
1629897201415,0.1597363650798797,-0.0230142101645469,-0.1775870770215988,-0.079157143831253
1629897201480,0.1593829095363617,-0.03737723082304,-0.2044269442558288,-0.0907360613346099
1629897201669,0.1650729030370712,-0.0421178117394447,-0.2545962631702423,-0.1036479920148849
1629897201733,0.1771199107170105,-0.0505394823849201,-0.3239023685455322,-0.1087212935090065
1629897201826,0.1964002549648285,-0.0587682351469993,-0.3928236961364746,-0.1069896817207336
1629897201905,0.2242359220981598,-0.0590398646891117,-0.4340137243270874,-0.1021633297204971
1629897201998,0.2468693405389785,-0.0475300773978233,-0.4427483975887298,-0.095162808895111
1629897202094,0.250881165266037,-0.0283819790929555,-0.4364122748374939,-0.087336279451847
1629897202220,0.2393438518047332,-0.0141995521262288,-0.4300169348716736,-0.070719763636589
1629897202314,0.2299096435308456,-0.0131951244547963,-0.4244579970836639,-0.0404914692044258
1629897202409,0.2369163185358047,-0.0309581272304058,-0.4170919060707092,-0.0040470212697982
1629897202488,0.257303386926651,-0.0627674236893653,-0.4105234146118164,0.0228086505085229
1629897202597,0.2807583212852478,-0.0995259061455726,-0.4122383892536163,0.0315163768827915
1629897202690,0.3018481135368347,-0.128426507115364,-0.4237604439258575,0.0270186252892017
1629897202833,0.3155452013015747,-0.1416182518005371,-0.4406947493553161,0.0178290121257305
1629897202959,0.3189323544502258,-0.1387829333543777,-0.4548059105873108,0.0102445865049958
1629897203005,0.31083545088768,-0.1241888105869293,-0.4622329473495483,0.0053727994672954
1629897203101,0.2940441370010376,-0.1012894436717033,-0.4595470130443573,0.005884991493076
1629897203208,0.2676028311252594,-0.0782578960061073,-0.4449180960655212,0.0145400911569595
1629897203303,0.2343316823244094,-0.059851948171854,-0.4158654510974884,0.0344939678907394
1629897203431,0.1981934309005737,-0.0515753962099552,-0.3791703581809997,0.0582637898623943
1629897203526,0.1714079231023788,-0.05616470053792,-0.3422315418720245,0.0814956650137901
1629897203635,0.1625283360481262,-0.0710303634405136,-0.3098617792129516,0.1069343537092208
1629897203763,0.1668195724487304,-0.0857773721218109,-0.2830556631088257,0.1391727179288864
1629897203821,0.1690767556428909,-0.0904593169689178,-0.2664586305618286,0.172285795211792
1629897203900,0.1685658395290374,-0.0833491906523704,-0.2613230943679809,0.1970438808202743
1629897204058,0.1671610921621322,-0.0709183439612388,-0.2649276256561279,0.209558680653572
1629897204153,0.1663495302200317,-0.0599232539534568,-0.2679281234741211,0.215258240699768
1629897204230,0.1646986901760101,-0.0538816265761852,-0.2628552615642547,0.2227418273687362
1629897204324,0.1646611392498016,-0.0526685155928134,-0.2521587610244751,0.2355071753263473
1629897204418,0.1662149280309677,-0.0531799718737602,-0.2428555339574813,0.2485506683588028
1629897204526,0.1709985435009002,-0.0560799241065979,-0.2379645854234695,0.2558259069919586
1629897204637,0.1803094744682312,-0.0644731223583221,-0.2344060391187667,0.2547050714492798
1629897204748,0.1895633935928344,-0.0800205245614051,-0.2266357839107513,0.246222510933876
1629897204861,0.19273342192173,-0.0995992496609687,-0.2177598476409912,0.231470301747322
1629897204923,0.1826643198728561,-0.1145652383565902,-0.214278444647789,0.2142153978347778
1629897205016,0.1611034870147705,-0.1117273643612861,-0.2239379435777664,0.195134088397026
1629897205126,0.1392377316951751,-0.0799542814493179,-0.247771605849266,0.1727149188518524
1629897205271,0.1343047618865966,-0.021530820056796,-0.2800838649272918,0.1406178325414657
1629897205348,0.1645737737417221,0.0494084767997264,-0.3076734840869903,0.0975469499826431
1629897205479,0.2245257049798965,0.1186579316854476,-0.3229005932807922,0.050467811524868
1629897205580,0.29472216963768,0.1794193387031555,-0.3285408318042755,0.0122935380786657
1629897205642,0.3584946691989898,0.2280588299036026,-0.332224577665329,-0.0133050074800848
1629897205753,0.4160490036010742,0.2655098140239715,-0.3354941606521606,-0.028673481196165
1629897205864,0.4688966870307922,0.2961529493331909,-0.333556205034256,-0.0377406105399131
1629897205958,0.5152080655097961,0.3243071138858795,-0.324967086315155,-0.0369052439928054
1629897206053,0.5478596687316895,0.3512357175350189,-0.3177475333213806,-0.0273184888064861
1629897206178,0.5648289322853088,0.3722966313362121,-0.3225593268871307,-0.0126875145360827
1629897206257,0.5717496871948242,0.3847113251686096,-0.346006691455841,0.007700556423515
1629897206337,0.5763853192329407,0.3886981606483459,-0.3840241730213165,0.0364291332662105
1629897206494,0.5852682590484619,0.3873867690563202,-0.4264527261257171,0.0679674297571182
1629897206574,0.5967879295349121,0.3850518465042114,-0.4570350646972656,0.0953776016831398
1629897206667,0.6046338081359863,0.3829541504383087,-0.4620153903961181,0.1157601028680801
1629897206761,0.6029911637306213,0.3779805600643158,-0.4387989342212677,0.1329278200864792
1629897206840,0.5890724658966064,0.3628013134002685,-0.3943703174591064,0.1554470956325531
1629897206934,0.5626779198646545,0.3324809372425079,-0.3411518037319183,0.1825784146785736
1629897207093,0.5254977941513062,0.2863893210887909,-0.2915564477443695,0.2072738707065582
1629897207185,0.4800759851932525,0.2336378246545791,-0.2544879615306854,0.2216454744338989
1629897207296,0.425588309764862,0.1845539063215255,-0.2324990481138229,0.2243466973304748
1629897207391,0.3644510507583618,0.1444420218467712,-0.2205031514167785,0.2199810445308685
1629897207469,0.3039158582687378,0.1088503822684288,-0.2136717736721038,0.2156548351049423
1629897207563,0.2595372200012207,0.0712826028466224,-0.2064817100763321,0.2159343361854553
1629897207721,0.23897485435009,0.03381172940135,-0.191322460770607,0.2188538014888763
1629897207814,0.2349207103252411,0.0047075971961021,-0.164445623755455,0.2176083475351333
1629897207907,0.2336744517087936,-0.0072195269167423,-0.1334186345338821,0.2096200287342071
1629897207985,0.2253897786140442,0.0008020008099265,-0.108513057231903,0.1973750740289688
1629897208079,0.2090170234441757,0.0169780198484659,-0.0962090417742729,0.1854417622089386
1629897208172,0.1958093643188476,0.0290347319096326,-0.0936203375458717,0.1726040840148925
1629897208295,0.1924627423286438,0.0328441001474857,-0.0968603268265724,0.154216468334198
1629897208391,0.1963382810354232,0.0391194857656955,-0.1057551875710487,0.1284504979848861
1629897208498,0.1963741183280944,0.0545837394893169,-0.1219453439116478,0.102692075073719
1629897208610,0.1956283450126648,0.0754940956830978,-0.1422960013151168,0.0913935154676437
1629897208693,0.2171609550714492,0.0927721410989761,-0.1612304300069809,0.1038098111748695
1629897208769,0.2700153291225433,0.1074371188879013,-0.1730528622865677,0.1315275579690933
1629897208944,0.323991596698761,0.1215230971574783,-0.1794462203979492,0.1555322110652923
1629897209022,0.3624270558357239,0.1319726407527923,-0.182803213596344,0.1653757691383361
1629897209131,0.3835025727748871,0.1345028281211853,-0.1872302889823913,0.1619676947593689
1629897209195,0.3934264779090881,0.1324575692415237,-0.20062917470932,0.1632240116596222
1629897209289,0.4070963561534881,0.1399715989828109,-0.2217983156442642,0.1689776927232742
1629897209383,0.4248549044132232,0.1777062863111496,-0.209961324930191,0.1769288331270218
1629897209538,0.4467408061027527,0.2616188526153564,-0.1026182025671005,0.1851887851953506
1629897209616,0.4731182754039764,0.3733187019824981,0.0690827891230583,0.1939540654420852
1629897209710,0.5010195970535278,0.4729550778865814,0.2214605659246444,0.2072821408510208
1629897209854,0.5270422697067261,0.5375238060951233,0.3196131289005279,0.2263660281896591
1629897209916,0.5497235059738159,0.5654324293136597,0.3666747212409973,0.2469322979450225
1629897210027,0.5763252377510071,0.5697668194770813,0.3815330564975738,0.2660982608795166
1629897210168,0.6094701290130615,0.566947340965271,0.384609192609787,0.2772563993930816
1629897210230,0.6349319815635681,0.5672882199287415,0.389182984828949,0.2736849784851074
1629897210310,0.6349319815635681,0.5709292888641357,0.3983263075351715,0.2736849784851074
1629897210434,0.6349319815635681,0.5762699246406555,0.4102397263050079,0.2736849784851074
1629897210515,0.6349319815635681,0.5820009112358093,0.422594666481018,0.2736849784851074
1629897210637,0.6349319815635681,0.589168906211853,0.4350535571575165,0.2736849784851074
1629897210764,0.6349319815635681,0.5971129536628723,0.4482573568820953,0.1409024745225906
1629897210858,0.2783490419387817,0.6014786958694458,0.4600169658660888,0.1107381358742713
1629897210937,0.2670445442199707,0.5925999879837036,0.4621738791465759,0.0875495076179504
1629897211039,0.2700505554676056,0.5564979910850525,0.4402842819690704,0.0893525332212448
1629897211118,0.2947413623332977,0.4821187555789947,0.3830467462539673,0.1437817215919494
1629897211227,0.3423969745635986,0.3744217157363891,0.2934469878673553,0.2409983277320861
1629897211384,0.4058383405208587,0.259244292974472,0.1946622133255005,0.3401232063770294
1629897211462,0.4675416946411133,0.1768637746572494,0.1207957416772842,0.4100337922573089
1629897211540,0.5040462613105774,0.1410422176122665,0.0851942002773284,0.4416640102863312
1629897211634,0.5122201442718506,0.1266220659017563,0.0691099241375923,0.4427599906921386
1629897211743,0.4985739588737488,0.1073562353849411,0.0503195375204086,0.4276233315467834
1629897211822,0.478575050830841,0.0775534883141517,0.0199919361621141,0.4100490510463714
1629897211993,0.4653850793838501,0.0380373336374759,-0.0212316047400236,0.4068029522895813
1629897212058,0.4713372886180877,-0.0027971277013421,-0.0695193484425544,0.4078964591026306
1629897212152,0.4860401153564453,-0.039251122623682,-0.1230112612247467,0.4125801026821136
1629897212230,0.4996562600135803,-0.0632764175534248,-0.1818665862083435,0.4158256947994232
1629897212355,0.5054528117179871,-0.0638830438256263,-0.2416447401046753,0.4156012237071991
1629897212433,0.5033401250839233,-0.0307133924216032,-0.2928256392478943,0.4141528308391571
1629897212574,0.4934170544147491,0.0234824251383543,-0.3287146985530853,0.4086677134037018
1629897212668,0.4757740199565887,0.0747806429862976,-0.3494575023651123,0.3884146511554718
1629897212795,0.4482565522193908,0.1073290482163429,-0.3594438135623932,0.3425026535987854
1629897212842,0.4097580909729004,0.125452235341072,-0.3604288101196289,0.2713585495948791
1629897212936,0.3608279228210449,0.1468170136213302,-0.3551227152347564,0.1949291378259658
1629897213061,0.3239736557006836,0.1894066333770752,-0.3448127806186676,0.1558813750743866
1629897213218,0.3155718147754669,0.24821737408638,-0.3268730044364929,0.1727629899978637
1629897213280,0.3319391310214996,0.2999898791313171,-0.297272115945816,0.2145944088697433
1629897213405,0.3475857675075531,0.3297216892242431,-0.2574127614498138,0.2429765462875366
1629897213514,0.3494147956371307,0.3385460376739502,-0.2164553254842758,0.2485724538564682
1629897213592,0.3353463411331177,0.3385598659515381,-0.1844739466905594,0.2399340122938156
1629897213686,0.3078738451004028,0.3406290411949157,-0.1654093116521835,0.2306343466043472
1629897213827,0.2775851488113403,0.3505347967147827,-0.1586543321609497,0.2257174551486969
1629897213921,0.2591064274311065,0.3636953830718994,-0.1639773547649383,0.2253296375274658
1629897214004,0.254638522863388,0.3689708411693573,-0.1852066367864608,0.2245706915855407
1629897214082,0.2664171457290649,0.3600877523422241,-0.2236839681863784,0.2262555360794067
1629897214160,0.2937952578067779,0.34430131316185,-0.2735068500041961,0.234886959195137
1629897214301,0.3261035680770874,0.3336321413516998,-0.3182621896266937,0.2480063885450363
1629897214410,0.3470520377159118,0.3298783600330353,-0.3433738648891449,0.253461629152298
1629897214504,0.3483061194419861,0.3204984366893768,-0.3427838683128357,0.2410758435726165
1629897214613,0.3252851665019989,0.2897520363330841,-0.3228303492069244,0.2054572105407714
1629897214707,0.2855080962181091,0.2356993556022644,-0.2931512892246246,0.1537089049816131
1629897214788,0.2413092702627182,0.1753324121236801,-0.2667378187179565,0.1038572341203689
1629897214866,0.2105926126241684,0.1374193429946899,-0.2541102468967438,0.0767309665679931
1629897215038,0.1977391988039016,0.1334172189235687,-0.2609883248806,0.0698962062597274
1629897215179,0.1999599039554596,0.147454023361206,-0.2818157970905304,0.0668443143367767
1629897215320,0.2090285718441009,0.159163236618042,-0.30247962474823,0.0557439066469669
1629897215382,0.2160498648881912,0.1559886932373047,-0.3112021386623382,0.0398231036961078
1629897215460,0.2133149206638336,0.1348718553781509,-0.3090358078479767,0.023735012859106
1629897215507,0.2057505398988723,0.1051589846611023,-0.3018707633018493,0.0131179867312312
1629897215632,0.1916359066963195,0.0810578018426895,-0.2960805296897888,0.0045119691640138
1629897215792,0.168367862701416,0.0670080110430717,-0.2934456467628479,-0.007164929062128
1629897215823,0.1415162682533264,0.0588686503469944,-0.2931126356124878,-0.0233853161334991
1629897215933,0.1226309016346931,0.0534441359341144,-0.2920813262462616,-0.0375818945467472
1629897216026,0.0961862504482269,0.0510403700172901,-0.289926141500473,-0.0443401858210563
1629897216136,0.0964751839637756,0.051651507616043,-0.2885672450065613,-0.0413900911808013
1629897216261,0.1166233047842979,0.0651686787605285,-0.2935952842235565,-0.0451312661170959
1629897216354,0.1450424194335937,0.1032114699482917,-0.3073112666606903,-0.0667531564831733
1629897216432,0.1702381074428558,0.1169474348425865,-0.3267519474029541,-0.1055989637970924
1629897216526,0.1827718466520309,0.1215317323803901,-0.3368001282215118,-0.1472056061029434
1629897216636,0.176299586892128,0.1145778521895408,-0.3276419937610626,-0.174121081829071
1629897216745,0.1568225622177124,0.0991577208042144,-0.3041749596595764,-0.1740730851888656
1629897216904,0.1447497308254242,0.0792523995041847,-0.2795571386814117,-0.1474154591560363
1629897216951,0.1652852445840835,0.0618391260504722,-0.2547900974750519,-0.0975145027041435
1629897217013,0.2172527760267257,0.0542347468435764,-0.2254697978496551,-0.0381991416215896
1629897217138,0.2172527760267257,0.0609466135501861,-0.1898392140865326,-0.0381991416215896
1629897217232,0.2172527760267257,0.1463819295167923,-0.1544025540351867,-0.0381991416215896
1629897217310,0.2172527760267257,0.1606979966163635,-0.1260805875062942,-0.0381991416215896
1629897217482,0.2172527760267257,0.1467521637678146,-0.1106314957141876,-0.0381991416215896
1629897217560,-0.1639067977666854,0.1417668908834457,-0.1095480695366859,-0.0381991416215896
1629897217654,-0.2036476284265518,0.1628558188676834,-0.1209614872932434,-0.4334877729415893
1629897217748,-0.2257760912179947,0.1808790266513824,-0.138204276561737,-0.4518503248691559
1629897217890,-0.2324096411466598,0.1519419401884079,-0.1499168574810028,-0.4168377518653869
1629897217921,-0.2210779339075088,0.1341045647859573,-0.1408868879079818,-0.3359829485416412
1629897218156,-0.1818651705980301,0.1030969247221946,-0.1072722896933555,-0.2486237436532974
1629897218187,-0.1292065680027008,0.0692163333296775,-0.0622351802885532,-0.181696817278862
1629897218265,-0.0640611201524734,0.040032971650362,-0.0227013863623142,-0.1253466457128524
1629897218374,-0.0015850175404921,0.0222552549093961,0.004077692516148,-0.0678761005401611
1629897218453,0.0509566888213157,0.0229986030608415,0.0186177864670753,-0.0122767798602581
1629897218515,0.0859130322933197,0.0384265854954719,0.0223887097090482,0.0262184180319309
1629897218703,0.1021163985133171,0.0579350553452968,0.0159072205424308,0.0409404635429382
1629897218799,0.1045692786574363,0.0315856263041496,0.0023338571190834,0.035886101424694
1629897218877,0.1011103168129921,0.0278574936091899,-0.0127514535561203,0.0340693295001983
1629897219002,0.0983256697654724,0.0297981388866901,-0.0221263114362955,0.0401827879250049
1629897219064,0.0974308475852012,0.0233993399888277,-0.0211308747529983,0.0537719912827014
1629897219142,0.0954499617218971,0.0056662671267986,-0.0118053453043103,0.070561945438385
1629897219298,0.0903547704219818,-0.0132458992302417,-0.0016886116936802,0.0865379720926284
1629897219424,0.0827922001481056,-0.0151522895321249,0.00115980906412,0.0952083319425582
1629897219502,0.0739180371165275,0.0105930790305137,-0.0120085570961236,0.0938724130392074
1629897219564,0.0609253719449043,0.0556574016809463,-0.0445812381803989,0.0864113271236419
1629897219642,0.0416248366236686,0.1033534780144691,-0.0915272012352943,0.0820982083678245
1629897219768,0.0093180937692523,0.1451074481010437,-0.1387882977724075,0.0795337706804275
1629897219914,-0.0319902673363685,0.1765958815813064,-0.1709194034337997,0.068719744682312
1629897220023,-0.0772552341222763,0.1954252123832702,-0.1860148906707763,0.044878352433443
1629897220117,-0.0990641489624977,0.2042860686779022,-0.1904390752315521,0.0214264187961816
1629897220195,-0.0801065564155578,0.2119589149951934,-0.1880936473608017,0.0157692842185497
1629897220289,-0.0212388671934604,0.2295038253068924,-0.1798688322305679,0.0325879268348217
1629897220367,0.0402513332664966,0.2569548785686493,-0.1715157330036163,0.0563310645520687
1629897220492,0.0905596539378166,0.2834427058696747,-0.171581283211708,0.0754220187664032
1629897220648,0.1339879930019378,0.3004151284694671,-0.1838207393884658,0.0899370536208152
1629897220726,0.1575145274400711,0.3063923418521881,-0.205075055360794,0.105313092470169
1629897220806,0.1848975569009781,0.3038027882575989,-0.2294791489839553,0.1194067746400833
1629897220931,0.2149930596351623,0.2938598692417145,-0.252899706363678,0.1286744177341461
1629897220994,0.2451635897159576,0.2754430472850799,-0.2697944343090057,0.131545677781105
1629897221154,0.2731482982635498,0.2507795393466949,-0.2783910930156708,0.1300594359636306
1629897221232,0.301046073436737,0.2246567755937576,-0.2814938426017761,0.1248610615730285
1629897221341,0.3303987085819244,0.1998923867940902,-0.28879314661026,0.1181995719671249
1629897221451,0.3602431714534759,0.1773999333381652,-0.3101108074188232,0.1145117804408073
1629897221552,0.3909993171691894,0.1548551321029663,-0.3453558981418609,0.1183408200740814
1629897221645,0.4127320647239685,0.1294619590044021,-0.3864691257476806,0.1317307651042938
1629897221769,0.4185755550861358,0.0989686474204063,-0.4253049194812774,0.1577900499105453
1629897221865,0.4185755550861358,0.0599848367273807,-0.4587674140930176,0.1932342648506164
1629897221928,0.4185755550861358,0.0122640179470181,-0.4784839451313019,0.2289947420358657
1629897222038,0.4185755550861358,-0.0341803394258022,-0.4684427082538605,0.2582355141639709
1629897222117,0.4185755550861358,-0.0621544532477855,-0.4322669506072998,0.2847437858581543
1629897222212,0.1452586054801941,-0.0661402568221092,-0.3917409181594848,0.3166278600692749
1629897222379,0.1540875881910324,-0.0573547855019569,-0.3611485958099365,0.3535693883895874
1629897222457,0.1937512159347534,-0.0422162748873233,-0.3362543880939483,0.385685920715332
1629897222567,0.2376053184270858,-0.015095692127943,-0.3086130917072296,0.4045763611793518
1629897222629,0.2652088403701782,0.0210274662822484,-0.2807174324989319,0.4117763042449951
1629897222785,0.2689511179924011,0.058693028986454,-0.2624165415763855,0.4115652740001678
1629897222821,0.2546796798706054,0.1062291860580444,-0.255820482969284,0.4068407118320465
1629897222977,0.2410905063152313,0.1691573113203048,-0.2563009858131408,0.399976909160614
1629897223071,0.2539259195327759,0.2351074367761612,-0.2542133033275604,0.3961910009384155
1629897223164,0.2979932427406311,0.2851280570030212,-0.240625187754631,0.3991228640079498
1629897223258,0.3503647446632385,0.3112174570560455,-0.2139460742473602,0.40399831533432
1629897223336,0.3878223299980163,0.3192097544670105,-0.1819953620433807,0.4021538496017456
1629897223446,0.4076204895973205,0.3197454512119293,-0.1567067950963974,0.3906135857105255
1629897223586,0.4132840633392334,0.335408091545105,-0.1446842104196548,0.3718646764755249
1629897223680,0.4163494110107422,0.3531911373138428,-0.1426324099302292,0.3466010987758636
1629897223742,0.4187513291835785,0.3560532629489898,-0.1425489038228988,0.3079075217247009
1629897223871,0.4215732514858246,0.3601531684398651,-0.1378930658102035,0.2564527094364166
1629897223965,0.4207540452480316,0.3635601699352264,-0.1291977316141128,0.2067219614982605
1629897224090,0.4151619672775268,0.3641915619373321,-0.1236913427710533,0.1769237667322158
1629897224183,0.4071491062641144,0.3607711493968963,-0.1266341060400009,0.1667003780603408
1629897224293,0.4140006899833679,0.3550665378570556,-0.1356649547815323,0.1771058291196823
1629897224397,0.4308868944644928,0.3433210849761963,-0.1444646120071411,0.1937440484762191
1629897224478,0.4506731629371643,0.3309380412101745,-0.1462087929248809,0.2131459265947342
1629897224582,0.45697021484375,0.3407053351402282,-0.1391163468360901,0.2243404686450958
1629897224678,0.4348577558994293,0.3939044177532196,-0.1303493678569793,0.2121860682964325
1629897224803,0.3815863132476806,0.3907243609428406,-0.1312871426343917,0.1679105460643768
1629897224898,0.3117660582065582,0.4043467342853546,-0.146990105509758,0.0991863831877708
1629897224977,0.2618519067764282,0.4281134307384491,-0.1738483756780624,0.0314604341983795
1629897225105,0.2537046372890472,0.4281134307384491,-0.2049032002687454,-0.0042381375096738
1629897225151,0.2743269205093384,0.4281134307384491,-0.2366500794887542,-0.0108351381495594
1629897225255,0.3068206906318664,0.4546347558498382,-0.2702687680721283,-0.0030200700275599
1629897225442,0.3068206906318664,0.4844023585319519,-0.3071595132350921,-0.0030200700275599
1629897225552,0.3068206906318664,0.4651603102684021,-0.3499924838542938,-0.0030200700275599
1629897225631,0.3068206906318664,0.4453449249267578,-0.3962719142436981,-0.0030200700275599
1629897225710,0.3068206906318664,0.4322181940078735,-0.4345956146717071,-0.0030200700275599
1629897225786,0.3068206906318664,0.4302619397640228,-0.4494124948978424,-0.0030200700275599
1629897225938,0.0474237501621246,0.4306220412254333,-0.4433423578739166,-0.1088891327381134
1629897226032,-0.0073822410777211,0.405454158782959,-0.4366243481636047,0.0139358807355165
1629897226137,0.0011586536420509,0.3151061832904815,-0.4477101862430572,0.1134787276387214
1629897226208,0.0553284958004951,0.0829852670431137,-0.4655330777168274,0.1978389918804168
1629897226302,0.1342276036739349,0.0594198480248451,-0.4543592035770416,0.2846850156784057
1629897226403,0.1933971792459488,0.0353494212031364,-0.4030880630016327,0.3644500970840454
1629897226496,0.2265942990779876,0.01061019487679,-0.3384264409542084,0.4221328198909759
1629897226684,0.2412295490503311,-0.0142319621518254,-0.2871400415897369,0.4514059722423553
1629897226717,0.2480656802654266,-0.0356392674148082,-0.2503336071968078,0.4558248221874237
1629897226810,0.2499320954084396,-0.0515196844935417,-0.2149378806352615,0.4455650448799133
1629897226908,0.2501135468482971,-0.0633356943726539,-0.1756334900856018,0.4283711612224579
1629897226987,0.2467911541461944,-0.0562273114919662,-0.1359163373708725,0.406450480222702
1629897227097,0.238180860877037,-0.0603978484869003,-0.0997759997844696,0.4075174033641815
1629897227221,0.2343894839286804,-0.0829873457551002,-0.0683719515800476,0.4088798463344574
1629897227348,0.2480737417936325,-0.1266621351242065,-0.0430471934378147,0.411426693201065
1629897227428,0.2790015041828155,-0.1755080372095108,-0.024056663736701,0.4133451282978058
1629897227505,0.3122645020484924,-0.1984480321407318,-0.0107856970280408,0.4122234582901001
1629897227599,0.3326630294322967,-0.1794391572475433,-0.0035443129017949,0.4060016870498657
1629897227734,0.333186000585556,-0.1312648355960846,-0.0065024867653846,0.3923182189464569
1629897227836,0.3099977672100067,-0.079932153224945,-0.024970332160592,0.3606120347976684
1629897227930,0.2756405770778656,-0.0368100553750991,-0.0577009059488773,0.3041214942932129
1629897228024,0.2432458847761154,-0.0027454495429992,-0.0944468006491661,0.2292018681764602
1629897228101,0.2181908041238784,0.025075327605009,-0.1218045875430107,0.1554223597049713
1629897228227,0.1965457051992416,0.0486028976738452,-0.1334572881460189,0.1043558269739151
1629897228336,0.1766042858362198,0.0706713423132896,-0.1363271623849868,0.0820643752813339
1629897228432,0.152833953499794,0.0944403856992721,-0.1426285505294799,0.0813645794987678
1629897228523,0.1280396729707718,0.1233223527669906,-0.1604375690221786,0.0979011729359626
1629897228666,0.1061887219548225,0.1543349325656891,-0.1928579807281494,0.1218306422233581
1629897228792,0.0879758596420288,0.1793280690908432,-0.2380086779594421,0.1407683491706848
1629897228826,0.0711791589856147,0.1925116032361984,-0.288509339094162,0.1440059393644333
1629897228902,0.0491342507302761,0.1930204182863235,-0.329039990901947,0.1298694461584091
1629897229046,0.0276749078184366,0.1827336698770523,-0.344843327999115,0.099908597767353
1629897229169,0.0068777399137616,0.1660204827785492,-0.3379465043544769,0.0601347982883453
1629897229263,-0.005308125168085,0.1464232951402664,-0.3240503072738647,0.0200695004314184
1629897229378,-0.0028133748564869,0.1323525756597519,-0.3152878582477569,-0.0072427066043019
1629897229459,0.010249750688672,0.120499163866043,-0.311159074306488,-0.0153125943616032
1629897229547,0.023372683674097,0.1141807734966278,-0.3022217154502868,-0.0159838628023862
1629897229688,0.0348344556987285,0.113376960158348,-0.2808311879634857,-0.0200907103717327
1629897229766,0.048498623073101,0.1040889397263526,-0.2526663243770599,-0.026376673951745
1629897229875,0.0700917616486549,0.0879882201552391,-0.2296307384967804,-0.0297403000295162
1629897229989,0.0994030684232711,0.0721479579806327,-0.2175838202238083,-0.0274489298462867
1629897230052,0.1288575083017349,0.0521188527345657,-0.2135699391365051,-0.0252789612859487
1629897230161,0.1505749821662902,0.0277922227978706,-0.2117127776145935,-0.0272319819778203
1629897230286,0.1637141406536102,0.0087406393140554,-0.210275799036026,-0.031824454665184
1629897230390,0.1613628417253494,0.0036499814596027,-0.2130074799060821,-0.0329112894833087
1629897230471,0.1496965140104293,0.0091526238247752,-0.2268857955932617,-0.026783961802721
1629897230605,0.1337940841913223,0.0174521803855896,-0.2546456158161163,-0.0082740820944309
1629897230640,0.1248875930905342,0.0230836365371942,-0.2877795994281769,0.0172772947698831
1629897230759,0.1245689690113067,0.0265518613159656,-0.3076264560222626,0.0416661240160465
1629897230914,0.1329019665718078,0.0335374511778354,-0.2988594770431518,0.0619924403727054
1629897230977,0.1457587331533432,0.0403948724269866,-0.2663872838020324,0.0822344720363617
1629897231098,0.1493049412965774,0.0459438972175121,-0.2302005589008331,0.0927902162075042
1629897231207,0.1525847166776657,0.0567001029849052,-0.2025685906410217,0.11066485196352
1629897231270,0.1534046828746795,0.1043920516967773,-0.1765540540218353,0.1299104392528534
1629897231364,0.1466306000947952,0.2083030939102172,-0.1397237032651901,0.142104685306549
1629897231489,0.1334906667470932,0.3328085839748382,-0.0954656228423118,0.1442431956529617
1629897231598,0.1206909790635109,0.4403310418128967,-0.0579281151294708,0.1414512246847152
1629897231723,0.119340643286705,0.5132339596748352,-0.0343424789607524,0.1403179764747619
1629897231785,0.1302581876516342,0.5553566217422485,-0.0238732323050498,0.1437092423439026
1629897231879,0.1576388478279113,0.5804309844970703,-0.0195488464087247,0.1518609225749969
1629897231973,0.1896478533744812,0.6014615297317505,-0.0175553113222122,0.1675287932157516
1629897232098,0.2164804637432098,0.6213161945343018,-0.0164682008326053,0.1859728395938873
1629897232238,0.2164804637432098,0.6380448341369629,-0.0160210859030485,0.1859728395938873
1629897232270,0.2164804637432098,0.648389995098114,-0.0170081723481416,0.1859728395938873
1629897232441,0.2164804637432098,0.6527024507522583,-0.0220676101744174,0.1859728395938873
1629897232520,0.2164804637432098,0.6547420024871826,-0.033867809921503,0.1859728395938873
1629897232598,0.5287455320358276,0.6573948860168457,-0.0533674135804176,0.1859728395938873
1629897232740,0.4718699753284454,0.6594005227088928,-0.0824036374688148,0.0250292979180812
1629897232851,0.4226149320602417,0.6534156203269958,-0.1295468062162399,-0.0079153152182698
1629897232892,0.3795698583126068,0.6305118799209595,-0.2059626877307891,-0.0240006316453218
1629897233001,0.3411083519458771,0.5891406536102295,-0.3077989220619201,-0.0195284876972436
1629897233079,0.3104335367679596,0.5360905528068542,-0.4065491855144501,0.0047702901065349
1629897233172,0.3038323819637298,0.4850717782974243,-0.4680461883544922,0.0411762483417987
1629897233322,0.3234672248363495,0.4440416693687439,-0.483339786529541,0.0843846872448921
1629897233463,0.3510878682136535,0.4089774191379547,-0.477915495634079,0.1247927993535995
1629897233525,0.3685771226882934,0.3692393600940704,-0.4662623405456543,0.1557060182094574
1629897233635,0.3732843697071075,0.3233381807804107,-0.4520070552825928,0.1799712181091308
1629897233681,0.3685196936130523,0.2788906395435333,-0.4374239444732666,0.1994990557432174
1629897233793,0.3464958667755127,0.2491812705993652,-0.4297217130661011,0.2116181254386901
1629897233965,0.3208547532558441,0.2410628497600555,-0.4324492812156677,0.2246318161487579
1629897234043,0.3142542541027069,0.2498445510864257,-0.4390162825584411,0.2327980697154998
1629897234152,0.3389762341976166,0.2640633583068847,-0.4343931674957275,0.2493549883365631
1629897234230,0.3769085705280304,0.2728844285011291,-0.4112480282783508,0.2763242125511169
1629897234324,0.4061019718647003,0.2673570513725281,-0.3772267401218414,0.3038956820964813
1629897234436,0.4215372204780578,0.239892765879631,-0.3398647010326385,0.3224689364433288
1629897234545,0.4258163273334503,0.1890765875577926,-0.3030514121055603,0.3306096196174621
1629897234654,0.4233454465866089,0.1254182606935501,-0.2727908492088318,0.331914484500885
1629897234748,0.4100063145160675,0.0723537653684616,-0.2547815144062042,0.3280250430107116
1629897234873,0.3846362233161926,0.0538904704153537,-0.2482658177614212,0.3153407573699951
1629897234904,0.3566618859767914,0.0692744329571724,-0.2424304783344268,0.2927727401256561
1629897235044,0.3396676480770111,0.0977789461612701,-0.2292677164077758,0.2707377076148987
1629897235185,0.3346054553985595,0.1200653165578842,-0.2109169960021972,0.2639040350914001
1629897235248,0.3394831717014313,0.127320110797882,-0.1959560066461563,0.2876024842262268
1629897235326,0.3485660851001739,0.1189402118325233,-0.1848607957363128,0.3452631831169128
1629897235419,0.3576791882514953,0.0952943116426467,-0.1743574142456054,0.4142343699932098
1629897235513,0.3555070161819458,0.0561903938651084,-0.1628058403730392,0.4678215980529785
1629897235654,0.331435352563858,0.0086245303973555,-0.1557370275259018,0.49292653799057
1629897235797,0.29120734333992,-0.0304056815803051,-0.1591190546751022,0.4931565821170807
1629897235859,0.2577855288982391,-0.0430332198739051,-0.1731990277767181,0.4830810129642486
1629897235937,0.2500320672988891,-0.0255989823490381,-0.1961049139499664,0.4746281504631042
1629897236094,0.2673730552196502,0.0154429543763399,-0.2267005741596222,0.4726150929927826
1629897236140,0.2906468510627746,0.0714040994644165,-0.2548989355564117,0.4778532385826111
1629897236250,0.3080257177352905,0.1249002814292907,-0.264024019241333,0.4897437989711761
1629897236396,0.3164743185043335,0.1572747975587844,-0.2475440502166748,0.5063254237174988
1629897236493,0.3184905052185058,0.1627896428108215,-0.2195487916469574,0.5221371650695801
1629897236585,0.3168486654758453,0.151927649974823,-0.1977327913045883,0.528562605381012
1629897236679,0.3168925642967224,0.1452467888593673,-0.1888644993305206,0.5198541879653931
1629897236775,0.3175738751888275,0.1540530920028686,-0.191248282790184,0.4908512234687805
1629897236852,0.3108632862567901,0.1734653711318969,-0.2036234140396118,0.4362035393714905
1629897237006,0.2937638461589813,0.190935879945755,-0.2259915769100189,0.3581541180610657
1629897237083,0.2765432596206665,0.1976514756679535,-0.2574984431266784,0.2731294929981231
1629897237178,0.2668883204460144,0.1927492767572403,-0.2930653393268585,0.2063460499048233
1629897237302,0.2638453543186188,0.1814060360193252,-0.3218647539615631,0.1728630363941192
1629897237380,0.2553454935550689,0.1694370657205581,-0.3349562883377075,0.1644570529460907
1629897237489,0.2337058633565902,0.1574512273073196,-0.3328348398208618,0.1685228496789932
1629897237583,0.1992991864681244,0.1376803815364837,-0.3227572441101074,0.1780132502317428
1629897237692,0.1641337722539901,0.0989255383610725,-0.3175234198570251,0.1812427043914795
1629897237787,0.1376664191484451,0.0401750840246677,-0.3255842328071594,0.1664462238550186
1629897237913,0.1205694526433944,-0.0236126258969306,-0.3469434678554535,0.1316138803958892
1629897237976,0.1047734171152114,-0.0725087225437164,-0.3777450323104858,0.089701309800148
1629897238085,0.0832302048802375,-0.0993348509073257,-0.410969465970993,0.0593574866652488
1629897238195,0.052582774311304,-0.1081372499465942,-0.4353227317333221,0.0442417040467262
1629897238382,0.0163737218827009,-0.0985010042786598,-0.4337783753871918,0.0352380834519863
1629897238429,-0.0179612915962934,-0.0680961087346077,-0.4002604484558105,0.0406705290079116
1629897238476,-0.0484802722930908,-0.0159990228712558,-0.3449254930019378,0.0491191856563091
1629897238616,-0.0817041620612144,0.0570939294993877,-0.2864345014095306,0.0622100383043289
1629897238632,-0.1170599982142448,0.1458240151405334,-0.2333585619926452,0.0774721801280975
1629897238788,-0.145814910531044,0.2331953793764114,-0.1888518035411834,0.0919659733772277
1629897238916,-0.1540212482213974,0.3031980693340301,-0.1565323173999786,0.0998887568712234
1629897239026,-0.1377854645252227,0.3495515584945678,-0.1367980539798736,0.0931389331817627
1629897239088,-0.102243922650814,0.374326080083847,-0.1258159428834915,0.0591190122067928
1629897239213,-0.0597303099930286,0.3844176530838012,-0.1155388578772544,-0.0133090298622846
1629897239291,-0.0182336252182722,0.3886955678462982,-0.0995603799819946,-0.117945946753025
1629897239416,0.0150829991325736,0.3927507400512695,-0.0822078064084053,-0.2267180979251861
1629897239526,0.0150829991325736,0.3970899581909179,-0.0679926052689552,-0.2267180979251861
1629897239588,0.0150829991325736,0.3987792432308197,-0.0587259456515312,-0.2267180979251861
1629897239713,0.0150829991325736,0.3934625685214996,-0.0519849509000778,-0.2267180979251861
1629897239807,0.0150829991325736,0.3783662319183349,-0.0469554401934146,-0.2267180979251861
1629897239916,0.2138205617666244,0.3536899387836456,-0.0471149459481239,-0.2267180979251861
1629897240072,0.2443703413009643,0.3208490312099457,-0.0567231513559818,-0.0347847566008567
1629897240150,0.2508057057857513,0.2777657806873321,-0.0754314884543418,-0.0286281369626522
1629897240228,0.2359291315078735,0.2162597626447677,-0.1007322296500206,-0.0010382178006693
1629897240311,0.211086705327034,0.1311169415712356,-0.1281690895557403,0.0318250581622123
1629897240419,0.1893357038497924,0.0322562977671623,-0.1515751779079437,0.0622548386454582
1629897240500,0.1737180799245834,-0.0534560792148113,-0.166213184595108,0.0862722694873809
1629897240626,0.1676291525363922,-0.0837000012397766,-0.1722472608089447,0.108208067715168
1629897240781,0.1730522215366363,-0.0477068871259689,-0.1754027605056762,0.1378967314958572
1629897240845,0.1905628144741058,0.0148113556206226,-0.1832301020622253,0.1789256632328033
1629897240926,0.2146137654781341,0.0621425881981849,-0.1965139508247375,0.222904697060585
1629897241006,0.2358962148427963,0.0836481302976608,-0.2122481614351272,0.2565822303295135
1629897241148,0.2480876445770263,0.0876723155379295,-0.2246613651514053,0.2732369005680084
1629897241287,0.2488710731267929,0.0904829874634742,-0.2335746437311172,0.2859609723091125
1629897241316,0.2375788688659668,0.1002756208181381,-0.242635428905487,0.2889454662799835
1629897241444,0.2154617756605148,0.1167182251811027,-0.2554952502250671,0.2892985045909881
1629897241538,0.1895165890455246,0.1320340186357498,-0.2683726549148559,0.2920324206352234
1629897241632,0.1697724014520645,0.1392892748117447,-0.2745422124862671,0.2997243702411651
1629897241726,0.1609891355037689,0.1364651173353195,-0.272175669670105,0.3169726431369781
1629897241851,0.1595496535301208,0.1265959441661834,-0.2693495750427246,0.3412269949913025
1629897241967,0.1594926416873932,0.1105054467916488,-0.2678137123584747,0.3656759560108185
1629897242060,0.1611832678318023,0.0858529284596443,-0.2552332282066345,0.3861947357654571
1629897242185,0.1618712395429611,0.0430754981935024,-0.2178707122802734,0.4004810154438019
1629897242273,0.1562014073133468,-0.0214597675949335,-0.1609936505556106,0.4027352333068847
1629897242366,0.1400246769189834,-0.0964637547731399,-0.1060415580868721,0.3871811032295227
1629897242454,0.1157852038741111,-0.1506313979625702,-0.0687050893902778,0.3540875017642975
1629897242579,0.0916574895381927,-0.1654698252677917,-0.0532863512635231,0.3124127089977264
1629897242673,0.0876677557826042,-0.1503067463636398,-0.055095762014389,0.2743273973464966
1629897242752,0.1122472807765007,-0.1225841343402862,-0.0670264363288879,0.2484793663024902
1629897242879,0.151257038116455,-0.0863811150193214,-0.0833254680037498,0.2348926365375518
1629897242961,0.1659769266843795,-0.0477810427546501,-0.0955324918031692,0.2496138662099838
1629897243097,0.1808067262172699,-0.0079747196286916,-0.097117468714714,0.2648835778236389
1629897243176,0.1957077383995056,0.0438161604106426,-0.0762356594204902,0.2712532579898834
1629897243269,0.2118003666400909,0.1164106652140617,-0.029777793213725,0.2573116421699524
1629897243428,0.2312160730361938,0.1937261074781417,0.0313682407140731,0.2190369218587875
1629897243475,0.2531721293926239,0.2559248208999634,0.0840718075633049,0.1581108719110489
1629897243599,0.274075835943222,0.3090652525424957,0.1133565232157707,0.0757016614079475
1629897243692,0.2928677201271057,0.3691238164901733,0.1161568164825439,-0.0354643985629081
1629897243800,0.3127731382846832,0.4350765645503998,0.0979390889406204,-0.1789907366037368
1629897243864,0.3355983197689056,0.456169992685318,0.0684517845511436,-0.3371807038784027
1629897243942,0.3600939214229584,0.4747953712940216,0.044177372008562,-0.4612934291362762
1629897244054,0.3600939214229584,0.4948054254055023,0.0455649904906749,-0.4612934291362762
1629897244147,0.3600939214229584,0.5194559693336487,0.0797988101840019,-0.4612934291362762
1629897244319,0.3600939214229584,0.5543293952941895,0.1316269040107727,-0.4612934291362762
1629897244368,0.3600939214229584,0.5854849219322205,0.1791738718748092,-0.4612934291362762
1629897244538,0.3600939214229584,0.601665198802948,0.2097599953413009,-0.4612934291362762
1629897244586,0.3600939214229584,0.6034194827079773,0.2234558314085006,-0.4612934291362762
1629897244682,0.3600939214229584,0.598763108253479,0.2198076844215393,-0.4612934291362762
1629897244776,0.3600939214229584,0.5905412435531616,0.1987343430519104,-0.4612934291362762
1629897244898,0.3600939214229584,0.580496072769165,0.1636045575141906,-0.4612934291362762
1629897245027,0.3600939214229584,0.5720245838165283,0.1284040212631225,-0.4612934291362762
1629897245058,0.3600939214229584,0.5619840025901794,0.1067838445305824,-0.4612934291362762
1629897245155,0.3600939214229584,0.5392138957977295,0.1011327058076858,-0.4612934291362762
1629897245324,0.3600939214229584,0.4964191019535064,0.1037828549742698,-0.4612934291362762
1629897245388,0.3600939214229584,0.4819878041744232,0.109314240515232,-0.4612934291362762
1629897245579,0.3600939214229584,0.4633356928825378,0.1116969585418701,-0.4612934291362762
1629897245658,0.3600939214229584,0.4419195055961609,0.1007094979286193,-0.4612934291362762
1629897245688,0.3600939214229584,0.4132557809352875,0.0672845914959907,-0.4612934291362762
1629897245769,0.3600939214229584,0.3691180348396301,0.0131181990727782,-0.4612934291362762
1629897245890,0.70295250415802,0.3177622556686401,-0.0479114912450313,-0.4612934291362762
1629897246031,0.7860662341117859,0.2769136726856231,-0.0971869900822639,0.6771643161773682
1629897246109,0.83121258020401,0.2544313669204712,-0.1295708417892456,0.698624849319458
1629897246190,0.8566521406173706,0.2358230650424957,-0.1518017947673797,0.7031055688858032
1629897246327,0.8773749470710754,0.205129474401474,-0.1701875627040863,0.7246195673942566
1629897246405,0.8977261781692505,0.1580690443515777,-0.1872969269752502,0.769814670085907
1629897246513,0.9121900200843812,0.1031373441219329,-0.2065571099519729,0.769814670085907
1629897246576,0.9168313145637512,0.0476255267858505,-0.2301692813634872,0.769814670085907
1629897246718,0.912097990512848,-0.0046659605577588,-0.2556634843349457,0.769814670085907
1629897246859,0.9057241082191468,-0.0479531176388263,-0.2722190022468567,0.769814670085907
1629897246905,0.9072114825248718,-0.075264073908329,-0.2711226344108581,0.774379551410675
1629897246997,0.915542721748352,-0.0790320634841919,-0.2529168128967285,0.7870356440544128
1629897247171,0.9415872693061828,-0.0521646812558174,-0.2273097336292266,0.7944680452346802
1629897247234,0.9536694288253784,0.0006079088780097,-0.2043843567371368,0.8156113028526306
1629897247328,0.950664222240448,0.0584201663732528,-0.1895305812358856,0.8283994197845459
1629897247419,0.9373444318771362,0.0999454855918884,-0.1810081899166107,0.844694972038269
1629897247530,0.9204493165016174,0.123220071196556,-0.1758153289556503,0.8666384816169739
1629897247638,0.9045573472976683,0.1467590630054474,-0.1716119349002838,0.8856408596038818
1629897247701,0.8863683938980103,0.190346747636795,-0.167461022734642,0.8899123668670654
1629897247796,0.8607792854309082,0.2557696104049682,-0.1639802753925323,0.8730562329292297
1629897247920,0.8266158699989319,0.3278886973857879,-0.1620153933763504,0.8361330628395081
1629897248042,0.7900441884994507,0.3900817632675171,-0.1635196357965469,0.8196577429771423
1629897248137,0.7646441459655762,0.4370208084583282,-0.1672111600637436,0.8078958988189697
1629897248261,0.7639270424842834,0.4730463922023773,-0.1671697348356247,0.7991899251937866
1629897248308,0.7802299857139587,0.5043646097183228,-0.1613064259290695,0.7916437983512878
1629897248417,0.7873555421829224,0.5325614213943481,-0.1485646665096283,0.7808634042739868
1629897248558,0.7710952162742615,0.5533004403114319,-0.1251178085803985,0.7581371068954468
1629897248638,0.7422436475753784,0.5605942010879517,-0.0887300297617912,0.7303931713104248
1629897248765,0.7188017964363098,0.5537465810775757,-0.0501914210617542,0.7048038840293884
1629897248860,0.7069451212882996,0.5387086868286133,-0.0220797546207904,0.6756188273429871
1629897248953,0.6998587250709534,0.5249128341674805,-0.0063445079140365,0.6279928684234619
1629897249045,0.6910877823829651,0.5211682319641113,0.0049883155152201,0.556814432144165
1629897249140,0.6800699234008789,0.529468834400177,0.0175099372863769,0.4828236401081085
1629897249265,0.668765127658844,0.5423992276191711,0.0276872925460338,0.4339122772216797
1629897249392,0.6591451168060303,0.5471862554550171,0.0305568017065525,0.4114489555358886
1629897249455,0.6508385539054871,0.5360985994338989,0.026815615594387,0.3911961913108825
1629897249535,0.6430449485778809,0.5116553902626038,0.0224676895886659,0.3608435392379761
1629897249660,0.6273289918899536,0.4815249443054199,0.0207274872809648,0.3190917372703552
1629897249783,0.5891298055648804,0.4488147497177124,0.0190971661359071,0.2659954726696014
1629897249846,0.5249980092048645,0.4136608242988586,0.0143365580588579,0.2016530632972717
1629897249970,0.4539154767990112,0.3813136219978332,0.004178169183433,0.1332548409700393
1629897250063,0.4038101136684418,0.3595172762870788,-0.0144593808799982,0.0769133120775222
1629897250142,0.3815774023532867,0.3515311479568481,-0.0449753552675247,0.0421745516359806
1629897250250,0.3691667318344116,0.3507127463817596,-0.0827030315995216,0.0241157338023185
1629897250422,0.3473430573940277,0.3493115901947021,-0.1165027245879173,0.0058059222064912
1629897250500,0.3103619217872619,0.3453565537929535,-0.1414007991552353,-0.0136543698608875
1629897250591,0.2603851556777954,0.3342543840408325,-0.1642641276121139,-0.0213158577680587
1629897250696,0.2146303951740265,0.3065365254878998,-0.1905518025159835,-0.0066592991352081
1629897250734,0.1983015239238739,0.2556397616863251,-0.2132558226585388,0.0342204384505748
1629897250858,0.213320180773735,0.1923896670341491,-0.2228152900934219,0.0890288352966308
1629897251028,0.2459271252155304,0.1404596269130706,-0.2196488380432129,0.1495326906442642
1629897251123,0.282360702753067,0.1156679391860961,-0.2106338590383529,0.2152905464172363
1629897251217,0.3178222477436065,0.1124207675457,-0.1992342919111251,0.2920508086681366
1629897251278,0.3562525510787964,0.1180467680096626,-0.1865640431642532,0.3793237507343292
1629897251404,0.3926961421966553,0.1217104867100715,-0.1737279444932937,0.4602353274822235
1629897251464,0.4154291749000549,0.1143387332558631,-0.1652577072381973,0.5194178223609924
1629897251604,0.4199439883232116,0.0940418392419815,-0.163188636302948,0.5542820692062378
1629897251682,0.41132852435112,0.0685124471783638,-0.1633525192737579,0.5724500417709351
1629897251826,0.401431530714035,0.0503059774637222,-0.1609591394662857,0.5829417109489441
1629897251889,0.4053190946578979,0.0443012379109859,-0.1544587314128875,0.5917561054229736
1629897252014,0.4259082078933716,0.0550011992454528,-0.1469995975494384,0.6023295521736145
1629897252061,0.4558641910552978,0.0612102337181568,-0.1410208940505981,0.6135585904121399
1629897252217,0.4818572103977203,0.0562487728893756,-0.1365580707788467,0.6195937991142273
1629897252311,0.4973176121711731,0.041651152074337,-0.131137266755104,0.6138394474983215
1629897252405,0.4990363717079162,0.0210241954773664,-0.1265423893928527,0.5971502065658569
1629897252484,0.4866394102573395,-0.0008368189446628,-0.1279689967632293,0.5753284096717834
1629897252578,0.463268905878067,-0.0203173197805881,-0.1378179341554641,0.5515819191932678
1629897252672,0.4328780472278595,-0.0368181467056274,-0.1572678834199905,0.522318422794342
1629897252847,0.3962744176387787,0.1006728783249855,-0.184996098279953,0.4867453873157501
1629897252944,0.3596682548522949,0.1957573890686035,-0.2219641804695129,0.4578510522842407
1629897252989,0.3375227749347687,0.2460463643074035,-0.2688452303409576,0.4499341547489166
1629897253132,0.333917498588562,0.2689197361469269,-0.325021743774414,0.4577154815196991
1629897253193,0.3478380739688873,0.2804189026355743,-0.388824850320816,0.4677031338214874
1629897253334,0.3832310438156128,0.2830361425876617,-0.4547217488288879,0.4747084379196167
1629897253428,0.4451851546764374,0.2808504700660705,-0.5158070921897888,0.4810081124305725
1629897253554,0.5206648111343384,0.2455592602491378,-0.5586236119270325,0.4820649921894073
1629897253649,0.5844439268112183,0.224514439702034,-0.568205714225769,0.4741949439048767
1629897253710,0.6212744116783142,0.212903544306755,-0.5414956212043762,0.462510734796524
1629897253773,0.6314637660980225,0.208887442946434,-0.4959145486354828,0.4568071067333221
1629897253932,0.6280784606933594,0.2127527892589569,-0.4495016634464264,0.458739697933197
1629897254055,0.6246312260627747,0.2217633873224258,-0.4052698612213135,0.4598201215267181
1629897254132,0.6257167458534241,0.2306712716817855,-0.3661721050739288,0.4528839588165283
1629897254210,0.6284698843955994,0.2341695427894592,-0.3316766917705536,0.4355078041553497
1629897254322,0.628288984298706,0.1980552673339843,-0.3016292154788971,0.4046255946159363
1629897254416,0.6234510540962219,0.1589178740978241,-0.2693153917789459,0.3596089482307434
1629897254496,0.614934504032135,0.13567616045475,-0.2267126739025116,0.3130345940589905
1629897254698,0.6086792945861816,0.1359180808067321,-0.1768054515123367,0.2872531116008758
1629897254746,0.6045926213264465,0.1486118733882904,-0.1288031339645385,0.2856403887271881
1629897254838,0.602712869644165,0.1620744168758392,-0.0908038094639778,0.2993285655975342
1629897254949,0.6025161147117615,0.168223351240158,-0.0646939054131507,0.3264436721801758
1629897255090,0.6036068797111511,0.1637230813503265,-0.0513652861118316,0.3717951774597168
1629897255136,0.6034595966339111,0.1506478935480117,-0.0500079914927482,0.4250767529010772
1629897255277,0.6033148169517517,0.1345720291137695,-0.0595611184835433,0.467860996723175
1629897255372,0.6083505749702454,0.1162653267383575,-0.0762179046869278,0.4931139647960663
1629897255466,0.6245850920677185,0.0918961465358734,-0.0943405926227569,0.5064711570739746
1629897255560,0.6506718993186951,0.0597512237727642,-0.1092476621270179,0.5182043313980103
1629897255637,0.6812317967414856,0.0223043505102396,-0.1164822205901146,0.5345190763473511
1629897255746,0.7115585803985596,-0.0140474066138267,-0.1152248680591583,0.5555363297462463
1629897255870,0.7415538430213928,-0.0417945608496665,-0.1027857363224029,0.5778996348381042
1629897255965,0.7676626443862915,-0.0649530887603759,-0.0817098841071128,0.598189651966095
1629897256076,0.7905660271644592,-0.0941853895783424,-0.0611094273626804,0.6153280735015869
1629897256167,0.8127836585044861,-0.1404226869344711,-0.0496152266860008,0.6341850161552429
1629897256277,0.8340402245521545,-0.196453720331192,-0.0507981106638908,0.6571498513221741
1629897256325,0.8461703658103943,-0.23673115670681,-0.0606836751103401,0.6766135096549988
1629897256481,0.8397037386894226,-0.2388736605644226,-0.0745517536997795,0.6802603006362915
1629897256621,0.8116225600242615,-0.2080705314874649,-0.0870062410831451,0.6627610325813293
1629897256654,0.7726874947547913,-0.1731845736503601,-0.0968401208519935,0.6326624155044556
1629897256747,0.7378062605857849,-0.155733123421669,-0.1042081415653228,0.6037402153015137
1629897256870,0.7149431109428406,-0.159988448023796,-0.1096211969852447,0.5832557678222656
1629897256964,0.6985793113708496,-0.1785745322704315,-0.1083309650421142,0.5731236934661865
1629897257121,0.6791871190071106,-0.2039322555065155,-0.0994541347026825,0.5727277398109436
1629897257199,0.6530665755271912,-0.2298968881368637,-0.0883975178003311,0.5815015435218811
1629897257262,0.623246967792511,-0.2456471771001815,-0.0788933932781219,0.5977494120597839
1629897257355,0.5921897888183594,-0.2373067736625671,-0.0706522613763809,0.6166292428970337
1629897257464,0.5686727166175842,-0.1956886649131775,-0.0602402128279209,0.6332862973213196
1629897257542,0.5563436150550842,-0.1245652064681053,-0.0472674779593944,0.6406959295272827
1629897257681,0.5548163652420044,-0.0441522635519504,-0.0363757573068141,0.6327391862869263
1629897257777,0.55939781665802,0.0223664883524179,-0.0304753240197896,0.6117038726806641
1629897257871,0.56345534324646,0.0609758757054805,-0.0297599099576473,0.5886133313179016
1629897257979,0.5632596015930176,0.0707592070102691,-0.0309489741921424,0.5835926532745361
1629897258089,0.5651565194129944,0.0590229853987693,-0.0305123217403888,0.6099714040756226
1629897258166,0.5749854445457458,0.0388675108551979,-0.0267654452472925,0.657652735710144
1629897258341,0.5902668237686157,0.0239537451416254,-0.0213286783546209,0.705619215965271
1629897258384,0.6038289666175842,0.0257626883685588,-0.0169302243739366,0.7399229407310486
1629897258477,0.6097018122673035,0.0457685627043247,-0.0189005024731159,0.7554656863212585
1629897258601,0.6092046499252319,0.0746891424059867,-0.0295174326747655,0.7548721432685852
1629897258682,0.6049380302429199,0.1005685627460479,-0.0470939800143241,0.7416149377822876
1629897258775,0.5985921025276184,0.1159984022378921,-0.0680350735783577,0.7178345322608948
1629897258948,0.5895524621009827,0.1181221902370452,-0.0954266935586929,0.685684859752655
1629897259025,0.5739471912384033,0.1047399714589119,-0.1376063674688339,0.647223949432373
1629897259119,0.5461558699607849,0.0719084292650222,-0.2004629671573639,0.6075517535209656
1629897259182,0.4991762042045593,0.0210856758058071,-0.2734784185886383,0.5728917121887207
1629897259261,0.4324584603309631,-0.0343421250581741,-0.3338353931903839,0.5477479696273804
1629897259354,0.3577008843421936,-0.074681743979454,-0.3587281703948974,0.5308982133865356
1629897259539,0.293722927570343,-0.0896597579121589,-0.3462343215942383,0.5098917484283447
1629897259664,0.2524751126766205,-0.0855197831988334,-0.3170443773269653,0.4684047698974609
1629897259727,0.2306484282016754,-0.0689295902848243,-0.2876332998275757,0.4000378251075744
1629897259790,0.2268445938825607,-0.0464110970497131,-0.263424664735794,0.3185395300388336
1629897259916,0.2380524277687072,-0.0284141991287469,-0.2446614354848861,0.2552866637706756
1629897260008,0.2710109353065491,-0.0213119089603424,-0.2225496619939804,0.2355585247278213
1629897260163,0.3189699053764343,-0.0203291103243827,-0.1887847483158111,0.2519566416740417
1629897260260,0.3621581196784973,-0.0112269148230552,-0.1456271559000015,0.2807786762714386
1629897260359,0.386721521615982,0.0126117542386055,-0.1067721471190452,0.3077241778373718
1629897260402,0.3983309268951416,0.0427166223526001,-0.0816192030906677,0.3306765258312225
1629897260544,0.4023329019546509,0.0661478340625763,-0.0691689774394035,0.3514763116836548
1629897260594,0.4047208428382873,0.0748943537473678,-0.0589013025164604,0.3706110119819641
1629897260781,0.412005215883255,0.0724798142910003,-0.0436019003391265,0.386103093624115
1629897260843,0.4285075664520263,0.0651117637753486,-0.0249186232686042,0.3950019180774688
1629897260921,0.4525084495544433,0.0605886988341808,-0.0125577310100197,0.3977890312671661
1629897261097,0.4762040674686432,0.0677546635270118,-0.0124931801110506,0.3994697332382202
1629897261145,0.4921229481697082,0.0881867334246635,-0.0202109944075346,0.4055851399898529
1629897261204,0.4934718906879425,0.1113137453794479,-0.0289331935346126,0.4142004251480102
1629897261330,0.4786889255046844,0.1293147355318069,-0.0334226563572883,0.4171335399150848
1629897261441,0.4496479034423828,0.1434775590896606,-0.0308940503746271,0.4073726832866668
1629897261519,0.4094030261039734,0.1564555168151855,-0.0226651411503553,0.3883205652236938
1629897261628,0.3695816695690155,0.1656749993562698,-0.0116472151130437,0.371511697769165
1629897261721,0.3504026234149933,0.1642134189605713,-0.0036035343073308,0.3652624487876892
1629897261816,0.3607516288757324,0.1487630158662796,-0.0018317238427698,0.3667123019695282
1629897261975,0.3873661756515503,0.1239870488643646,-0.0049307961016893,0.3685707151889801
1629897262053,0.4114625751972198,0.0976557582616806,-0.0124959079548716,0.3659378886222839
1629897262148,0.42807137966156,0.0790781751275062,-0.0266369841992855,0.3582951128482818
1629897262275,0.4336639940738678,0.0695315971970558,-0.0494829006493091,0.3482251167297363
1629897262351,0.425774872303009,0.0664311796426773,-0.077690988779068,0.3387209475040436
1629897262427,0.4056281745433807,0.0792344510555267,-0.0995819568634033,0.3317789435386657
1629897262631,0.3791978657245636,0.0813711136579513,-0.1052881926298141,0.3241952359676361
1629897262693,0.3524780869483948,0.0688865780830383,-0.0972314327955246,0.3154673278331756
1629897262759,0.3443523943424225,0.0455997437238693,-0.0881412774324417,0.3118473589420318
1629897262867,0.374912828207016,0.0167815499007701,-0.0811052694916725,0.3235489428043365
1629897262974,0.4319598078727722,-0.0214311331510543,-0.0792498961091041,0.3478875160217285
1629897263071,0.4815261662006378,-0.0793016329407692,-0.0905019640922546,0.3680718839168548
1629897263175,0.501611590385437,-0.1609084904193878,-0.1271823346614837,0.3703858554363251
1629897263326,0.4938352406024933,-0.256233811378479,-0.1933853477239608,0.3580617308616638
1629897263413,0.4702843725681305,-0.3452754318714142,-0.2794429361820221,0.3491674065589905
1629897263491,0.4404224157333374,-0.272453635931015,-0.3538016974925995,0.3533167243003845
1629897263553,0.4124352633953094,-0.1554173976182937,-0.3866263329982757,0.3630185425281524
1629897263650,0.3877696990966797,-0.0542231947183609,-0.3712077140808105,0.3684388399124145
1629897263809,0.3826246857643127,0.0204268507659435,-0.2848315834999084,0.3764233887195587
1629897263904,0.4197461903095245,0.0758493989706039,-0.1324623376131057,0.4003005027770996
1629897263965,0.4961612820625305,0.0811221897602081,0.028375444933772,0.4424421489238739
1629897264110,0.5822641849517822,0.092479683458805,0.1630533784627914,0.4918891787528991
1629897264153,0.64841628074646,0.0987162888050079,0.2299864590167999,0.5356306433677673
1629897264282,0.6864156126976013,0.0944808572530746,0.2627654373645782,0.5713050961494446
1629897264390,0.7005163431167603,0.0861363932490348,0.2701955735683441,0.6042364835739136
1629897264544,0.704124391078949,0.0843814611434936,0.2613144218921661,0.638296365737915
1629897264575,0.7083894610404968,0.0964975729584693,0.2441258728504181,0.6682716608047485
1629897264700,0.7204316854476929,0.118611566722393,0.2261021733283996,0.687543511390686
1629897264778,0.7403993606567383,0.1398985087871551,0.2094644904136657,0.6955295205116272
1629897264861,0.767707109451294,0.1587759852409362,0.213846817612648,0.6963292360305786
1629897265011,0.7975298166275024,0.1889794170856475,0.2194661498069763,0.6986218690872192
1629897265090,0.8262107968330383,0.2320277690887451,0.2264754921197891,0.7107526063919067
1629897265186,0.848552942276001,0.2857695817947387,0.2366550415754318,0.7332889437675476
1629897265280,0.8593930602073669,0.3338934481143951,0.2456855177879333,0.7534587979316711
1629897265404,0.854406476020813,0.3627367913722992,0.2434290945529937,0.7599146962165833
1629897265481,0.8319857120513916,0.3724502623081207,0.2239487171173095,0.7502995729446411
1629897265608,0.7962572574615479,0.3742823600769043,0.1853086948394775,0.7297847867012024
1629897265686,0.7629389762878418,0.3778541386127472,0.1348390430212021,0.7036295533180237
1629897265825,0.7410455346107483,0.3848753571510315,0.0830803737044334,0.6703874468803406
1629897265916,0.7298186421394348,0.3904403150081634,0.0419022962450981,0.6235967874526978
1629897266030,0.7240110039710999,0.3899344801902771,0.0168979279696941,0.5630992650985718
1629897266105,0.7223995923995972,0.3812782764434814,0.0071197235956788,0.5035601258277893
1629897266246,0.7224165797233582,0.366233080625534,0.0034807547926902,0.4687305688858032
1629897266340,0.7171323895454407,0.3510472774505615,0.0027027002070099,0.4661120176315307
1629897266418,0.6984723806381226,0.3381628394126892,0.0061240545473992,0.4792670905590057
1629897266526,0.6737191677093506,0.3217646181583404,0.0145656084641814,0.4850867092609405
1629897266606,0.6582271456718445,0.2882375121116638,0.0190111864358186,0.4717394709587097
1629897266684,0.6645143032073975,0.2325741797685623,0.0072404164820909,0.4413783252239227
1629897266872,0.6888025403022766,0.1674157381057739,-0.0273753646761178,0.4099081456661224
1629897266933,0.7211161851882935,0.117884337902069,-0.0803780555725097,0.3967953324317932
1629897267045,0.7526387572288513,0.0937774330377578,-0.140514999628067,0.4122641384601593
1629897267138,0.7764618992805481,0.080311894416809,-0.1936392039060592,0.4516757428646087
1629897267216,0.78727787733078,0.0623020268976688,-0.2295004725456237,0.5072136521339417
1629897267278,0.7896332740783691,0.038572821766138,-0.2449467033147812,0.5681129097938538
1629897267500,0.7945547699928284,0.0180078241974115,-0.2473849952220916,0.6261141300201416
1629897267546,0.8073056936264038,0.0069612534716725,-0.2437486499547958,0.6726669073104858
1629897267642,0.8258965015411377,0.0064102001488208,-0.2399730235338211,0.7041199207305908
1629897267719,0.8472747206687927,0.0126233370974659,-0.2362928837537765,0.720206081867218
1629897267848,0.8749881386756897,0.0180364456027746,-0.235754519701004,0.7284591197967529
1629897267970,0.9138935208320618,0.0171989947557449,-0.2421965152025222,0.7408479452133179
1629897268066,0.9582611918449402,0.0116498693823814,-0.2560595273971557,0.7657526731491089
1629897268160,0.9959076046943665,0.0078610843047499,-0.2715519368648529,0.7972822785377502
1629897268238,1.021493434906006,0.0074407164938747,-0.2783838510513305,0.8225100040435791
1629897268317,1.035170555114746,0.0024672173894941,-0.2712297141551971,0.8369596004486084
1629897268458,1.0366206169128418,-0.0138858035206794,-0.2542423009872436,0.842875063419342
1629897268553,1.027173399925232,-0.0364693515002727,-0.2324340194463729,0.841167688369751
1629897268706,1.01226806640625,-0.0514475479722023,-0.2123689800500869,0.8299303650856018
1629897268752,0.9979100823402404,-0.0447588488459587,-0.1979342699050903,0.80635005235672
1629897268863,0.985407292842865,-0.0181856490671634,-0.1849574148654937,0.7741473317146301
1629897268958,0.9702706933021544,0.0124732255935668,-0.1673671305179596,0.7483205199241638
1629897269036,0.9497030377388,0.0326600037515163,-0.1457962542772293,0.7576854825019836
1629897269146,0.9263095855712892,0.041059274226427,-0.1252578496932983,0.8125755190849304
1629897269272,0.903331696987152,0.0454460009932518,-0.1087286919355392,0.8848440647125244
1629897269350,0.8768521547317505,0.0506701879203319,-0.0945975258946418,0.939578890800476
1629897269507,0.8378663063049316,0.0540034584701061,-0.079836256802082,0.9626325368881226
1629897269554,0.7791346907615662,0.0510611869394779,-0.0660590901970863,0.9585007429122924
1629897269663,0.7061268091201782,0.0449691750109195,-0.0544698275625705,0.9445782899856568
1629897269742,0.6348384618759155,0.0478233471512794,-0.0453184396028518,0.939944624900818
1629897269868,0.5832114815711975,0.0732711553573608,-0.0394039377570152,0.949479043483734
1629897269977,0.5589490532875061,0.1238439828157424,-0.0373072996735572,0.9645355343818665
1629897270088,0.5554579496383667,0.185139387845993,-0.0369398444890975,0.974939227104187
1629897270166,0.5664882659912109,0.2369842678308487,-0.0332856029272079,0.9790301322937012
1629897270245,0.5866479873657227,0.2667528688907623,-0.0251527763903141,0.9805120229721068
1629897270345,0.6081802845001221,0.2758972644805908,-0.0177370030432939,0.9806575775146484
1629897270509,0.6206721663475037,0.2737857699394226,-0.0141908703371882,0.9729155898094176
1629897270589,0.6198598146438599,0.2706473767757416,-0.0083415247499942,0.9443566799163818
1629897270682,0.606528103351593,0.2679798007011413,0.0043901014141738,0.8875873684883118
1629897270782,0.5858180522918701,0.2608392536640167,0.0201381221413612,0.8144737482070923
1629897270844,0.5633076429367065,0.2477193623781204,0.0302835702896118,0.7552106380462646
1629897270987,0.542273998260498,0.2343989163637161,0.0272511709481477,0.7303401231765747
1629897271112,0.5292642116546631,0.2278790175914764,0.0127466823905706,0.7265165448188782
1629897271221,0.5313977599143982,0.2292315512895584,-0.0077283466234803,0.7212392091751099
1629897271315,0.5456724762916565,0.233375534415245,-0.0281954538077116,0.7092822790145874
1629897271378,0.5619378685951233,0.2333818972110748,-0.0410633794963359,0.698030412197113
1629897271503,0.5793448090553284,0.2242066264152526,-0.0391258597373962,0.6920299530029297
1629897271596,0.6008170247077942,0.2060268819332122,-0.0229046437889337,0.6924120783805847
1629897271737,0.6207355260848999,0.1864778697490692,-0.0030794565100222,0.6976220607757568
1629897271848,0.6316178441047668,0.1794303655624389,0.0086233727633953,0.7031128406524658
1629897271896,0.6364474892616272,0.1911484003067016,0.0097796861082315,0.7066835165023804
1629897271990,0.6518449187278748,0.213832139968872,0.0036172647960484,0.7136727571487427
1629897272083,0.6893563270568848,0.2355057597160339,-0.0108028715476393,0.7295011878013611
1629897272193,0.733808696269989,0.2516511380672455,-0.0359318926930427,0.7465178966522217
1629897272302,0.7674521207809448,0.2643269598484039,-0.0705690160393714,0.7491161823272705
1629897272427,0.7833806276321411,0.2743073999881744,-0.1036831960082054,0.7271986603736877
1629897272521,0.7876010537147522,0.2781276404857635,-0.1215146109461784,0.6880155205726624
1629897272630,0.7871014475822449,0.2739588022232055,-0.1197753325104713,0.6509777307510376
1629897272786,0.7807494401931763,0.2643184661865234,-0.1052402108907699,0.6244581341743469
1629897272818,0.7644612193107605,0.2522429227828979,-0.0876187309622764,0.5956085324287415
1629897272919,0.7388705611228943,0.236723855137825,-0.0760477036237716,0.5496224164962769
1629897273065,0.7073018550872803,0.2143415212631225,-0.0772981643676757,0.4861725270748138
1629897273127,0.6736275553703308,0.1839531362056732,-0.0956819429993629,0.4193636775016784
1629897273252,0.6410778760910034,0.1467862874269485,-0.1287583708763122,0.3612208664417267
1629897273283,0.6151831746101379,0.1026029363274574,-0.1649859100580215,0.3179962933063507
1629897273440,0.5989820957183838,0.0495074167847633,-0.1925009191036224,0.292698860168457
1629897273549,0.578260064125061,-0.0096543496474623,-0.209988847374916,0.2730078101158142
1629897273612,0.5323852300643921,-0.0621270462870597,-0.221938669681549,0.2357491999864578
1629897273752,0.4623292088508606,-0.0967780202627182,-0.2291355729103088,0.173586368560791
1629897273815,0.3907971978187561,-0.1149752810597419,-0.2249767482280731,0.1024056375026702
1629897273942,0.3715540766716003,-0.125511884689331,-0.2105017751455307,0.0692159384489059
1629897274036,0.4207753539085388,-0.1302103400230407,-0.1973408758640289,0.0969549268484115
1629897274130,0.4928427636623382,-0.1303440630435943,-0.1954180747270584,0.1557983756065368
1629897274270,0.5463685989379883,-0.1296304315328598,-0.2021042257547378,0.2083592265844345
1629897274380,0.5706477761268616,-0.1294524520635604,-0.2100613117218017,0.2421927601099014
1629897274442,0.5718858242034912,-0.1197310537099838,-0.21383997797966,0.2592919170856476
1629897274536,0.5648588538169861,-0.0901910364627838,-0.2188509255647659,0.2682915329933166
1629897274614,0.5605711340904236,-0.0468712709844112,-0.2310807704925537,0.2751056849956512
1629897274770,0.5634074807167053,-0.0068260394036769,-0.2478759586811065,0.2834668755531311
1629897274833,0.5693849921226501,0.0166346486657857,-0.2617706656455993,0.292833149433136
1629897274992,0.572005033493042,0.0225496068596839,-0.2692944705486297,0.2988653182983398
1629897275054,0.5724973678588867,0.0172629430890083,-0.267032653093338,0.2986433804035187
1629897275195,0.572530210018158,0.0043179728090763,-0.2518845200538635,0.2960026562213897
1629897275273,0.5761414170265198,-0.0128286881372332,-0.2285883277654647,0.2979125380516052
1629897275351,0.5846070051193237,-0.0280231572687625,-0.2126104831695556,0.3134705722332001
1629897275539,0.5849213004112244,-0.0332512035965919,-0.2150813788175583,0.3447661995887756
1629897275585,0.5638573169708252,-0.0271377693861722,-0.2310380637645721,0.3890788555145263
1629897275710,0.5215437412261963,-0.0169656760990619,-0.2436915189027786,0.4359455108642578
1629897275757,0.4736430048942566,-0.0114579610526561,-0.2453919649124145,0.4725537896156311
1629897275867,0.4354763329029083,-0.0151829207316041,-0.2409993261098861,0.4932530522346496
1629897276057,0.4142408072948456,-0.0310335271060466,-0.2389899790287017,0.5017869472503662
1629897276119,0.4009353518486023,-0.0620067827403545,-0.2396321445703506,0.5029653906822205
1629897276151,0.3876462876796722,-0.1047001853585243,-0.2390444129705429,0.5022873878479004
1629897276275,0.3738817870616913,-0.1482436060905456,-0.2345029860734939,0.5038617849349976
1629897276400,0.3657065629959106,-0.1761892735958099,-0.2268195003271103,0.5118722915649414
1629897276463,0.3639723658561706,-0.1772814095020294,-0.2206243127584457,0.5266888737678528
1629897276588,0.3617163598537445,-0.1524867564439773,-0.2265943735837936,0.5410816669464111
1629897276713,0.3634889721870422,-0.1154185533523559,-0.2543046474456787,0.5479249358177185
1629897276775,0.3790261149406433,-0.0838764607906341,-0.3004707992076874,0.5507132411003113
1629897276900,0.4065931141376495,-0.0666396915912628,-0.3455272018909454,0.5591474771499634
1629897276963,0.426597386598587,-0.0613275878131389,-0.3687365353107452,0.5727971196174622
1629897277025,0.4266492128372192,-0.0621881373226642,-0.3713629245758056,0.5768346190452576
1629897277197,0.4131767153739929,-0.0619744136929512,-0.374590516090393,0.5578672289848328
1629897277291,0.3976607620716095,-0.0597776882350444,-0.3915128111839294,0.5212578773498535
1629897277385,0.3899960517883301,-0.0553749352693557,-0.4168250858783722,0.4861883819103241
1629897277514,0.3883776366710663,-0.0463757924735546,-0.4373839497566223,0.4719098508358001
1629897277592,0.3937461078166961,-0.0311048161238431,-0.438549131155014,0.4893767833709717
1629897277703,0.4062403738498688,-0.015244785696268,-0.4143032729625702,0.5287928581237793
1629897277812,0.4191884398460388,-0.0058540599420666,-0.3725636005401611,0.5683355331420898
1629897277922,0.4256479740142822,-0.0076681305654346,-0.3256969749927521,0.5899404883384705
1629897277996,0.4281204044818878,-0.0216266401112079,-0.2851017415523529,0.5927256941795349
1629897278066,0.4306654632091522,-0.0480575412511825,-0.2570031285285949,0.5906471610069275
1629897278181,0.4285531342029571,-0.0843873918056488,-0.2427232712507248,0.5972565412521362
1629897278267,0.4119267761707306,-0.1220535188913345,-0.2393238097429275,0.6131353378295898
1629897278427,0.3843549787998199,-0.1514315605163574,-0.240893617272377,0.6255903244018555
1629897278521,0.3819760680198669,-0.167613685131073,-0.2411873340606689,0.6293449401855469
1629897278616,0.4364727437496185,-0.1716577410697937,-0.2332449108362198,0.6328336000442505
1629897278721,0.529476523399353,-0.1708176881074905,-0.2070216536521911,0.653643786907196
1629897278799,0.6216726303100586,-0.1706974059343338,-0.1609521806240081,0.6966192722320557
1629897278861,0.6932288408279419,-0.1759116798639297,-0.1105662509799003,0.7476574778556824
1629897279036,0.7429717779159546,-0.1883329451084137,-0.0744342729449272,0.7915478944778442
1629897279114,0.7756141424179077,-0.1985785663127899,-0.0606067962944507,0.8207799792289734
1629897279208,0.8021858930587769,-0.1843599379062652,-0.0644251555204391,0.8357827663421631
1629897279317,0.8345484137535095,-0.1392880976200103,-0.0758547931909561,0.8425522446632385
1629897279454,0.8759651184082031,-0.0819166898727417,-0.0868750140070915,0.8496628999710083
1629897279488,0.9210227727890016,-0.032686423510313,-0.0897013172507286,0.8613501191139221
1629897279659,0.9622109532356262,0.0025685273576527,-0.0791364535689354,0.8757665157318115
1629897279722,0.992205023765564,0.0247226543724536,-0.0573286041617393,0.8864211440086365
1629897279799,1.0073482990264893,0.0362762585282325,-0.0299642272293567,0.8879483342170715
1629897279908,1.0080785751342771,0.0398906245827674,-0.0033048873301595,0.8824437260627747
1629897280015,0.997389018535614,0.0405815280973911,0.0196624863892793,0.8749164938926697
1629897280085,0.9777852892875672,0.0470933727920055,0.0366753339767456,0.8687044978141785
1629897280241,0.9516765475273132,0.0735789090394973,0.0418496169149875,0.8610818386077881
1629897280350,0.923574447631836,0.1232531070709228,0.0316795594990253,0.8509590029716492
1629897280446,0.9002324342727661,0.1830122470855713,0.0100538078695535,0.8428694605827332
1629897280519,0.8909164667129517,0.2365206778049469,-0.0132239423692226,0.8397231101989746
1629897280612,0.8992283344268799,0.2729509472846985,-0.030488209798932,0.8369998931884766
1629897280753,0.9148098826408386,0.2886484861373901,-0.0430963635444641,0.8305636644363403
1629897280878,0.9190951585769652,0.2852332592010498,-0.0556488707661628,0.8235306739807129
1629897280960,0.90362286567688,0.2708843946456909,-0.0684974119067192,0.8227946162223816
1629897281069,0.8729493618011475,0.2555682063102722,-0.0810021087527275,0.8329317569732666
1629897281116,0.8436831831932068,0.2464627921581268,-0.0897528827190399,0.8522809743881226
1629897281225,0.8315827250480652,0.245832934975624,-0.0929686352610588,0.8768370747566223
1629897281350,0.836924135684967,0.2500777542591095,-0.097174659371376,0.9013363122940063
1629897281460,0.8508075475692749,0.2536900639533996,-0.1104386523365974,0.9226655960083008
1629897281553,0.8649769425392151,0.2531910240650177,-0.1331604272127151,0.938191294670105
1629897281647,0.8737490177154541,0.2482254803180694,-0.1580121219158172,0.9460014700889589
1629897281725,0.873772382736206,0.2356496155261993,-0.1727632284164428,0.9452359676361084
1629897281850,0.8644219040870667,0.2108827829360962,-0.1731594353914261,0.9374833703041076
1629897281913,0.847477912902832,0.1720866560935974,-0.1582651436328888,0.9239861965179444
1629897282087,0.8229473829269409,0.1210910081863403,-0.1285024881362915,0.9060496091842652
1629897282165,0.789160966873169,0.0629211887717247,-0.0896508544683456,0.8884348273277283
1629897282315,0.7491316199302673,0.0043120793998241,-0.0520170703530311,0.8792340755462646
1629897282362,0.7181779742240906,-0.0426685027778148,-0.0234392434358596,0.8813896775245667
1629897282518,0.7048243284225464,-0.0685318186879158,-0.0066214981488883,0.8856797218322754
1629897282565,0.7008849382400513,-0.0758622512221336,0.0001780487218638,0.8777446746826172
1629897282722,0.6878136396408081,-0.0791943818330764,-0.0008648980292491,0.8532817363739014
1629897282800,0.6615137457847595,-0.0868471935391426,-0.0055370130576193,0.8221063017845154
1629897282847,0.6349090337753296,-0.0926162600517273,-0.001481277286075,0.8021605014801025
1629897282956,0.6199681162834167,-0.0880110189318656,0.0209450535476207,0.7964514493942261
1629897283085,0.6085174679756165,-0.0749572142958641,0.0541770607233047,0.7934593558311462
1629897283163,0.5930522680282593,-0.0672808364033699,0.0824629589915275,0.7837445735931396
1629897283331,0.5750607252120972,-0.0752741619944572,0.0958455428481102,0.7701252698898315
1629897283423,0.5625330209732056,-0.0954090282320976,0.0945172011852264,0.75495845079422
1629897283485,0.5635824203491211,-0.116616852581501,0.0815803483128547,0.7376254796981812
1629897283579,0.5756118297576904,-0.1247670650482177,0.0591316036880016,0.71818608045578
1629897283657,0.5875416398048401,-0.1174004152417182,0.0326165743172168,0.6998396515846252
1629897283751,0.5862359404563904,-0.1037221327424049,0.0129167065024375,0.6807165741920471
1629897283910,0.5661072134971619,-0.0938664525747299,0.0072674779221415,0.6560777425765991
1629897283988,0.5356153249740601,-0.0924009904265403,0.0119252223521471,0.6309975981712341
1629897284097,0.5072615742683411,-0.0929040163755416,0.0176698490977287,0.6159862279891968
1629897284207,0.4854107797145843,-0.0807366371154785,0.017664112150669,0.6078462600708008
1629897284300,0.465036541223526,-0.0512034334242343,0.0110420882701873,0.589974582195282
1629897284363,0.4461943805217743,-0.0175519790500402,-0.0029039699584245,0.5458009243011475
1629897284504,0.4329026639461517,0.0030399155803024,-0.0244131237268447,0.4766054153442383
1629897284613,0.429776132106781,0.0034780148416757,-0.0497140064835548,0.4086069166660309
1629897284738,0.4331920444965362,-0.0081875817850232,-0.0722026377916336,0.3749679625034332
1629897284866,0.4381941854953766,-0.0206580460071563,-0.0874078795313835,0.3786627352237701
1629897284913,0.4408387243747711,-0.0306878667324781,-0.0944729372859001,0.3964800536632538
1629897285022,0.4329771101474762,-0.0389822460711002,-0.093536376953125,0.4213738143444061
1629897285132,0.4133796095848083,-0.0485510751605033,-0.0843568071722984,0.4722331464290619
1629897285194,0.3881874084472656,-0.0573188140988349,-0.0698809400200843,0.5483709573745728
1629897285288,0.3760047852993011,-0.0591428317129612,-0.0557424984872341,0.6220725774765015
1629897285444,0.3770104646682739,-0.0449768528342247,-0.0480669625103473,0.667790949344635
1629897285506,0.3730741739273071,-0.018242385238409,-0.0501866228878498,0.6801374554634094
1629897285616,0.3524246215820312,0.0048860008828341,-0.0614433214068412,0.6746320724487305
1629897285725,0.326622724533081,0.0058615715242922,-0.076735571026802,0.6764199137687683
1629897285866,0.3079436123371124,-0.0173674002289772,-0.0898390859365463,0.6970674991607666
1629897285928,0.3069902062416076,-0.0531282797455787,-0.1021577641367912,0.7297244668006897
1629897285991,0.315365731716156,-0.0807095021009445,-0.1210840418934822,0.7600439786911011
1629897286100,0.3237853050231933,-0.0874860882759094,-0.1501146554946899,0.7781827449798584
1629897286225,0.323914498090744,-0.0758515819907188,-0.18267422914505,0.7825746536254883
1629897286336,0.3169871568679809,-0.057143460959196,-0.207924336194992,0.7783758044242859
1629897286476,0.3083051741123199,-0.0415549986064434,-0.2222525179386139,0.771281898021698
1629897286539,0.3034311830997467,-0.0326523222029209,-0.2302241325378418,0.7601850032806396
1629897286648,0.2965615391731262,-0.0279670562595129,-0.2331475466489792,0.7328412532806396
1629897286726,0.2822575569152832,-0.0228763874620199,-0.2323381751775741,0.6800585389137268
1629897286839,0.2564277946949005,-0.0183287877589464,-0.2348278313875198,0.6105237603187561
1629897286964,0.2356218993663787,-0.0242314413189888,-0.2470748126506805,0.5537142753601074
1629897287073,0.2417550683021545,-0.0457378737628459,-0.2637698352336883,0.5363371968269348
1629897287136,0.2750005424022674,-0.0792560055851936,-0.2708553671836853,0.5475565791130066
1629897287261,0.3199584186077118,-0.109625406563282,-0.258963942527771,0.5561565160751343
1629897287354,0.3642997145652771,-0.127614289522171,-0.233865737915039,0.5457692742347717
1629897287495,0.3921554088592529,-0.1280327886343002,-0.2056352645158767,0.5156944394111633
1629897287573,0.3998697400093078,-0.1150708049535751,-0.1802811175584793,0.4732235670089721
1629897287683,0.3987458050251007,-0.0991172343492508,-0.1575293987989425,0.4321654140949249
1629897287761,0.4073653519153595,-0.0935605615377426,-0.1370865702629089,0.405765950679779
1629897287839,0.4303702116012573,-0.1010746508836746,-0.1162316277623176,0.3994964063167572
1629897287932,0.4610474705696106,-0.111401692032814,-0.0934183746576309,0.4101871252059936
1629897288042,0.4890060424804687,-0.1152501031756401,-0.0715499967336654,0.4298759996891022
1629897288153,0.5178080201148987,-0.1159285232424736,-0.0548904165625572,0.4544864296913147
1629897288291,0.5553808808326721,-0.1188718229532241,-0.0444409735500812,0.4818385243415832
1629897288371,0.5985052585601807,-0.1223381012678146,-0.0368541181087493,0.5102357268333435
1629897288514,0.6364216804504395,-0.1139432936906814,-0.0268213227391242,0.5379570126533508
1629897288573,0.6659284234046936,-0.082602821290493,-0.0148920286446809,0.5648987293243408
1629897288620,0.689526379108429,-0.0274901464581489,-0.0063734808936715,0.5955511927604675
1629897288774,0.705095112323761,0.0375750809907913,-0.0069166091270744,0.6267515420913696
1629897288932,0.709301769733429,0.0951004698872566,-0.0174217280000448,0.6491367816925049
1629897288965,0.7033531069755554,0.1354277729988098,-0.035070139914751,0.6569998860359192
1629897289077,0.6937864422798157,0.1597840934991836,-0.0524836257100105,0.6556054353713989
1629897289154,0.6843299269676208,0.1752415895462036,-0.0646359622478485,0.6576993465423584
1629897289239,0.6725020408630371,0.1883967965841293,-0.0701304599642753,0.6708249449729919
1629897289379,0.6566474437713623,0.2011937648057937,-0.0733933225274086,0.689786970615387
1629897289489,0.6404950022697449,0.2143237292766571,-0.076750174164772,0.7043139934539795
1629897289604,0.6298348307609558,0.2271418273448944,-0.0783977285027504,0.7110388278961182
1629897289698,0.6242481470108032,0.2379336357116699,-0.0788935273885726,0.7165122628211975
1629897289776,0.6152463555335999,0.2443119883537292,-0.0828280970454216,0.7272878885269165
1629897289881,0.5976148843765259,0.2450337409973144,-0.0946692377328872,0.7372020483016968
1629897290005,0.574592113494873,0.2378197312355041,-0.1141142547130584,0.7336879372596741
1629897290068,0.549885094165802,0.220037430524826,-0.1347208321094513,0.7095891833305359
1629897290162,0.5295032858848572,0.1887272149324417,-0.1487061381340026,0.6669225692749023
1629897290271,0.5180367231369019,0.144502118229866,-0.1527190208435058,0.6187241077423096
1629897290365,0.522445023059845,0.0932775661349296,-0.1484892815351486,0.5846692323684692
1629897290474,0.5424834489822388,0.0399261489510536,-0.1400186419486999,0.5761611461639404
1629897290630,0.5693635940551758,-0.0152907678857445,-0.1346588879823684,0.5854618549346924
1629897290693,0.5945870876312256,-0.073342815041542,-0.1359224170446396,0.5934868454933167
1629897290819,0.6201097369194031,-0.1315434128046035,-0.1423825472593307,0.5899894833564758
1629897290867,0.6503300666809082,-0.1841332763433456,-0.1495616734027862,0.5814810395240784
1629897290976,0.6761952042579651,-0.2323740571737289,-0.1560377478599548,0.5782952904701233
1629897291133,0.6902302503585815,-0.2810594141483307,-0.1625921577215194,0.5819116234779358
1629897291211,0.6915940046310425,-0.3265871405601501,-0.1693816035985946,0.5836998224258423
1629897291273,0.6880378127098083,-0.3614182770252228,-0.1745290607213974,0.5779597759246826
1629897291398,0.6851152181625366,-0.3829466104507446,-0.1762981712818145,0.5702693462371826
1629897291492,0.6820256114006042,-0.3936887979507446,-0.1738945096731186,0.572659969329834
1629897291617,0.6730304956436157,-0.4004981517791748,-0.1692831665277481,0.587113082408905
1629897291664,0.6533154845237732,-0.4032697975635528,-0.1668051183223724,0.6012757420539856
1629897291836,0.6236262321472168,-0.397946685552597,-0.1697986721992492,0.6031309962272644
1629897291916,0.5871752500534058,-0.377919465303421,-0.1794416606426239,0.5913658738136292
1629897292026,0.5493291616439819,-0.3444402515888214,-0.1936079710721969,0.5739260315895081
1629897292119,0.5134993195533752,-0.3066915869712829,-0.2084960639476776,0.5603591799736023
1629897292213,0.4789066612720489,-0.276553750038147,-0.2223649621009826,0.5569219589233398
1629897292291,0.4383057057857513,-0.2591138780117035,-0.2371862381696701,0.5671908259391785
1629897292416,0.3820718824863434,-0.2556119859218597,-0.2568956911563873,0.5890374183654785
1629897292541,0.3192638456821441,-0.262161523103714,-0.2832518219947815,0.6140488386154175
1629897292635,0.259971022605896,-0.2709278166294098,-0.3167969882488251,0.6299027800559998
1629897292713,0.2076276540756225,-0.2697050869464874,-0.3581950068473816,0.6292961835861206
1629897292821,0.160355269908905,-0.2582690119743347,-0.407211422920227,0.6124352216720581
1629897292914,0.1321164220571518,-0.2406805902719497,-0.4611809253692627,0.588362455368042
1629897293038,0.1347183734178543,-0.2226134538650512,-0.515405535697937,0.5678817629814148
1629897293131,0.1622080206871032,-0.1886908411979675,-0.5593023300170898,0.5558239221572876
1629897293209,0.1908542513847351,-0.1283269375562667,-0.5710995197296143,0.5539572238922119
1629897293350,0.2140348702669143,-0.0563277304172515,-0.5398852825164795,0.5710445046424866
1629897293428,0.2484916299581527,0.0003281328245066,-0.4803736805915832,0.6237903237342834
1629897293506,0.3081092238426208,0.0339725948870182,-0.4231473803520202,0.7090528607368469
1629897293647,0.3922196328639984,0.0508093871176242,-0.3831160962581634,0.7989056706428528
1629897293756,0.4742051661014557,0.0628599673509597,-0.3631817400455475,0.8634180426597595
1629897293850,0.5342279076576233,0.0735814049839973,-0.3578307032585144,0.8903270363807678
1629897293947,0.5680385231971741,0.081290952861309,-0.3590971529483795,0.8836789727210999
1629897294072,0.5852075219154358,0.0870893970131874,-0.3571882545948028,0.8593529462814331
1629897294133,0.6046961545944214,0.0985716059803962,-0.3404892086982727,0.8348528742790222
1629897294265,0.6392627358436584,0.1204386875033378,-0.3061994612216949,0.8216271996498108
1629897294359,0.6825758218765259,0.1500288546085357,-0.2655269205570221,0.8206498026847839
1629897294437,0.7216721177101135,0.1766756325960159,-0.231942743062973,0.8272766470909119
1629897294578,0.7476258873939514,0.1914250701665878,-0.2136425226926803,0.835380494594574
1629897294737,0.75999915599823,0.1873512268066406,-0.2115384638309478,0.8411325216293335
1629897294784,0.7661420106887817,0.164148598909378,-0.2249674946069717,0.8424830436706543
1629897294955,0.7724299430847168,0.1330343037843704,-0.2499123066663742,0.8347713351249695
1629897294987,0.7767618298530579,0.1138130575418472,-0.2757448256015777,0.8063291907310486
1629897295065,0.7693699598312378,0.1122466474771499,-0.2863741219043731,0.7486379742622375
1629897295221,0.7422459125518799,0.1181235164403915,-0.2769898474216461,0.6724748015403748
1629897295268,0.70423424243927,0.1178546845912933,-0.2557097971439361,0.6158174276351929
1629897295330,0.6724675297737122,0.110428899526596,-0.2348357290029525,0.6072131395339966
1629897295502,0.6589532494544983,0.1026035994291305,-0.2181673496961593,0.6292952299118042
1629897295596,0.6584728956222534,0.095946729183197,-0.2066021263599395,0.6502270102500916
1629897295674,0.6541083455085754,0.0848677456378936,-0.2054343819618225,0.6623454093933105
1629897295737,0.6313602328300476,0.06181276217103,-0.2184735387563705,0.6722955107688904
1629897295833,0.5858483910560608,0.0256134700030088,-0.2402032911777496,0.6845777034759521
1629897295943,0.5232028365135193,-0.014239152893424,-0.2586780786514282,0.6953858137130737
1629897296068,0.4567973911762237,-0.040438886731863,-0.2620225548744201,0.6986725926399231
1629897296177,0.4028767049312591,-0.0464677698910236,-0.2531247437000274,0.6945374011993408
1629897296302,0.3667835891246795,-0.0415462031960487,-0.2437194734811782,0.6912269592285156
1629897296380,0.3442787230014801,-0.036587256938219,-0.2418827563524246,0.6972679495811462
1629897296489,0.3196347057819366,-0.0283545088022947,-0.2456722855567932,0.7125522494316101
1629897296583,0.2916799485683441,-0.0079806139692664,-0.2452831715345382,0.7267926335334778
1629897296692,0.2733815014362335,0.0232803151011466,-0.2256533205509185,0.7290557622909546
1629897296855,0.2604440450668335,0.0570990368723869,-0.1839512437582016,0.7154443264007568
1629897296886,0.2399572283029556,0.0869241207838058,-0.1371845304965973,0.694196879863739
1629897297042,0.2042094320058822,0.1137253493070602,-0.1047162413597107,0.6792098879814148
1629897297120,0.15547576546669,0.1398525238037109,-0.0941786915063858,0.6806260347366333
1629897297245,0.1023108139634132,0.1643262058496475,-0.0987443998456001,0.6938265562057495
1629897297308,0.0482922829687595,0.187393844127655,-0.1084794625639915,0.7059398889541626
1629897297401,0.0137697691097855,0.2106631249189376,-0.1170130148530006,0.7076835632324219
1629897297526,0.0084572583436965,0.2329643368721008,-0.1208675950765609,0.6990649104118347
1629897297589,0.0084572583436965,0.2490988075733184,-0.1210173070430755,0.688801646232605
1629897297714,0.0084572583436965,0.2570306658744812,-0.1201808527112007,0.6844882965087891
1629897297795,0.0084572583436965,0.2574374079704284,-0.1205946505069732,0.6821001172065735
1629897297920,0.0084572583436965,0.2492425888776779,-0.1216890886425972,0.6739640831947327
1629897298029,0.3172557353973388,0.2283507883548736,-0.1244916543364524,0.6573923230171204
1629897298123,0.3695853948593139,0.1957043260335922,-0.1320841163396835,0.6342654824256897
1629897298216,0.4091675877571106,0.1598094850778579,-0.1536212116479873,0.6041923761367798
1629897298295,0.4214250743389129,0.1295212358236313,-0.1951641887426376,0.5658022165298462
1629897298435,0.4067926108837127,0.1055975034832954,-0.2482108026742935,0.5233790874481201
1629897298560,0.37886443734169,0.0810277387499809,-0.2939176261425018,0.4887417256832123
1629897298638,0.3610512614250183,0.0527461767196655,-0.3175848722457886,0.4666179418563843
1629897298812,0.3706689476966858,0.022649522870779,-0.3241054117679596,0.4528501629829407
1629897298844,0.3979377746582031,-0.009441222064197,-0.3240911364555359,0.4367113709449768
1629897298906,0.4232466518878937,-0.0478880405426025,-0.3218958377838135,0.4125607907772064
1629897298984,0.4338898956775665,-0.0950390920042991,-0.3221869468688965,0.3831767737865448
1629897299141,0.432345300912857,-0.1412515491247177,-0.3283524811267853,0.3597610592842102
1629897299219,0.4371905028820038,-0.1728523075580597,-0.3351359367370605,0.3572532534599304
1629897299328,0.4365380704402923,-0.1808997392654419,-0.3341383039951324,0.3773306608200073
1629897299437,0.4327380061149597,-0.1732112318277359,-0.3274566829204559,0.4022959768772125
1629897299500,0.4290528297424316,-0.1678098887205124,-0.3258529603481293,0.4174215495586395
1629897299609,0.4246041476726532,-0.1788855493068695,-0.3392955064773559,0.4234620034694671
1629897299751,0.418041855096817,-0.2059829235076904,-0.3662566542625427,0.4253993332386017
1629897299924,0.4139707088470459,-0.2293993681669235,-0.3982178866863251,0.423712283372879
1629897299971,0.4182470142841339,-0.2269833981990814,-0.4263430833816528,0.418875128030777
1629897300049,0.4388971030712127,-0.2018214017152786,-0.4474936723709106,0.4233866930007934
1629897300127,0.4778853952884674,-0.1776820123195648,-0.46198770403862,0.4588256478309631
1629897300252,0.5182779431343079,-0.1701303869485855,-0.4725506603717804,0.5256436467170715
1629897300393,0.5431232452392578,-0.177956536412239,-0.4801723062992096,0.5978828072547913
1629897300470,0.5485365986824036,-0.1912609040737152,-0.4873751103878021,0.65078204870224
1629897300533,0.5476193428039551,-0.1995292901992797,-0.4912470877170563,0.6765403151512146
1629897300642,0.5514798164367676,-0.2012036144733429,-0.4766713678836822,0.6839413642883301
1629897300736,0.5618283748626709,-0.2013195008039474,-0.4268560707569122,0.686134397983551
1629897300848,0.5706838369369507,-0.2097478955984115,-0.3462201952934265,0.6930103898048401
1629897300989,0.5715702176094055,-0.228524848818779,-0.2558752298355102,0.7051676511764526
1629897301067,0.561962902545929,-0.2513835430145263,-0.1755467057228088,0.7182394862174988
1629897301161,0.5442036390304565,-0.2696751058101654,-0.1145587265491485,0.7276144027709961
1629897301286,0.5237279534339905,-0.280156135559082,-0.0737353786826133,0.733532190322876
1629897301395,0.5059769749641418,-0.29279825091362,-0.0456817708909511,0.7397640347480774
1629897301457,0.4929376244544983,-0.3205540776252746,-0.0201615504920482,0.7448852062225342
1629897301614,0.4746367335319519,-0.3661995232105255,0.0069406791590154,0.7387492656707764
1629897301692,0.4343527555465698,-0.4176932275295257,0.0316382460296154,0.7088495492935181
1629897301789,0.3686175048351288,-0.4579390287399292,0.0480385795235633,0.649082601070404
1629897301895,0.2947391867637634,-0.482515275478363,0.0554909706115722,0.5682294368743896
1629897301985,0.2379509806632995,-0.4986514449119568,0.0580997541546821,0.4922648668289184
1629897302047,0.1981980502605438,-0.5143320560455322,0.0605789273977279,0.4458445608615875
1629897302188,0.1564378887414932,-0.5316319465637207,0.0631684139370918,0.4207373559474945
1629897302266,0.0988367870450019,-0.5451029539108276,0.0600753836333751,0.3898846209049225
1629897302422,0.0460432395339012,-0.5328651070594788,0.0442925430834293,0.3515377938747406
1629897302453,0.0443517342209816,-0.4706279933452606,0.0146729554980993,0.3545897305011749
1629897302594,0.1166153475642204,-0.3609704077243805,-0.0230421349406242,0.4330693483352661
1629897302703,0.2176761478185653,-0.2394614517688751,-0.0590685456991195,0.5416937470436096
1629897302847,0.3010177314281463,-0.138930469751358,-0.08687175065279,0.6229296326637268
1629897302940,0.352144181728363,-0.072886623442173,-0.1102073118090629,0.6616724729537964
1629897302985,0.376158744096756,-0.0391806215047836,-0.1388498395681381,0.6731638312339783
1629897303095,0.390337586402893,-0.0244444254785776,-0.1754707843065261,0.6796823740005493
1629897303221,0.4101733863353729,-0.0132046481594443,-0.2110314816236496,0.6914026737213135
1629897303252,0.4427598118782043,0.0034066122025251,-0.2299187034368515,0.7087709903717041
1629897303453,0.4859338700771332,0.0239633563905954,-0.2270555049180984,0.7293927073478699
1629897303501,0.5263124704360962,0.0418557934463024,-0.208634153008461,0.749624490737915
1629897303609,0.5531878471374512,0.0540608875453472,-0.1840060651302337,0.7681103348731995
1629897303686,0.5678758025169373,0.062402356415987,-0.1615598201751709,0.786406934261322
1629897303798,0.5800065398216248,0.0691051706671714,-0.1441455781459808,0.8033977150917053
1629897303906,0.5988667607307434,0.070958524942398,-0.1300013065338134,0.8106191158294678
1629897304063,0.6229684352874756,0.0580914318561553,-0.120512306690216,0.7963802814483643
1629897304111,0.6461105942726135,0.0225979816168546,-0.1200229525566101,0.755669116973877
1629897304220,0.6661626100540161,-0.0330650806427001,-0.1312140673398971,0.6974055767059326
1629897304315,0.6881064772605896,-0.0950907319784164,-0.1500429362058639,0.6443188786506653
1629897304377,0.7129802703857422,-0.1453817486763,-0.1687197685241699,0.6162554025650024
1629897304519,0.735731303691864,-0.1734982579946518,-0.183597594499588,0.6102510094642639
1629897304613,0.7483558654785156,-0.1848774701356887,-0.1965137422084808,0.6080151200294495
1629897304724,0.7497086524963379,-0.1866467148065567,-0.2091785669326782,0.5983689427375793
1629897304818,0.7440720796585083,-0.1800925135612487,-0.2195554226636886,0.5839473009109497
1629897304962,0.7385700941085815,-0.1576816886663437,-0.226365253329277,0.575091540813446
1629897305025,0.7417812347412109,-0.1165926530957222,-0.2349626421928405,0.5783026814460754
1629897305087,0.7549791932106018,-0.0666433051228523,-0.2501406669616699,0.5868402719497681
1629897305213,0.7676299810409546,-0.022355007007718,-0.2705270648002624,0.5857850909233093
1629897305323,0.7742614150047302,0.0137004200369119,-0.2933269143104553,0.5722227692604065
1629897305401,0.7719917893409729,0.0429469607770442,-0.3174583315849304,0.5557436943054199
1629897305542,0.7594823837280273,0.0690320581197738,-0.3427416682243347,0.5419518351554871
1629897305623,0.7330328822135925,0.0904450863599777,-0.3644137680530548,0.5222671627998352
1629897305748,0.693486750125885,0.1039295271039009,-0.373765766620636,0.4908337891101837
1629897305840,0.6435183882713318,0.1081665381789207,-0.3650349676609039,0.4548708200454712
1629897305966,0.5915589928627014,0.1059631407260894,-0.3381032049655914,0.4299089014530182
1629897306046,0.5508418083190918,0.1032476872205734,-0.2991950213909149,0.4282078444957733
1629897306154,0.532929003238678,0.1038177087903022,-0.2613616287708282,0.4508545100688934
1629897306246,0.5290480852127075,0.1040881723165512,-0.2342741638422012,0.484085351228714
1629897306342,0.5205435156822205,0.09678665548563,-0.2225113809108734,0.5077391266822815
1629897306512,0.4933306872844696,0.0746300965547561,-0.226074531674385,0.5074570178985596
1629897306559,0.445671945810318,0.0369761772453784,-0.2395694851875305,0.4853183925151825
1629897306620,0.3866516053676605,-0.0098223909735679,-0.2545304596424103,0.457602709531784
1629897306744,0.3414527475833893,-0.0550492666661739,-0.2644302546977997,0.4433553218841553
1629897306869,0.3186140358448028,-0.0994185730814933,-0.2668907940387726,0.4461206197738647
1629897306900,0.3136796653270721,-0.1473116427659988,-0.2621343433856964,0.4568357765674591
1629897307056,0.3173886835575104,-0.1997283101081848,-0.2506430745124817,0.4660561978816986
1629897307149,0.3283701837062835,-0.2505232989788055,-0.235293760895729,0.4718574285507202
1629897307244,0.3457823693752289,-0.2973352372646332,-0.2197919487953186,0.4765190780162811
1629897307321,0.3706168532371521,-0.3403849601745605,-0.2054389268159866,0.4902194142341614
1629897307446,0.3976838588714599,-0.3775013387203216,-0.187565416097641,0.5163070559501648
1629897307543,0.4145532548427582,-0.4063587784767151,-0.1659239381551742,0.5404348373413086
1629897307684,0.4125474989414215,-0.4251592457294464,-0.1453860998153686,0.5454514622688293
1629897307810,0.4029189646244049,-0.4354973137378692,-0.1327004581689834,0.532328724861145
1629897307854,0.4044010937213897,-0.4383460283279419,-0.1300161182880401,0.5142908096313477
1629897307947,0.4203786849975586,-0.4303571283817291,-0.1331999152898788,0.5000528693199158
1629897308071,0.4364863932132721,-0.4065654277801513,-0.139018177986145,0.4863854944705963
1629897308149,0.4451020359992981,-0.3679542243480682,-0.1497053802013397,0.4719655215740204
1629897308275,0.4460436105728149,-0.330737829208374,-0.1684705466032028,0.4664994776248932
1629897308368,0.440829187631607,-0.3093593418598175,-0.1942775845527649,0.4765574634075165
1629897308462,0.4287999272346496,-0.3040874004364013,-0.2219756841659546,0.4928616285324096
1629897308541,0.4100493490695953,-0.3035151958465576,-0.2462599277496338,0.5028218030929565
1629897308681,0.3865224123001098,-0.2960340976715088,-0.2653907835483551,0.5030107498168945
1629897308819,0.3623957633972168,-0.2749132215976715,-0.2832363843917846,0.4982602596282959
1629897308880,0.3379334509372711,-0.2437765598297119,-0.3080533146858215,0.4889364838600158
1629897308991,0.3164219260215759,-0.2072412967681884,-0.3533653616905212,0.4753939211368561
1629897309099,0.3039333820343017,-0.1703963875770568,-0.424187958240509,0.4640474617481231
1629897309165,0.3020916283130646,-0.1408129185438156,-0.5003926157951355,0.4638606607913971
1629897309286,0.3070169687271118,-0.1245254054665565,-0.5465326905250549,0.4777162075042724
1629897309381,0.323934942483902,-0.1237409189343452,-0.5453650951385498,0.5051879286766052
1629897309504,0.3572035729885101,-0.1364500820636749,-0.5111085772514343,0.5407817363739014
1629897309582,0.399124801158905,-0.1625575721263885,-0.4511214196681976,0.5738572478294373
1629897309690,0.4371554255485534,-0.2021070718765258,-0.3745635449886322,0.595562219619751
1629897309783,0.4726681709289551,-0.2458425164222717,-0.3018995523452759,0.6058363318443298
1629897309847,0.5090057849884033,-0.275258868932724,-0.2492833286523819,0.6086912751197815
1629897309986,0.5402830839157104,-0.2810701131820678,-0.2183015346527099,0.6077814102172852
1629897310112,0.5631586313247681,-0.2742899656295776,-0.1990817636251449,0.6060810089111328
1629897310237,0.5825338959693909,-0.2714134752750397,-0.1764420568943023,0.6114262342453003
1629897310301,0.600497841835022,-0.2801848649978637,-0.1438066810369491,0.6306851506233215
1629897310378,0.6125528216362,-0.2989006340503692,-0.1027294620871543,0.6570038199424744
1629897310489,0.6113202571868896,-0.3256406188011169,-0.0611806400120258,0.6730265617370605
1629897310567,0.5999983549118042,-0.3614606559276581,-0.0250775925815105,0.6697227954864502
1629897310753,0.5875905752182007,-0.4035094678401947,0.0015015765093266,0.6519758701324463
1629897310817,0.5784096717834473,-0.4374582767486572,0.0187740381807088,0.6295351386070251
1629897310879,0.5629883408546448,-0.4427935481071472,0.0282268188893795,0.6042038798332214
1629897311050,0.5314205884933472,-0.4141085147857666,0.0312818996608257,0.5739148855209351
1629897311102,0.488840639591217,-0.3694138824939728,0.0234982725232839,0.5444256067276001
1629897311221,0.450704276561737,-0.3283402621746063,0.002461239695549,0.5254936814308167
1629897311316,0.4209286570549011,-0.3007811307907104,-0.0278026275336742,0.5153207778930664
1629897311426,0.3949508368968963,-0.2862277030944824,-0.059564720839262,0.5063824653625488
1629897311569,0.3764463365077972,-0.2780267298221588,-0.0862030535936355,0.4985984861850738
1629897311646,0.3853308856487274,-0.2639724910259247,-0.1018873453140258,0.4994341135025024
1629897311715,0.4347919821739197,-0.2291853725910186,-0.101226694881916,0.5055509805679321
1629897311852,0.5116494297981262,-0.1758075952529907,-0.085093542933464,0.5035166144371033
1629897311977,0.5893163084983826,-0.1230933666229248,-0.0691805407404899,0.4937059581279754
1629897312087,0.6501962542533875,-0.0896738469600677,-0.06785848736763,0.5001212358474731
1629897312151,0.6897203922271729,-0.0778673216700553,-0.0835005789995193,0.5387129783630371
1629897312230,0.7136402130126953,-0.0756004676222801,-0.1058016493916511,0.5933123230934143
1629897312326,0.7266640663146973,-0.0725940689444542,-0.1247506067156791,0.6366311311721802
1629897312417,0.7342500686645508,-0.0668056160211563,-0.1359204053878784,0.6608885526657104
1629897312576,0.7415992021560669,-0.0612502433359622,-0.1359111815690994,0.6759278178215027
1629897312688,0.7496522665023804,-0.0571917071938514,-0.1204045414924621,0.6906900405883789
1629897312749,0.7584854364395142,-0.0575270466506481,-0.0951507687568664,0.704859733581543
1629897312825,0.7735245227813721,-0.0643547624349594,-0.0714631751179695,0.7187789082527161
1629897312890,0.7976691126823425,-0.077460266649723,-0.0528337508440017,0.7368412017822266
1629897313029,0.8237608075141907,-0.0942426100373268,-0.0331309586763381,0.7604550719261169
1629897313139,0.8353450894355774,-0.116584911942482,-0.0093655418604612,0.7814427614212036
1629897313281,0.8181034922599792,-0.1524447947740554,0.0084804501384496,0.7932667136192322
1629897313375,0.7725507020950317,-0.2028266489505767,0.008980163373053,0.7968981862068176
1629897313420,0.713202953338623,-0.2445613890886306,-0.0067250607535243,0.7950562834739685
1629897313498,0.6585623025894165,-0.2419168353080749,-0.0271402783691883,0.7830848693847656
1629897313655,0.6198249459266663,-0.1891063600778579,-0.039441205561161,0.7565531730651855
1629897313731,0.5938689708709717,-0.1229154095053672,-0.0406142249703407,0.7186499238014221
1629897313871,0.5779208540916443,-0.0705523043870925,-0.0360589288175106,0.6802412867546082
1629897313948,0.5733187794685364,-0.0368381328880786,-0.0306175854057073,0.649163544178009
1629897314108,0.5799759030342102,-0.0174851194024086,-0.0307576041668653,0.6233282089233398
1629897314149,0.5917481184005737,-0.0062698381952941,-0.0391475968062877,0.5991981625556946
1629897314229,0.6011618375778198,0.0019602554384618,-0.0516764111816883,0.5811062455177307
1629897314370,0.597888708114624,0.0112897930666804,-0.0596998035907745,0.5722788572311401
1629897314465,0.5746296048164368,0.0213111881166696,-0.058828767389059,0.5646742582321167
1629897314576,0.5440953969955444,0.0275962315499782,-0.0548288486897945,0.5486511588096619
1629897314682,0.526992678642273,0.0302295219153165,-0.0601995624601841,0.5232038497924805
1629897314746,0.5311203002929688,0.0309023689478635,-0.0809965804219245,0.4938068985939026
1629897314838,0.5424519181251526,0.0325785428285598,-0.1091303676366806,0.4638008773326874
1629897314962,0.547943115234375,0.0347289964556694,-0.1303983330726623,0.4319536089897156
1629897315057,0.5491811633110046,0.0333928726613521,-0.1377464234828949,0.4018135666847229
1629897315184,0.5498040914535522,0.0231172516942024,-0.1385270208120346,0.3802321553230285
1629897315325,0.5528477430343628,0.0047012595459818,-0.1392219364643097,0.3718725144863128
1629897315371,0.5595604777336121,-0.0174250416457653,-0.1375865191221237,0.3766248822212219
1629897315464,0.5698643922805786,-0.0383764132857322,-0.1311423629522323,0.3925608396530151
1629897315606,0.5881787538528442,-0.0551788695156574,-0.1218431964516639,0.4237972795963287
1629897315698,0.6163178086280823,-0.0705798417329788,-0.1153981611132621,0.4730351567268371
1629897315853,0.6446962356567383,-0.0839457437396049,-0.1146638914942741,0.5252116918563843
1629897315900,0.6603778004646301,-0.0934393554925918,-0.1200787127017974,0.5560652017593384
1629897315993,0.6611344814300537,-0.0933733060956001,-0.1320977360010147,0.5559800267219543
1629897316087,0.6512223482131958,-0.0771559923887252,-0.1527814716100692,0.5384814143180847
1629897316212,0.6418449878692627,-0.0497783869504928,-0.1787635087966919,0.5326410531997681
1629897316293,0.6431156992912292,-0.0234508980065584,-0.2017550468444824,0.5495933294296265
1629897316418,0.6538295149803162,-0.0099841458722949,-0.2181311398744583,0.5748904943466187
1629897316515,0.6682838797569275,-0.0122018055990338,-0.2287689596414566,0.5961600542068481
1629897316544,0.6832875609397888,-0.019222717732191,-0.235300526022911,0.6167352795600891
1629897316653,0.7008867263793945,-0.0174517966806888,-0.2366407662630081,0.6415389776229858
1629897316795,0.7213922739028931,-0.0060476781800389,-0.2377824932336807,0.6656297445297241
1629897316950,0.7448582053184509,0.0052626398392021,-0.2438320070505142,0.6835934519767761
1629897317011,0.7645518779754639,0.0074984449893236,-0.257030189037323,0.6932708621025085
1629897317088,0.7674499154090881,0.0007270105998031,-0.2764754593372345,0.6903176307678223
1629897317182,0.7509229183197021,-0.0043810526840388,-0.3017392456531524,0.6701091527938843
1629897317279,0.7277989983558655,-0.0019924759399145,-0.3306709229946136,0.6321364045143127
1629897317420,0.7124646306037903,0.0077274786308407,-0.3552853763103485,0.5885941386222839
1629897317496,0.7054681777954102,0.0183594562113285,-0.3659701645374298,0.5579438209533691
1629897317625,0.7009103894233704,0.0231042262166738,-0.358979731798172,0.5453274846076965
1629897317717,0.6933060884475708,0.0186599511653184,-0.3433893918991089,0.5363399982452393
1629897317841,0.682310938835144,0.006521722767502,-0.3336846232414245,0.5189271569252014
1629897317875,0.6695534586906433,-0.0101801119744777,-0.3361177444458008,0.4938253164291382
1629897318030,0.6548985242843628,-0.0307211801409721,-0.344115674495697,0.4654521048069
1629897318108,0.6366972923278809,-0.0625050589442253,-0.3411392271518707,0.4314839839935303
1629897318250,0.6132308840751648,-0.1128007918596267,-0.3197064399719238,0.3879747986793518
1629897318294,0.5830726623535156,-0.1770679205656051,-0.2905626595020294,0.3444508016109466
1629897318389,0.5399319529533386,-0.2339175194501876,-0.2721368074417114,0.3121798932552337
1629897318497,0.4847183525562286,-0.2548335194587707,-0.2699664831161499,0.2940498888492584
1629897318639,0.4371908605098724,-0.2351137101650238,-0.2731360495090484,0.2929393351078033
1629897318733,0.4157630503177643,-0.1975799351930618,-0.2680274546146393,0.3067891299724579
1629897318811,0.41562619805336,-0.1653327643871307,-0.2548666894435882,0.3327906131744385
1629897318934,0.4159512221813202,-0.1497224122285843,-0.2442878633737564,0.3594114482402801
1629897319044,0.4157164990901947,-0.1489399075508117,-0.2442542612552642,0.3762903213500976
1629897319108,0.4111277163028717,-0.1581026464700698,-0.2542750239372253,0.3781754076480865
1629897319265,0.4043088257312774,-0.1726528108119964,-0.2659496068954468,0.3737991452217102
1629897319372,0.4057733416557312,-0.1853120625019073,-0.2652082145214081,0.3851830661296844
1629897319450,0.4337262511253357,-0.1895015686750412,-0.2458785325288772,0.4274780750274658
1629897319557,0.4851202964782715,-0.1825959384441375,-0.2137341201305389,0.486455351114273
1629897319605,0.5385079979896545,-0.1658776253461837,-0.1829320788383484,0.5384125709533691
1629897319731,0.5761750340461731,-0.1433089524507522,-0.1631822884082794,0.5713323950767517
1629897319885,0.6008479595184326,-0.122314304113388,-0.1524941474199295,0.5893228650093079
1629897319949,0.6205291748046875,-0.1123781129717826,-0.1426358819007873,0.6021437048912048
1629897320071,0.6351231932640076,-0.1221358180046081,-0.1303352117538452,0.6177874207496643
1629897320195,0.6385193467140198,-0.1520889699459076,-0.1133115142583847,0.6353973746299744
1629897320244,0.6278205513954163,-0.1965671479701995,-0.0882945731282234,0.6490129828453064
1629897320367,0.6067497134208679,-0.2421338707208633,-0.0544329322874546,0.6531751155853271
1629897320478,0.5878152847290039,-0.2771506607532501,-0.0190537311136722,0.6497754454612732
1629897320600,0.5811640620231628,-0.3008430004119873,0.0073580956086516,0.6467589735984802
1629897320648,0.5928353071212769,-0.3193615972995758,0.0199138652533292,0.6502650380134583
1629897320755,0.6155293583869934,-0.333234578371048,0.0214849263429641,0.6557638645172119
1629897320878,0.6287358999252319,-0.3409045934677124,0.0167151521891355,0.6491790413856506
1629897320927,0.6182543635368347,-0.3416942358016968,0.0080185774713754,0.6212785840034485
1629897321067,0.5858210325241089,-0.346958726644516,-0.0059334789402782,0.5760617256164551
1629897321175,0.5527344346046448,-0.3627161979675293,-0.0271563660353422,0.5285231471061707
1629897321253,0.5419995784759521,-0.3836584091186523,-0.0554804541170597,0.4949608147144317
1629897321348,0.5500155091285706,-0.3866091966629028,-0.088157907128334,0.4800456166267395
1629897321471,0.5630373954772949,-0.3499959409236908,-0.1172802522778511,0.4821946918964386
1629897321565,0.5805069804191589,-0.2844797968864441,-0.1311831772327423,0.4986895024776459
1629897321673,0.6049185991287231,-0.2232711315155029,-0.1305050253868103,0.5235207080841064
1629897321782,0.631072461605072,-0.1886723786592483,-0.128941923379898,0.5477290153503418
1629897321862,0.6486511826515198,-0.1821743547916412,-0.1382816284894943,0.5648682713508606
1629897321987,0.6543322205543518,-0.1926143765449524,-0.1539743691682815,0.5717677474021912
1629897322065,0.65156489610672,-0.2072261273860931,-0.1614721566438675,0.5678645372390747
1629897322192,0.6465951800346375,-0.2167302519083023,-0.1491634994745254,0.5541444420814514
1629897322366,0.6452887058258057,-0.2200005650520324,-0.1240578666329383,0.5359199047088623
1629897322395,0.6529251933097839,-0.2213875949382782,-0.0954826325178146,0.5238454937934875
1629897322492,0.6656916737556458,-0.2242667824029922,-0.066489353775978,0.5212233066558838
1629897322569,0.6769912242889404,-0.2258935868740081,-0.0338997356593608,0.525682270526886
1629897322710,0.6800719499588013,-0.2239832580089569,0.0032050691079348,0.5336962938308716
1629897322760,0.6742771863937378,-0.216364711523056,0.038886547088623,0.544799268245697
1629897322932,0.6634683609008789,-0.2087075114250183,0.065516747534275,0.5555849671363831
1629897322979,0.6488487124443054,-0.2072210609912872,0.0798696652054786,0.5577040910720825
1629897323104,0.6277490258216858,-0.2187852561473846,0.0830250158905983,0.5424001216888428
1629897323197,0.6001685857772827,-0.226705253124237,0.0754475891590118,0.5073850750923157
1629897323258,0.5814400911331177,-0.200902447104454,0.0604457594454288,0.4672888815402984
1629897323368,0.5874385237693787,-0.2022303342819214,0.0430817864835262,0.4440996646881103
1629897323508,0.6229631304740906,-0.1872558295726776,0.0307666398584842,0.4561167359352112
1629897323631,0.683887243270874,-0.1654664427042007,0.0261967722326517,0.4984119236469269
1629897323710,0.7572723627090454,-0.1419394314289093,0.0227914564311504,0.5509098172187805
1629897323820,0.8238239288330078,-0.1151306852698326,0.0215004980564117,0.5939347743988037
1629897323914,0.8672376275062561,-0.0812572464346885,0.0176315288990736,0.6178678274154663
1629897323975,0.8826748132705688,-0.0401331894099712,-0.0070720519870519,0.6269142627716064
1629897324114,0.8799198269844055,0.0068742698058485,-0.0359845608472824,0.6334081292152405
1629897324253,0.8724021911621094,0.0569833368062973,-0.0687903761863708,0.6453050374984741
1629897324364,0.8647097945213318,0.0417637042701244,-0.1033611819148063,0.6580677032470703
1629897324408,0.8560861945152283,0.0123359411954879,-0.1327776610851287,0.6671126484870911
1629897324517,0.8484562635421753,-0.0250772479921579,-0.1524869948625564,0.6757504940032959
1629897324581,0.8435122966766357,-0.0454375185072422,-0.1681539267301559,0.6885347366333008
1629897324720,0.8399502635002136,-0.0586434453725814,-0.1817062646150589,0.7038094997406006
1629897324829,0.8308572769165039,-0.1111123040318489,-0.1926566362380981,0.7104435563087463
1629897324938,0.812431812286377,-0.1018436476588249,-0.1993042081594467,0.7032250761985779
1629897325063,0.78368079662323,-0.0939169526100158,-0.2090518623590469,0.6846304535865784
1629897325110,0.7365966439247131,-0.0719484835863113,-0.2298125326633453,0.6585243940353394
1629897325189,0.656419575214386,-0.0427888929843902,-0.2599034905433655,0.6258777379989624
1629897325362,0.5396777391433716,-0.0159693546593189,-0.2710259854793548,0.5957183241844177
1629897325487,0.4236726760864258,0.009130198508501,-0.2789269685745239,0.5862117409706116
1629897325518,0.3797930777072906,0.0334630794823169,-0.274784505367279,0.6021645665168762
1629897325610,0.4128187298774719,0.0532287582755088,-0.2630460262298584,0.623019278049469
1629897325734,0.4615917205810547,0.0638787597417831,-0.2512156069278717,0.6270842552185059
1629897325814,0.4995800256729126,0.088368535041809,-0.2449298501014709,0.6118963956832886
1629897325956,0.5262962579727173,0.1070630401372909,-0.2422463744878769,0.5855662822723389
1629897326066,0.5459325313568115,0.120666466653347,-0.2369981110095977,0.5526770353317261
1629897326129,0.5589216351509094,0.1239552572369575,-0.2199929356575012,0.5143605470657349
1629897326222,0.5673375725746155,0.1177786588668823,-0.1801808327436447,0.4851762354373932
