timestamp,TP9,AF7,AF8,TP10
1629880721626,0.9788984656333924,-0.0843833312392234,-0.0065095382742583,1.2565147876739502
1629880721688,0.9788984656333924,-0.0443581417202949,-0.0269478037953376,1.2565147876739502
1629880721798,0.9788984656333924,-0.0200575534254312,-0.0470058992505073,1.2565147876739502
1629880721907,0.9788984656333924,-0.0155587708577513,-0.0592228695750236,1.2565147876739502
1629880721985,0.9788984656333924,-0.0217276979237794,-0.0558480098843574,1.2565147876739502
1629880722110,0.9788984656333924,-0.0278727617114782,-0.0381486527621746,1.2565147876739502
1629880722219,0.9788984656333924,-0.0322016850113868,-0.0067756897769868,1.169807195663452
1629880722329,1.1400282382965088,-0.0189159344881773,0.0147375762462615,1.2026095390319824
1629880722407,1.090738296508789,-0.010612397454679,0.0192462895065546,1.223151445388794
1629880722501,1.0618958473205566,-0.0103759169578552,0.0099275419488549,1.237391233444214
1629880722579,1.0703327655792236,-0.0174488928169012,-0.0070349834859371,1.2560532093048096
1629880722725,1.091542363166809,-0.0287533551454544,-0.0304738283157348,1.2742091417312622
1629880722819,1.107837796211243,-0.0386524200439453,-0.059409637004137,1.286845088005066
1629880722897,1.1090377569198608,-0.0438202619552612,-0.0884494855999946,1.2906694412231443
1629880723038,1.0986047983169556,-0.0488118715584278,-0.1096631065011024,1.289666771888733
1629880723100,1.0829718112945557,-0.0580083206295967,-0.1186222583055496,1.288443922996521
1629880723241,1.0683902502059937,-0.0638825744390487,-0.1192175894975662,1.286691427230835
1629880723303,1.0517030954360962,-0.0588300675153732,-0.1169969663023948,1.2812498807907104
1629880723413,1.037981033325195,-0.0436101332306861,-0.1177241206169128,1.2829298973083496
1629880723537,1.0311496257781982,-0.0292499959468841,-0.1263777613639831,1.2929670810699463
1629880723647,1.012868881225586,-0.0241446178406476,-0.1421728879213333,1.3019870519638062
1629880723716,0.9957275390625,-0.0279191154986619,-0.1582228392362594,1.3058605194091797
1629880723810,0.9939966797828674,-0.034856129437685,-0.1698486804962158,1.3051562309265137
1629880723919,1.0089865922927856,-0.0424962490797042,-0.1799414753913879,1.304322600364685
1629880724091,1.0212733745574951,-0.0515012703835964,-0.193328708410263,1.3032078742980957
1629880724154,1.0075504779815674,-0.0642003864049911,-0.2099871188402176,1.294365167617798
1629880724294,0.9673957824707032,-0.0790599063038826,-0.2248377948999405,1.2774535417556765
1629880724372,0.9061753749847412,-0.0933734625577926,-0.2340544611215591,1.2562737464904783
1629880724419,0.8471903800964355,-0.1053212657570838,-0.2324559241533279,1.2405925989151
1629880724529,0.8073869347572327,-0.1182407140731811,-0.2176192253828048,1.23058021068573
1629880724673,0.8073869347572327,-0.1415246725082397,-0.1958915144205093,1.23058021068573
1629880724766,0.8073869347572327,-0.1864934712648391,-0.1784047782421112,1.23058021068573
1629880724844,0.8073869347572327,-0.2526401281356811,-0.172483205795288,1.23058021068573
1629880724938,0.8073869347572327,-0.330396831035614,-0.1785991787910461,1.23058021068573
1629880725032,0.8073869347572327,-0.4056965112686157,-0.1972448378801345,1.2893849611282349
1629880725141,0.5603296160697937,-0.4677888453006744,-0.2312856018543243,1.2929006814956665
1629880725266,0.5886462330818176,-0.5101445317268372,-0.2768303453922272,1.2790793180465698
1629880725376,0.595330536365509,-0.5281969308853149,-0.3149331212043762,1.2527563571929932
1629880725485,0.595330536365509,-0.5190730094909668,-0.3226783871650696,1.2230926752090454
1629880725563,0.595330536365509,-0.4919445514678955,-0.2986342012882232,1.2036556005477903
1629880725657,0.595330536365509,-0.4632275402545929,-0.2628249228000641,1.2037571668624878
1629880725768,0.595330536365509,-0.4488221108913421,-0.2331237494945526,1.2221887111663818
1629880725909,0.595330536365509,-0.4573633372783661,-0.2167554348707199,1.2464337348937988
1629880725956,0.595330536365509,-0.4809807240962982,-0.213745892047882,1.2728307247161863
1629880726065,0.595330536365509,-0.473215788602829,-0.2097397595643997,1.306839108467102
1629880726143,0.595330536365509,-0.3309361040592193,-0.1614966690540313,1.306839108467102
1629880726268,0.595330536365509,-0.0712053924798965,-0.0459819436073303,1.3155910968780518
1629880726362,0.6111958622932434,0.1711950898170471,0.095650129020214,1.3184915781021118
1629880726490,0.6314118504524231,0.3392451107501983,0.2126046419143676,1.3166073560714722
1629880726576,0.6314118504524231,0.4346312284469604,0.2876569628715515,1.3136290311813354
1629880726701,0.6314118504524231,0.4765832126140594,0.3248347342014313,1.3143937587738037
1629880726797,0.6314118504524231,0.4899161159992218,0.3384034633636474,1.3265533447265625
1629880726904,0.6314118504524231,0.4949903786182403,0.3405845761299133,1.354926824569702
1629880726952,0.6314118504524231,0.4993122816085815,0.3380941748619079,1.398098349571228
1629880727107,0.6314118504524231,0.5037817358970642,0.334508329629898,1.4469233751296997
1629880727200,0.6314118504524231,0.5069829821586609,0.3320696651935577,1.4910255670547483
1629880727296,0.6314118504524231,0.5077546238899231,0.3320693969726562,1.4910255670547483
1629880727421,0.6314118504524231,0.5069150328636169,0.3337309956550598,1.4910255670547483
1629880727483,0.6314118504524231,0.5055482983589172,0.3349305391311645,1.4910255670547483
1629880727544,0.6314118504524231,0.5010381937026978,0.3304517269134521,1.4910255670547483
1629880727758,0.6314118504524231,0.4811053872108459,0.3082829415798187,1.4910255670547483
1629880727806,0.6314118504524231,0.4238211810588836,0.2525147199630737,1.4910255670547483
1629880727866,0.6314118504524231,0.3093930780887604,0.1515925228595733,1.4910255670547483
1629880727960,0.6314118504524231,0.1330550014972686,0.0091196587309241,1.4910255670547483
1629880728072,0.6314118504524231,-0.0772956982254982,-0.148635059595108,1.4910255670547483
1629880728186,0.2317516952753067,-0.2447256743907928,-0.2681785523891449,1.2452354431152344
1629880728353,0.2152696251869201,-0.3194177150726318,-0.318056970834732,1.2795228958129885
1629880728386,0.1972818970680236,-0.3543090522289276,-0.3195284605026245,1.3130197525024414
1629880728497,0.1723700612783432,-0.3892304003238678,-0.3103288114070892,1.3327226638793943
1629880728640,0.1497486531734466,-0.4238077104091644,-0.3112059235572815,1.338380217552185
1629880728716,0.1390195339918136,-0.4360977113246918,-0.3214360177516937,1.3334417343139648
1629880728795,0.139101430773735,-0.4139405488967895,-0.3303778171539306,1.320985198020935
1629880728941,0.14417564868927,-0.3750478327274322,-0.3278875946998596,1.3026429414749146
1629880729003,0.1436240524053573,-0.3456672132015228,-0.3167864382266998,1.2821229696273804
1629880729097,0.1436240524053573,-0.3328319787979126,-0.3047403693199157,1.2821229696273804
1629880729208,0.1436240524053573,-0.3280186653137207,-0.2950290739536285,1.2821229696273804
1629880729301,0.1436240524053573,-0.3113813102245331,-0.2858304381370544,1.2821229696273804
1629880729382,0.129169687628746,-0.2720330953598022,-0.2776620984077453,1.2872791290283203
1629880729542,0.1156219467520713,-0.2223807871341705,-0.2750522494316101,1.2934199571609497
1629880729655,0.1023292317986488,-0.1840400844812393,-0.2783202528953552,1.299636960029602
1629880729748,0.0917982310056686,-0.164718210697174,-0.281690388917923,1.299454689025879
1629880729828,0.0840843915939331,-0.1594365239143371,-0.2824490070343017,1.283970594406128
1629880729939,0.0823895782232284,-0.1592387855052948,-0.2841257154941559,1.2488585710525513
1629880730017,0.0998876839876174,-0.1614558696746826,-0.2893300056457519,1.1996301412582395
1629880730155,0.1311094462871551,-0.1656254678964615,-0.2948345839977264,1.1414995193481443
1629880730233,0.1311094462871551,-0.1707440018653869,-0.3003175258636474,1.1414995193481443
1629880730296,0.1311094462871551,-0.1759015023708343,-0.3107713460922241,1.1414995193481443
1629880730436,0.1311094462871551,-0.1834205538034439,-0.3305191099643707,1.1414995193481443
1629880730514,0.1311094462871551,-0.1929236799478531,-0.3569752275943756,1.1414995193481443
1629880730577,0.5570975542068481,-0.204021081328392,-0.3824732005596161,1.1414995193481443
1629880730751,0.5470185279846191,-0.217735469341278,-0.4038585424423218,1.2847802639007568
1629880730845,0.5419854521751404,-0.2418745458126068,-0.422539085149765,1.319021463394165
1629880730923,0.5467785000801086,-0.2800377011299133,-0.434647798538208,1.3375873565673828
1629880731048,0.5576922297477722,-0.3225583434104919,-0.4367234110832214,1.3401176929473877
1629880731126,0.5652781128883362,-0.3496586084365845,-0.4340194761753082,1.3341318368911743
1629880731204,0.5631954073905945,-0.3549984991550445,-0.4429116547107696,1.3258709907531738
1629880731376,0.5538714528083801,-0.3481892347335815,-0.4718769788742065,1.3174201250076294
1629880731439,0.5488119125366211,-0.3386584520339966,-0.5140421986579895,1.3096396923065186
1629880731579,0.5535024404525757,-0.3247795403003692,-0.5493366718292236,1.3018317222595217
1629880731626,0.5646768808364868,-0.3108739256858825,-0.570044994354248,1.29249107837677
1629880731769,0.5804276466369629,-0.3088967502117157,-0.584826648235321,1.2808587551116943
1629880731863,0.6147878170013428,-0.322546899318695,-0.6020981073379517,1.270246505737305
1629880732004,0.6197307705879211,-0.3419750034809112,-0.613577127456665,1.2702367305755615
1629880732097,0.6298378109931946,-0.3519386649131775,-0.6030027270317078,1.274643898010254
1629880732160,0.6410868167877197,-0.3456847667694092,-0.5600472688674927,1.2750908136367798
1629880732260,0.6516324877738953,-0.3330746293067932,-0.4923016428947449,1.2648385763168335
1629880732353,0.6631352305412292,-0.3284192085266113,-0.4178976118564605,1.243638038635254
1629880732432,0.6719556450843811,-0.3429647088050842,-0.3590461313724518,1.218748927116394
1629880732619,0.6733092665672302,-0.3789071142673492,-0.3209459185600281,1.1982680559158323
1629880732714,0.6639638543128967,-0.4282892942428589,-0.2958827912807464,1.183471918106079
1629880732778,0.6767348051071167,-0.4760421812534332,-0.2651972472667694,1.170632243156433
1629880732872,0.7301231622695923,-0.5145193934440613,-0.2217283099889755,1.233158826828003
1629880732982,0.8076560497283936,-0.5471083521842957,-0.1735041439533233,1.319993257522583
1629880733075,0.8727075457572937,-0.5839453339576721,-0.131149560213089,1.3928662538528442
1629880733200,0.8910711407661438,-0.6210165619850159,-0.096019372344017,1.427366852760315
1629880733263,0.9073330760002136,-0.6356188058853149,-0.0624277852475643,1.4821898937225342
1629880733372,0.8911178708076477,-0.6068659424781799,-0.0196366049349308,1.4821898937225342
1629880733497,0.8911178708076477,-0.5350340604782104,0.0343117862939834,1.4821898937225342
1629880733575,0.8911178708076477,-0.4476534128189087,0.0877319797873497,1.4821898937225342
1629880733731,0.8911178708076477,-0.3766867220401764,0.1245353668928146,1.4821898937225342
1629880733812,0.8911178708076477,-0.3374038636684418,0.1361069977283477,1.4821898937225342
1629880733875,0.8911178708076477,-0.3290113806724548,0.1258813142776489,1.4821898937225342
1629880733999,0.8911178708076477,-0.3332204818725586,0.1074288263916969,1.4821898937225342
1629880734062,0.927616000175476,-0.3324608504772186,0.0913349166512489,1.4821898937225342
1629880734203,0.9894797205924988,-0.3209077417850494,0.0797438025474548,1.4821898937225342
1629880734265,0.9894797205924988,-0.2996387481689453,0.0664802640676498,1.4821898937225342
1629880734406,0.9894797205924988,-0.2697057127952575,0.0461194701492786,1.4821898937225342
1629880734548,0.9894797205924988,-0.2371756136417389,0.0189941823482513,1.4821898937225342
1629880734642,0.9894797205924988,-0.2121693044900894,-0.0118324579671025,1.4821898937225342
1629880734705,0.9894797205924988,-0.2004173547029495,-0.0447543002665042,1.4821898937225342
1629880734798,0.8060609698295593,-0.1998997926712036,-0.0818872302770614,1.293281078338623
1629880734939,0.7473437190055847,-0.2075283080339431,-0.1343061625957489,1.273586988449097
1629880735033,0.7039266228675842,-0.224911168217659,-0.215229794383049,1.2600011825561523
1629880735111,0.6732422709465027,-0.2509045004844665,-0.3272092938423157,1.2540758848190308
1629880735236,0.6523554921150208,-0.2743836641311645,-0.4508036673069,1.2550544738769531
1629880735298,0.6424076557159424,-0.2807022333145141,-0.5391451716423035,1.265392184257507
1629880735392,0.6418105363845825,-0.2656327188014984,-0.5588548183441162,1.2824360132217407
1629880735486,0.6441577076911926,-0.2398920655250549,-0.5332573652267456,1.298080325126648
1629880735680,0.6418001651763916,-0.211591437458992,-0.4842588007450104,1.3055466413497925
1629880735727,0.6312365531921387,-0.1819750070571899,-0.4202915728092193,1.304643630981445
1629880735805,0.613859236240387,-0.1555860936641693,-0.3500305414199829,1.300877809524536
1629880735915,0.595634400844574,-0.1395334601402282,-0.2836132049560547,1.300371527671814
1629880736008,0.5305414199829102,-0.1361347585916519,-0.2268630713224411,1.3038208484649658
1629880736110,0.4860219061374664,-0.139011412858963,-0.1798356175422668,1.3068349361419678
1629880736226,0.4755309224128723,-0.1416763514280319,-0.1438519805669784,1.3079557418823242
1629880736343,0.480783998966217,-0.1425071954727172,-0.1214933916926384,1.3050283193588257
1629880736441,0.4832570552825928,-0.1444552093744278,-0.1138128042221069,1.297580361366272
1629880736492,0.4767801165580749,-0.1504054069519043,-0.1183932498097419,1.286794900894165
1629880736639,0.4602954685688019,-0.1637392491102218,-0.130628153681755,1.273331880569458
1629880736693,0.4351146221160888,-0.1856579333543777,-0.1454562991857528,1.2581138610839844
1629880736858,0.4000799655914306,-0.2091297954320907,-0.1597026586532592,1.2403099536895752
1629880736952,0.3555543422698974,-0.2215908765792846,-0.1734635084867477,1.2193653583526611
1629880737045,0.3113725483417511,-0.2200031578540802,-0.1883026957511901,1.1962569952011108
1629880737123,0.2806261777877807,-0.2139792889356613,-0.2063425779342651,1.173848032951355
1629880737224,0.2735427021980285,-0.2132218033075332,-0.2283235490322113,1.1548118591308594
1629880737324,0.2899419963359833,-0.2147572785615921,-0.2539864778518677,1.138161540031433
1629880737496,0.3166347146034241,-0.2009121924638748,-0.2796590328216553,1.122346043586731
1629880737543,0.3415018320083618,-0.1570770740509033,-0.2911511659622192,1.106541633605957
1629880737674,0.3554586172103882,-0.0940585881471633,-0.2687067687511444,1.0978471040725708
1629880737768,0.3584702610969543,-0.0354571156203746,-0.2130971252918243,1.1034797430038452
1629880737832,0.358195424079895,0.0039688060060143,-0.1507663428783416,1.1253650188446045
1629880737953,0.3591547310352325,0.0248588752001523,-0.1062758266925811,1.1550776958465576
1629880738077,0.3613027334213257,0.036063939332962,-0.0841115936636924,1.1840696334838867
1629880738236,0.3662295043468475,0.0443575195968151,-0.0765443816781044,1.2076804637908936
1629880738293,0.3749118149280548,0.0513523295521736,-0.0725411251187324,1.221827268600464
1629880738355,0.3836443722248077,0.0536990128457546,-0.0665616691112518,1.2241370677947998
1629880738451,0.3888976275920868,0.0475055836141109,-0.0577487610280513,1.21432363986969
1629880738556,0.3882234096527099,0.0336307398974895,-0.0475044809281826,1.1999739408493042
1629880738696,0.3846482038497925,0.0181929878890514,-0.0402610301971435,1.1897839307785034
1629880738759,0.3773693740367889,0.0075143417343497,-0.0406544469296932,1.1924402713775637
1629880738852,0.361435979604721,0.0015361660625785,-0.0499465130269527,1.209990620613098
1629880738993,0.3333576023578644,-0.0112145682796835,-0.0660329908132553,1.234365701675415
1629880739055,0.2900727689266205,-0.0450819618999958,-0.0907449945807457,1.2527425289154053
1629880739149,0.2349195927381515,-0.1041072160005569,-0.1329403519630432,1.2591309547424316
1629880739279,0.1786101758480072,-0.1780730783939361,-0.1957531720399856,1.256781816482544
1629880739388,0.1350075751543045,-0.2461427301168441,-0.261665016412735,1.2538015842437744
1629880739497,0.1257466971874237,-0.292109727859497,-0.2986945509910583,1.2553861141204834
1629880739575,0.1597958654165268,-0.3126336634159088,-0.2975139319896698,1.2612817287445068
1629880739638,0.2103653848171234,-0.3064740002155304,-0.2799627184867859,1.267833232879639
1629880739796,0.2579971551895141,-0.2780357599258423,-0.2677580714225769,1.2774772644042969
1629880739953,0.2950975596904754,-0.2410532683134079,-0.2657042741775512,1.2916384935379028
1629880739999,0.3217613101005554,-0.2114910781383514,-0.2718842923641205,1.3081364631652832
1629880740082,0.3358156979084015,-0.1976720839738845,-0.2833626568317413,1.3204841613769531
1629880740171,0.3373091220855713,-0.200632706284523,-0.2964559197425842,1.3256258964538574
1629880740281,0.3302961885929107,-0.2196357399225235,-0.3056310415267944,1.3216482400894165
1629880740359,0.328675627708435,-0.2528166174888611,-0.3056621253490448,1.308618664741516
1629880740516,0.3390616178512573,-0.2925170958042145,-0.2980897724628448,1.2887170314788818
1629880740639,0.3605408072471618,-0.3263435065746307,-0.288917988538742,1.2683714628219604
1629880740702,0.3894412517547607,-0.3463973999023437,-0.281632512807846,1.250397801399231
1629880740777,0.4232676923274994,-0.3528660535812378,-0.2766034603118896,1.2322217226028442
1629880740906,0.4576327800750732,-0.352047711610794,-0.2755497395992279,1.2092384099960327
1629880740968,0.4798625707626343,-0.3524598777294159,-0.2786828577518463,1.1810237169265747
1629880741140,0.4805597960948944,-0.3636485636234283,-0.2826168835163116,1.1554046869277954
1629880741234,0.4631116986274719,-0.392849862575531,-0.2823642492294311,1.139303207397461
1629880741296,0.4326986968517303,-0.4357062578201294,-0.2759330868721008,1.128731369972229
1629880741406,0.3996489942073822,-0.4744284749031067,-0.2643369436264038,1.1180895566940308
1629880741484,0.3710923790931701,-0.4867808520793915,-0.2476095855236053,1.1076451539993286
1629880741580,0.3516739904880523,-0.465326726436615,-0.2268434017896652,1.100691556930542
1629880741721,0.3421601355075836,-0.4174961447715759,-0.206090360879898,1.1002264022827148
1629880741830,0.3379451930522918,-0.3539789617061615,-0.1902717500925064,1.107838153839111
1629880741955,0.3299602568149566,-0.2864837050437927,-0.1811706274747848,1.1191551685333252
1629880742002,0.319761723279953,-0.2247131317853927,-0.1783288717269897,1.126573920249939
1629880742127,0.319478690624237,-0.1739876121282577,-0.1809492260217666,1.1255613565444946
1629880742221,0.3372698426246643,-0.1370045095682144,-0.1910878866910934,1.1186299324035645
1629880742377,0.3606537282466888,-0.1150291860103607,-0.2107443660497665,1.1252156496047974
1629880742424,0.3676799535751343,-0.1066243574023246,-0.2380513995885849,1.1351405382156372
1629880742533,0.3558070957660675,-0.105922631919384,-0.2661592066287994,1.1435861587524414
1629880742583,0.3373549878597259,-0.1050973907113075,-0.289854496717453,1.1605260372161863
1629880742708,0.3282463252544403,-0.1026419103145599,-0.3070921301841736,1.183196783065796
1629880742817,0.3366858959197998,-0.1030719578266143,-0.3195104300975799,1.2061842679977417
1629880742973,0.3628743290901184,-0.1111833080649375,-0.3289764821529388,1.226659059524536
1629880743052,0.4008670449256897,-0.127008780837059,-0.3382169902324676,1.243840575218201
1629880743161,0.4458373188972473,-0.1477197110652923,-0.3496201336383819,1.2590142488479614
1629880743239,0.4943515062332153,-0.1723181307315826,-0.3623210787773132,1.2699536085128784
1629880743317,0.5430763959884644,-0.2028207033872604,-0.373053103685379,1.271198034286499
1629880743442,0.5836365222930908,-0.2422917634248733,-0.3817153871059418,1.2628203630447388
1629880743551,0.6163282990455627,-0.291564404964447,-0.382158100605011,1.251341462135315
1629880743664,0.6452025175094604,-0.3479933738708496,-0.3653970658779144,1.245448112487793
1629880743742,0.6718660593032837,-0.3978196978569031,-0.3309484124183655,1.2452470064163208
1629880743820,0.6969349384307861,-0.4199479520320892,-0.28941810131073,1.2296357154846191
1629880743976,0.7197734117507935,-0.4101932644844055,-0.2499850541353225,1.215748906135559
1629880744023,0.7380831837654114,-0.3886681497097015,-0.2159951031208038,1.2094166278839111
1629880744164,0.7498497366905212,-0.3799698054790497,-0.1883567720651626,1.1917619705200195
1629880744257,0.7551214098930359,-0.3907615840435028,-0.1705007255077362,1.1618503332138062
1629880744336,0.7543531656265259,-0.4142473936080932,-0.1645088791847229,1.122397780418396
1629880744461,0.7466530799865723,-0.438992977142334,-0.1669203341007232,1.0758674144744873
1629880744539,0.7312424778938293,-0.4539043009281158,-0.1728433668613433,1.0266926288604736
1629880744601,0.708152174949646,-0.4546679556369781,-0.1814688146114349,0.9828251004219056
1629880744789,0.6782362461090088,-0.4470618367195129,-0.1943342089653015,0.955650269985199
1629880744914,0.6435230374336243,-0.4410080015659332,-0.209440529346466,0.9518738985061646
1629880744945,0.6106454133987427,-0.4403469264507293,-0.2198836356401443,0.9660054445266724
1629880745081,0.5782934427261353,-0.4399020373821258,-0.2229547351598739,0.9855932593345642
1629880745144,0.5400576591491699,-0.4308940768241882,-0.224450945854187,1.0011351108551023
1629880745268,0.4960481226444244,-0.416053831577301,-0.2313559204339981,1.0148206949234009
1629880745362,0.4562338590621948,-0.4080046713352203,-0.2468920201063156,1.027134656906128
1629880745503,0.4403479695320129,-0.4094922542572021,-0.2717174291610718,1.0382626056671145
1629880745594,0.4518830180168152,-0.4032462537288666,-0.3044092953205108,1.0460519790649414
1629880745687,0.4755772352218628,-0.3716118037700653,-0.339229553937912,1.0557172298431396
1629880745799,0.4926411509513855,-0.3210892975330353,-0.3611720204353332,1.0706706047058103
1629880745862,0.5000618696212769,-0.2760930359363556,-0.3566071689128876,1.0925323963165283
1629880746002,0.5040371417999268,-0.2491537779569625,-0.3288737535476684,1.1178083419799805
1629880746066,0.5132285952568054,-0.2398451864719391,-0.2917676866054535,1.1429351568222046
1629880746222,0.5269041657447815,-0.2430434077978134,-0.251380443572998,1.1637167930603027
1629880746285,0.5384054780006409,-0.2561574280261993,-0.2081864774227142,1.1777976751327517
1629880746376,0.5475462079048157,-0.2756728827953338,-0.1666601151227951,1.1853256225585938
1629880746439,0.5586984157562256,-0.2960270345211029,-0.137681096792221,1.1892485618591309
1629880746575,0.5769643187522888,-0.3142978847026825,-0.1280802190303802,1.1938287019729614
1629880746715,0.5952462553977966,-0.3315376341342926,-0.1370138525962829,1.2001458406448364
1629880746809,0.6021637320518494,-0.3448793292045593,-0.1557361334562301,1.2050833702087402
1629880746889,0.5902024507522583,-0.3436996340751648,-0.1731955856084823,1.2037670612335205
1629880747022,0.5597081780433655,-0.3225750923156738,-0.1831447482109069,1.1957261562347412
1629880747059,0.5277128219604492,-0.2978585958480835,-0.1876800209283828,1.1874691247940063
1629880747184,0.5175405740737915,-0.2894900739192962,-0.191349059343338,1.185420036315918
1629880747295,0.5349435806274414,-0.3034435510635376,-0.2001227587461471,1.1918349266052246
1629880747386,0.5639987587928772,-0.3253590762615204,-0.2195582538843155,1.2036999464035034
1629880747466,0.5932989716529846,-0.3363878726959228,-0.253301590681076,1.215218186378479
1629880747562,0.6241254210472107,-0.3308798968791961,-0.299485832452774,1.2223538160324097
1629880747685,0.6705837845802307,-0.3183166086673736,-0.3537936508655548,1.2302234172821045
1629880747808,0.7325300574302673,-0.3075324296951294,-0.4124021530151367,1.2456579208374023
1629880747933,0.7953284382820129,-0.3009743392467499,-0.468762069940567,1.269141435623169
1629880747996,0.8384997844696045,-0.2952034175395965,-0.501386284828186,1.2718226909637451
1629880748090,0.8557659983634949,-0.2866718173027038,-0.4931508898735046,1.2718441486358645
1629880748170,0.8527500033378601,-0.2781519591808319,-0.4476875066757202,1.271336555480957
1629880748319,0.8412982821464539,-0.2778708934783935,-0.3847784399986267,1.2770452499389648
1629880748430,0.8290684223175049,-0.2940588891506195,-0.3215479552745819,1.2828315496444702
1629880748508,0.8179576992988586,-0.3284074962139129,-0.2681387960910797,1.2890340089797974
1629880748618,0.8037019371986389,-0.3699009716510772,-0.231041669845581,1.2926698923110962
1629880748744,0.7824565172195435,-0.3996104896068573,-0.2124870270490646,1.2880609035491943
1629880748835,0.7565270066261292,-0.4034540951251983,-0.2082427740097046,1.2756154537200928
1629880748900,0.7329630255699158,-0.3888293802738189,-0.210092157125473,1.2664291858673096
1629880749070,0.7176920175552368,-0.3754626810550689,-0.2124799191951751,1.2771239280700684
1629880749116,0.7131639122962952,-0.3744525015354156,-0.213291585445404,1.304787278175354
1629880749242,0.7324944734573364,-0.3781803250312805,-0.2131916582584381,1.3298064470291138
1629880749351,0.7846139669418335,-0.3668336570262909,-0.2111998349428177,1.335835099220276
1629880749398,0.8536545634269714,-0.3304119706153869,-0.2064676433801651,1.3266069889068604
1629880749489,0.9167069792747498,-0.2825250625610351,-0.2017896622419357,1.336470603942871
1629880749639,0.9597080945968628,-0.242174819111824,-0.2021749913692474,1.351460099220276
1629880749780,0.984030306339264,-0.2134235054254531,-0.2113228142261505,1.3645272254943848
1629880749826,0.9983871579170228,-0.1896524727344513,-0.2300588488578796,1.3755214214324951
1629880749951,1.007785677909851,-0.1659001559019088,-0.2545491456985473,1.3829212188720703
1629880750061,1.0147218704223633,-0.144872173666954,-0.275732934474945,1.388125777244568
1629880750139,1.020875096321106,-0.1337166875600814,-0.2854148745536804,1.3915315866470337
1629880750265,1.02617347240448,-0.1345783770084381,-0.2822653651237488,1.3919037580490112
1629880750358,1.0299221277236938,-0.1447348594665527,-0.2727547883987427,1.3871959447860718
1629880750421,1.0317343473434448,-0.1575845032930374,-0.2582701444625854,1.373809576034546
1629880750530,1.0289188623428345,-0.1666974425315857,-0.2364979982376098,1.347746729850769
1629880750642,1.0182486772537231,-0.1705203503370285,-0.2112844139337539,1.313417673110962
1629880750751,0.9852821230888368,-0.170690968632698,-0.1887307465076446,1.281917691230774
1629880750861,0.9152465462684632,-0.1666345447301864,-0.1726038604974746,1.2668613195419312
1629880750939,0.8024445176124573,-0.1546220481395721,-0.1633561700582504,1.2670440673828125
1629880751064,0.6627854704856873,-0.1336957812309265,-0.1612403988838195,1.271247386932373
1629880751126,0.5332623720169067,-0.1096133217215538,-0.1668323129415512,1.2701598405838013
1629880751238,0.4493244588375091,-0.0935865119099617,-0.1789083629846573,1.2656617164611816
1629880751338,0.401236891746521,-0.0925904139876365,-0.195994034409523,1.2630302906036377
1629880751463,0.375691145658493,-0.105081520974636,-0.2185132950544357,1.2683348655700684
1629880751574,0.363434761762619,-0.1223677620291709,-0.2476259768009185,1.2799116373062134
1629880751700,0.3582557141780853,-0.1335690468549728,-0.2798540592193603,1.2949947118759155
1629880751809,0.3553705215454101,-0.1362770646810531,-0.3093742430210113,1.308937907218933
1629880751841,0.3512653410434723,-0.1364946812391281,-0.3305322825908661,1.3189595937728882
1629880751997,0.3536894917488098,-0.1389284282922744,-0.3455972671508789,1.325435757637024
1629880752106,0.3642897307872772,-0.1399800479412078,-0.355316013097763,1.342676043510437
1629880752184,0.3773342072963714,-0.1295111030340194,-0.3557874262332916,1.361036777496338
1629880752262,0.391565203666687,-0.1056812480092048,-0.347776859998703,1.377826690673828
1629880752340,0.4029057323932647,-0.0846995562314987,-0.3444643020629883,1.3879590034484863
1629880752465,0.4055297374725342,-0.0859942212700843,-0.3570233881473541,1.3874304294586182
1629880752558,0.3946781754493713,-0.1165738552808761,-0.3833375573158264,1.3757176399230957
1629880752685,0.3808900117874145,-0.164876639842987,-0.4081787765026092,1.357238531112671
1629880752779,0.3782120645046234,-0.2098426520824432,-0.418656975030899,1.3374086618423462
1629880752888,0.3923788070678711,-0.2403299361467361,-0.4077615439891815,1.3189853429794312
1629880752997,0.4102272093296051,-0.2593659162521362,-0.3696328401565552,1.3005555868148804
1629880753091,0.4102272093296051,-0.2755250930786133,-0.3074731528759002,1.2787119150161743
1629880753169,0.4102272093296051,-0.298110157251358,-0.2404857575893402,1.2787119150161743
1629880753279,0.4102272093296051,-0.3260456621646881,-0.1847179234027862,1.2787119150161743
1629880753403,0.4102272093296051,-0.351446270942688,-0.1447308957576751,1.2787119150161743
1629880753482,0.4102272093296051,-0.3658572733402252,-0.1174579113721847,1.2787119150161743
1629880753560,0.4102272093296051,-0.3684473931789398,-0.102605439722538,1.2787119150161743
1629880753672,0.4102272093296051,-0.3677379190921783,-0.1030473262071609,1.2787119150161743
1629880753765,0.4102272093296051,-0.3656727075576782,-0.1193549633026123,1.2787119150161743
1629880753906,0.4102272093296051,-0.3552121222019195,-0.1422283500432968,1.2787119150161743
1629880754031,0.4102272093296051,-0.3388685584068298,-0.1563660651445388,1.2787119150161743
1629880754094,0.4102272093296051,-0.3242262899875641,-0.1515508443117141,1.2787119150161743
1629880754172,0.4102272093296051,-0.3205457627773285,-0.1275094002485275,1.2787119150161743
1629880754295,0.4102272093296051,-0.3255372941493988,-0.0960288271307945,1.2787119150161743
1629880754404,0.4102272093296051,-0.327656626701355,-0.0696192532777786,1.2787119150161743
1629880754529,0.4102272093296051,-0.3124735355377197,-0.0597305670380592,1.2787119150161743
1629880754607,0.4102272093296051,-0.2729792892932892,-0.0724293515086174,1.2787119150161743
1629880754735,0.4102272093296051,-0.2139045149087906,-0.1001199185848236,1.2787119150161743
1629880754813,0.4102272093296051,-0.1538180261850357,-0.1286349296569824,1.2787119150161743
1629880754892,0.4102272093296051,-0.1085735261440277,-0.1465156078338623,1.2787119150161743
1629880754970,0.4102272093296051,-0.0806993544101715,-0.1508778035640716,1.2787119150161743
1629880755126,0.4102272093296051,-0.0640685707330703,-0.1466719508171081,1.2787119150161743
1629880755220,0.4102272093296051,-0.0506701879203319,-0.1380488276481628,1.3784786462783811
1629880755298,0.4102272093296051,-0.0390241667628288,-0.1260793209075927,1.35840106010437
1629880755407,0.4102272093296051,-0.0328586399555206,-0.1134877800941467,1.354893445968628
1629880755516,0.4102272093296051,-0.0304379556328058,-0.105120837688446,1.3631243705749512
1629880755626,0.4102272093296051,-0.0251590386033058,-0.1023773401975631,1.379189372062683
1629880755722,0.4102272093296051,-0.0107971029356122,-0.1044352799654007,1.3990755081176758
1629880755862,0.4102272093296051,0.0089197997003793,-0.1079375445842742,1.4142450094223022
1629880755940,0.4102272093296051,0.0238553248345851,-0.1143710166215896,1.416528582572937
1629880756034,0.4102272093296051,0.0249926708638668,-0.1244353801012039,1.406248927116394
1629880756128,0.4102272093296051,0.0102718221023678,-0.1336798965930938,1.3882495164871216
1629880756253,0.4102272093296051,-0.0166984498500823,-0.1399290561676025,1.3685247898101809
1629880756378,0.4102272093296051,-0.0487191192805767,-0.142396792769432,1.34903085231781
1629880756471,0.4102272093296051,-0.0771246552467346,-0.1386164426803589,1.3229185342788696
1629880756593,0.4102272093296051,-0.0997097268700599,-0.1268214732408523,1.313287377357483
1629880756609,0.4102272093296051,-0.1235224679112434,-0.1075981184840202,1.3095333576202393
1629880756734,0.4102272093296051,-0.1597608774900436,-0.0842948406934738,1.313468098640442
1629880756832,0.4102272093296051,-0.2147710621356964,-0.0581572949886322,1.3174331188201904
1629880756973,0.4102272093296051,-0.2838243544101715,-0.0273891519755125,1.315435767173767
1629880757035,0.4102272093296051,-0.3517575860023498,0.0068330625072121,1.3036092519760132
1629880757160,0.4102272093296051,-0.408042699098587,0.0354317128658294,1.2760075330734253
1629880757238,0.4102272093296051,-0.4579644799232483,0.0487129241228103,1.2230939865112305
1629880757316,0.4102272093296051,-0.5082215666770935,0.04419681802392,1.1410646438598633
1629880757426,0.4102272093296051,-0.5416101217269897,0.0294716767966747,1.0458287000656128
1629880757538,0.4102272093296051,-0.5383972525596619,0.0161419156938791,0.96373850107193
1629880757679,0.4102272093296051,-0.5104329586029053,0.0106678064912557,0.96373850107193
1629880757757,0.4102272093296051,-0.483025848865509,0.0152208907529711,0.96373850107193
1629880757882,0.4102272093296051,-0.4618814289569855,0.0303715746849775,0.96373850107193
1629880757960,0.4102272093296051,-0.4409638345241546,0.052482359111309,0.96373850107193
1629880758054,0.4102272093296051,-0.4178653359413147,0.0713720545172691,0.96373850107193
1629880758163,0.4102272093296051,-0.3939880430698395,0.077942818403244,0.96373850107193
1629880758304,0.4102272093296051,-0.365404337644577,0.0712091103196144,0.96373850107193
1629880758413,0.4102272093296051,-0.3322375118732452,0.055868424475193,1.3120999336242676
1629880758475,0.4102272093296051,-0.3018049597740173,0.035684660077095,1.2641385793685913
1629880758553,0.4102272093296051,-0.2850948870182037,0.0091320974752306,1.2391998767852783
1629880758678,0.4102272093296051,-0.2851021289825439,-0.0228252932429313,1.2391998767852783
1629880758806,0.4102272093296051,-0.2966636419296264,-0.0534493997693061,1.2391998767852783
1629880758884,0.4102272093296051,-0.3121677935123443,-0.071568563580513,1.2391998767852783
1629880758993,0.4102272093296051,-0.330480694770813,-0.0742576494812965,1.2391998767852783
1629880759087,0.4102272093296051,-0.3527010381221771,-0.0689743161201477,1.2391998767852783
1629880759165,0.4102272093296051,-0.3766572773456573,-0.0661798268556594,1.2391998767852783
1629880759243,0.4102272093296051,-0.3999545574188232,-0.0734954178333282,1.2391998767852783
1629880759415,0.4102272093296051,-0.4239012897014618,-0.0926453545689582,1.2391998767852783
1629880759478,0.4102272093296051,-0.4485532343387604,-0.1164658516645431,1.2391998767852783
1629880759589,0.4102272093296051,-0.4701769053936004,-0.1325799524784088,1.2159336805343628
1629880759714,0.4102272093296051,-0.4871251881122589,-0.1324430406093597,1.2476375102996826
1629880759792,0.4102272093296051,-0.5126661658287048,-0.1214366108179092,1.3051408529281616
1629880759855,0.4102272093296051,-0.5559828281402588,-0.1125997155904769,1.3502976894378662
1629880760042,0.4102272093296051,-0.6029475331306458,-0.1134350523352623,1.3680419921875
1629880760105,0.4102272093296051,-0.6221306920051575,-0.1211581975221633,1.407564640045166
1629880760183,0.4707151055335998,-0.6034570932388306,-0.1299725323915481,1.407564640045166
1629880760292,0.579454779624939,-0.5700777769088745,-0.1362609714269638,1.407564640045166
1629880760370,0.579454779624939,-0.5363351106643677,-0.127141535282135,1.407564640045166
1629880760464,0.579454779624939,-0.4806298315525055,-0.1145039796829223,1.407564640045166
1629880760622,0.579454779624939,-0.372318834066391,-0.1031889468431472,1.407564640045166
1629880760685,0.579454779624939,-0.2316982448101043,-0.0899760574102401,1.407564640045166
1629880760810,0.579454779624939,-0.1057306304574012,-0.0735354274511337,1.407564640045166
1629880760935,0.579454779624939,-0.0219900980591774,-0.0598828829824924,1.407564640045166
1629880760997,0.579454779624939,0.0199968386441469,-0.0648452416062355,1.407564640045166
1629880761122,0.579454779624939,0.0388055518269538,-0.1026692762970924,1.4091157913208008
1629880761247,0.579454779624939,0.0569773875176906,-0.1775636821985244,1.4091157913208008
1629880761310,0.579454779624939,0.0837248340249061,-0.2767469584941864,1.4091157913208008
1629880761403,0.806177020072937,0.1121586188673973,-0.3711165189743042,1.4091157913208008
1629880761497,0.9275246858596802,0.1334328204393386,-0.4352344572544098,1.4091157913208008
1629880761637,0.983204424381256,0.1462459564208984,-0.3952754735946655,1.4091157913208008
1629880761720,0.9896202683448792,0.1556434482336044,-0.3592825829982757,1.4091157913208008
1629880761860,0.9593790769577026,0.165300503373146,-0.3306044340133667,1.4091157913208008
1629880761954,0.8984920978546143,0.1736813932657241,-0.3800495564937591,1.4091157913208008
1629880762079,0.8408730030059814,0.1740555614233017,-0.3579914569854736,1.268009066581726
1629880762110,0.7912276387214661,0.1560474187135696,-0.3351086378097534,1.235107421875
1629880762204,0.7524043917655945,0.1122381314635276,-0.3286100924015045,1.1979321241378784
1629880762298,0.7226698994636536,0.0454966723918914,-0.3369177281856537,1.168637752532959
1629880762438,0.6960439085960388,-0.0243976898491382,-0.3488767743110657,1.1569305658340454
1629880762548,0.6706011891365051,-0.0717113763093948,-0.3509589433670044,1.1627790927886963
1629880762610,0.65008544921875,-0.0934377834200859,-0.3336893320083618,1.1830235719680786
1629880762723,0.6371764540672302,-0.1118455603718757,-0.2998817861080169,1.2073389291763306
1629880762817,0.6288063526153564,-0.1419539302587509,-0.2633680701255798,1.2247343063354492
1629880762942,0.5401908159255981,-0.1767072975635528,-0.2314928770065307,1.2314064502716064
1629880763052,0.4494087398052215,-0.1999066472053527,-0.2033348977565765,1.2296907901763916
1629880763161,0.373426079750061,-0.2081040143966674,-0.1697657257318496,1.2237343788146973
1629880763270,0.3315299451351166,-0.2134726345539093,-0.1283721625804901,1.207491159439087
1629880763333,0.3334806859493255,-0.2227677106857299,-0.0906337946653366,1.19118070602417
1629880763426,0.3730053007602691,-0.2291640490293502,-0.0687201097607612,1.173108696937561
1629880763520,0.4207946956157684,-0.2220042049884796,-0.0639067441225051,1.1550952196121216
1629880763676,0.4539876282215118,-0.2019096910953521,-0.0680267661809921,1.1409751176834106
1629880763773,0.4657672047615051,-0.1792105585336685,-0.0687665343284607,1.1342355012893677
1629880763851,0.462849348783493,-0.1613292247056961,-0.0611633397638797,1.1319358348846436
1629880763960,0.4583870470523834,-0.1508046984672546,-0.0500430949032306,1.1257668733596802
1629880764039,0.4640669822692871,-0.146740585565567,-0.044267076998949,1.1108111143112185
1629880764132,0.4780437648296356,-0.1466728746891021,-0.0506042800843715,1.083907127380371
1629880764320,0.495473563671112,-0.1476683914661407,-0.0706444457173347,1.052134990692139
1629880764351,0.5105780363082886,-0.146437257528305,-0.0997243300080299,1.0244721174240112
1629880764445,0.5260372757911682,-0.144743263721466,-0.1322450041770935,1.0052306652069092
1629880764570,0.541498064994812,-0.1482055634260177,-0.1660190820693969,0.9892146587371826
1629880764679,0.5518552660942078,-0.1603147387504577,-0.2053462713956833,0.9725161194801332
1629880764774,0.5491858124732971,-0.1780351847410202,-0.2534361183643341,0.9554532170295716
1629880764901,0.5293453335762024,-0.1953495889902115,-0.3054530620574951,0.9420596957206726
1629880764995,0.4995953142642975,-0.2107090950012207,-0.3457989394664764,0.9356239438056946
1629880765073,0.48023122549057,-0.2305710911750793,-0.3630743622779846,0.9350816011428832
1629880765167,0.4929907917976379,-0.2589841485023498,-0.3597878813743591,0.9387365579605104
1629880765260,0.5341201424598694,-0.2894059717655182,-0.3509447574615478,0.94436913728714
1629880765354,0.5811586976051331,-0.3097723722457886,-0.3466241657733917,0.9580151438713074
1629880765526,0.6149295568466187,-0.3148703873157501,-0.3478866219520569,0.986613631248474
1629880765588,0.629308819770813,-0.3132162094116211,-0.3509002923965454,1.0263116359710691
1629880765667,0.6256729364395142,-0.3156233131885528,-0.3520531058311462,1.062519073486328
1629880765807,0.6078315377235413,-0.32668536901474,-0.3510054647922516,1.0825436115264893
1629880765870,0.5869067311286926,-0.3485859632492065,-0.3505781888961792,1.0887782573699951
1629880765979,0.5726333856582642,-0.3760510981082916,-0.3544764816761017,1.0920183658599854
1629880766104,0.566529393196106,-0.3972932994365692,-0.3649502992630005,1.1039992570877075
1629880766198,0.5665010809898376,-0.3959809243679046,-0.3777140378952026,1.1260367631912231
1629880766276,0.5740613341331482,-0.3679033815860748,-0.384434163570404,1.1510794162750244
1629880766401,0.5964690446853638,-0.3272115290164947,-0.3798656761646271,1.170199632644653
1629880766463,0.6387525200843811,-0.2927242517471313,-0.3691424429416656,1.1805182695388794
1629880766638,0.6916265487670898,-0.2732756435871124,-0.3617543280124664,1.1851106882095337
1629880766716,0.7335073351860046,-0.2681890428066253,-0.3625417351722717,1.1872014999389648
1629880766779,0.7495538592338562,-0.2744786739349365,-0.371516078710556,1.2033441066741943
1629880766888,0.7471849918365479,-0.2832972407341003,-0.3800854682922363,1.2121784687042236
1629880767013,0.7520067095756531,-0.2718376815319061,-0.3549405038356781,1.2083640098571775
1629880767060,0.7597681879997253,-0.2253410667181015,-0.2527034282684326,1.190695881843567
1629880767185,0.7767497301101685,-0.1585023254156112,-0.1025493890047073,1.1671022176742554
1629880767325,0.8518771529197693,-0.0990194454789161,0.0302786044776439,1.1485154628753662
1629880767419,0.9079430103302002,-0.0594600550830364,0.1167146414518356,1.1402125358581543
1629880767529,0.9390392303466796,-0.0387522913515567,0.1583829820156097,1.136402249336243
1629880767607,0.9515417218208312,-0.0315732695162296,0.1712752729654312,1.1251754760742188
1629880767688,0.9523478746414183,-0.0363867580890655,0.1718873381614685,1.0943973064422607
1629880767797,0.9466598033905028,-0.0524239838123321,0.1674739569425583,1.0369675159454346
1629880767906,0.9349724650382996,-0.0768037289381027,0.1606058478355407,1.0369675159454346
1629880768047,0.9115612506866456,-0.1017540544271469,0.1534017920494079,1.0369675159454346
1629880768125,0.8706755638122559,-0.1185045838356018,0.1488236933946609,1.0369675159454346
1629880768188,0.8217410445213318,-0.1242876499891281,0.1479904055595398,1.0369675159454346
1629880768297,0.7869274616241455,-0.1229923218488693,0.1503419876098632,1.0369675159454346
1629880768422,0.7722748517990112,-0.123024895787239,0.1531292051076889,1.0369675159454346
1629880768516,0.7547929286956787,-0.1402285546064376,0.1469477117061615,0.9516353607177734
1629880768609,0.7373018264770508,-0.1853071302175521,0.1132162138819694,0.935648500919342
1629880768706,0.7147738933563232,-0.25727379322052,0.0394015423953533,0.9343494772911072
1629880768815,0.617740273475647,-0.3366236388683319,-0.0659950450062751,0.9401761293411256
1629880768940,0.5204532146453857,-0.3961680233478546,-0.1645112335681915,0.9625758528709412
1629880768987,0.4771179854869842,-0.4227471351623535,-0.2028984576463699,1.020148754119873
1629880769143,0.5297552347183228,-0.424571543931961,-0.1730048656463623,1.1175884008407593
1629880769205,0.6420149803161621,-0.4145719707012176,-0.1177753210067749,1.2206398248672483
1629880769315,0.7439021468162537,-0.4030375480651855,-0.0708746016025543,1.295712947845459
1629880769409,0.8041333556175232,-0.396342784166336,-0.0437838323414325,1.3343654870986938
1629880769518,0.8274146318435669,-0.4013369381427765,-0.0338049940764904,1.3477236032485962
1629880769612,0.8334431648254395,-0.4216592907905578,-0.0309285707771778,1.3528783321380615
1629880769739,0.8383289575576782,-0.4529844224452972,-0.0246257539838552,1.3764595985412598
1629880769817,0.8472513556480408,-0.4819796979427337,-0.0115339821204543,1.4101173877716064
1629880769942,0.8572303652763367,-0.4993019998073578,0.0047190734185278,1.4445561170578003
1629880770036,0.8663228750228882,-0.5053455829620361,0.0176810584962368,1.4713746309280396
1629880770130,0.8759778738021851,-0.5095487833023071,0.0235369615256786,1.488289713859558
1629880770224,0.8894882202148438,-0.5146347880363464,0.0196295604109764,1.4980075359344482
1629880770411,0.9054921269416808,-0.5146855115890503,0.0049453852698206,1.5029646158218384
1629880770474,0.9158143401145936,-0.5072527527809143,-0.0191981941461563,1.5021823644638062
1629880770583,0.90948486328125,-0.4975828826427459,-0.0494425892829895,1.4926215410232544
1629880770677,0.8777697086334229,-0.4939558207988739,-0.0835092887282371,1.469849705696106
1629880770742,0.8239011764526367,-0.4962877333164215,-0.1185911521315574,1.4342914819717407
1629880770820,0.76801997423172,-0.4994721710681915,-0.1472911387681961,1.3952417373657229
1629880770976,0.7352023720741272,-0.497945636510849,-0.1638585925102234,1.3644750118255615
1629880771054,0.728466272354126,-0.4895825386047363,-0.1705500036478042,1.3432410955429075
1629880771164,0.7288953065872192,-0.4754809737205505,-0.1788033992052078,1.3220951557159424
1629880771288,0.7224400639533997,-0.4538711309432983,-0.201154351234436,1.2932733297348022
1629880771382,0.7116231918334961,-0.4145419597625732,-0.2421047836542129,1.2612186670303345
1629880771491,0.7095770239830017,-0.3536713719367981,-0.2947258949279785,1.2419145107269287
1629880771557,0.7216597199440002,-0.2839314937591553,-0.3401160836219787,1.2436680793762207
1629880771682,0.7372811436653137,-0.2258187979459762,-0.3620142638683319,1.2574836015701294
1629880771791,0.7401171922683716,-0.1903249621391296,-0.3590986728668213,1.268964171409607
1629880771885,0.7267877459526062,-0.175809770822525,-0.342587947845459,1.2744399309158323
1629880771947,0.7083022594451904,-0.1731288731098175,-0.3259501457214355,1.277997970581055
1629880772072,0.6951099038124084,-0.1751943379640579,-0.3224547207355499,1.2804569005966189
1629880772197,0.6849636435508728,-0.1762332469224929,-0.3407224714756012,1.2772966623306274
1629880772307,0.6688898801803589,-0.1717981994152069,-0.3776860535144806,1.267083764076233
1629880772369,0.6468134522438049,-0.1577528715133667,-0.4202491641044616,1.2541292905807495
1629880772478,0.634040355682373,-0.1350684762001037,-0.449567437171936,1.245486855506897
1629880772572,0.6475027203559875,-0.1032997593283653,-0.4523640871047973,1.2435280084609983
1629880772666,0.6923268437385559,-0.0640199333429336,-0.4317671656608581,1.2498489618301392
1629880772807,0.7473185062408447,-0.0249167494475841,-0.4030893445014953,1.261765956878662
1629880772900,0.7873764634132385,-0.0005152396042831,-0.3813596665859222,1.2735694646835327
1629880772978,0.7966736555099487,-0.0007915674941614,-0.3764923214912414,1.2755080461502075
1629880773088,0.7793571352958679,-0.0235411543399095,-0.3920578360557556,1.2658722400665283
1629880773166,0.7534602880477905,-0.0501090884208679,-0.4233320951461792,1.2513985633850098
1629880773244,0.7477817535400391,-0.0567631274461746,-0.4594860374927521,1.246776103973389
1629880773416,0.7738298773765564,-0.0341156385838985,-0.485400378704071,1.257160186767578
1629880773494,0.817125678062439,0.0053299316205084,-0.4941606819629669,1.2741315364837646
1629880773588,0.8563072085380554,0.0433152429759502,-0.4907181560993194,1.2881624698638916
1629880773684,0.87989741563797,0.068710558116436,-0.4828181564807892,1.298323631286621
1629880773794,0.8880800604820251,0.0791679918766021,-0.4746806919574737,1.308858871459961
1629880773856,0.8918933868408203,0.0766186565160751,-0.4661514163017273,1.3253133296966553
1629880774028,0.8999534845352173,0.0650615990161895,-0.4578204751014709,1.3476309776306152
1629880774122,0.9107292294502258,0.045986071228981,-0.4526376724243164,1.372820258140564
1629880774231,0.9129858016967772,0.0202912706881761,-0.450518250465393,1.3926702737808228
1629880774294,0.8990792036056519,-0.0087388791143894,-0.4455752670764923,1.3990235328674316
1629880774403,0.8740172386169434,-0.0335189364850521,-0.4287162125110626,1.388875961303711
1629880774497,0.8517322540283203,-0.0463254339993,-0.3969847559928894,1.36829936504364
1629880774622,0.8407485485076904,-0.0483215935528278,-0.3586727082729339,1.3476002216339111
1629880774747,0.8382430672645569,-0.052497249096632,-0.3253065049648285,1.33926522731781
1629880774809,0.8300499320030212,-0.0733444318175315,-0.3024210035800934,1.34575092792511
1629880774934,0.8077817559242249,-0.1209255009889602,-0.288689911365509,1.362096071243286
1629880774997,0.7750509977340698,-0.1958079040050506,-0.2786588072776794,1.3809318542480469
1629880775090,0.7509264945983887,-0.2863339781761169,-0.2698262631893158,1.4015296697616575
1629880775231,0.7499033212661743,-0.3694966435432434,-0.2640641629695892,1.4224287271499634
1629880775325,0.7653868794441223,-0.4234168529510498,-0.2635025084018707,1.438734769821167
1629880775418,0.7702435255050659,-0.4424828886985779,-0.2678775787353515,1.4417269229888916
1629880775528,0.7474541664123535,-0.4379127621650696,-0.2767092585563659,1.4294216632843018
1629880775621,0.7030625343322754,-0.4259679019451141,-0.2902833223342895,1.4070191383361816
1629880775718,0.6665199398994446,-0.4197927117347717,-0.3090254664421081,1.383246660232544
1629880775874,0.673574686050415,-0.4274326264858246,-0.3302119970321655,1.3659545183181765
1629880775984,0.7236819863319397,-0.449095070362091,-0.3516471683979034,1.3569663763046265
1629880776046,0.7850510478019714,-0.4756459593772888,-0.3727467656135559,1.3541274070739746
1629880776124,0.832642138004303,-0.4843587875366211,-0.3905695974826813,1.3531007766723633
1629880776218,0.8606153130531311,-0.4497697055339813,-0.3981713950634002,1.344964861869812
1629880776312,0.8744985461235046,-0.3725409209728241,-0.3923813104629516,1.320437788963318
1629880776483,0.8809206485748291,-0.2766450345516205,-0.3810506761074066,1.2787349224090576
1629880776546,0.881223201751709,-0.186906635761261,-0.3737175166606903,1.229128122329712
1629880776655,0.871516227722168,-0.116065926849842,-0.3663473129272461,1.1784465312957764
1629880776736,0.8534026145935059,-0.0667835026979446,-0.3470198810100555,1.128435134887695
1629880776845,0.8343497514724731,-0.0368187129497528,-0.3134112358093261,1.0786954164505005
1629880776924,0.8244608044624329,-0.0221926551312208,-0.277758777141571,1.0362794399261477
1629880777064,0.8251858353614807,-0.018272578716278,-0.2516967952251434,1.0066890716552734
1629880777173,0.8286139965057373,-0.021109027788043,-0.2355143725872039,0.986524760723114
1629880777267,0.8276818990707397,-0.0280045885592699,-0.2179490774869918,0.9696159958839417
1629880777345,0.819108247756958,-0.0360872112214565,-0.1913435608148574,0.953693151473999
1629880777423,0.7993867993354797,-0.0426360107958316,-0.1603221893310547,0.939211905002594
1629880777535,0.7684558629989624,-0.0475312322378158,-0.1352920085191726,0.928107976913452
1629880777660,0.730564534664154,-0.0544692352414131,-0.1228911951184272,0.9195679426193236
1629880777770,0.6937016248703003,-0.0703254044055938,-0.1246727928519249,0.9132871031761168
1629880777879,0.6648682951927185,-0.1018333360552787,-0.1381988227367401,0.9147226214408876
1629880777973,0.6437265276908875,-0.1520220637321472,-0.159025490283966,0.926186501979828
1629880778051,0.6347622275352478,-0.2179916799068451,-0.1816853135824203,0.9483852386474608
1629880778191,0.6478318572044373,-0.2888495922088623,-0.2006130963563919,0.9764069318771362
1629880778270,0.684384822845459,-0.3492339551448822,-0.218107521533966,1.0085278749465942
1629880778348,0.7304133772850037,-0.3876954019069671,-0.2377183735370636,1.0392917394638062
1629880778504,0.77044677734375,-0.3969563841819763,-0.257350891828537,1.064444899559021
1629880778551,0.7961578369140625,-0.382933646440506,-0.2688815295696258,1.0812093019485474
1629880778676,0.8064758777618408,-0.3606626987457275,-0.2705869078636169,1.091731071472168
1629880778754,0.7964712381362915,-0.3411231935024261,-0.275929182767868,1.09727680683136
1629880778910,0.7663691639900208,-0.3282452523708343,-0.3011170625686645,1.1019058227539062
1629880779004,0.7278110980987549,-0.315658301115036,-0.3468006551265716,1.1089013814926147
1629880779129,0.701486349105835,-0.2914284467697143,-0.3951149582862854,1.1181766986846924
1629880779176,0.7001668810844421,-0.2467420101165771,-0.4258840084075928,1.1274088621139526
1629880779285,0.7159826755523682,-0.1863386780023574,-0.4375000596046448,1.1354284286499023
1629880779363,0.7330223321914673,-0.1277369260787964,-0.4427714943885803,1.1397804021835327
1629880779504,0.7444906234741211,-0.0882599502801895,-0.4447916746139526,1.136764645576477
1629880779582,0.746781587600708,-0.0733285993337631,-0.4361864924430847,1.1239726543426514
1629880779710,0.7321452498435974,-0.0777326673269271,-0.419720709323883,1.105119228363037
1629880779772,0.6928026676177979,-0.0914929881691932,-0.4018985033035278,1.086547613143921
1629880779881,0.6307504773139954,-0.1061047613620758,-0.3883838057518005,1.077540159225464
1629880779960,0.5630766153335571,-0.1189716830849647,-0.3806269764900207,1.0827181339263916
1629880780116,0.5213370323181152,-0.124981440603733,-0.3774885237216949,1.103247046470642
1629880780194,0.5343037247657776,-0.1132389605045318,-0.3704338073730469,1.1374560594558716
1629880780303,0.5944200158119202,-0.0796930491924285,-0.3511082231998443,1.1814583539962769
1629880780397,0.6575329303741455,-0.0357264950871467,-0.320206880569458,1.2223246097564695
1629880780491,0.6933368444442749,-0.000796316890046,-0.2915741205215454,1.2505254745483398
1629880780616,0.6974952816963196,0.0139819346368312,-0.2743418514728546,1.2641000747680664
1629880780743,0.6782258152961731,0.0074001615867018,-0.2654288113117218,1.2675740718841553
1629880780853,0.6511551737785339,-0.0155910179018974,-0.2544706761837005,1.2675492763519287
1629880780915,0.6266250014305115,-0.0469939969480037,-0.2367031276226043,1.268974542617798
1629880781024,0.6080780625343323,-0.0742856413125991,-0.2168157547712326,1.2754356861114502
1629880781087,0.5956541299819946,-0.0860227569937706,-0.2010571509599685,1.287776231765747
1629880781181,0.5886493921279907,-0.0806673541665077,-0.1919094622135162,1.302784442901611
1629880781321,0.5866998434066772,-0.0685065910220146,-0.1887424886226654,1.3128801584243774
1629880781431,0.5901532769203186,-0.0597318746149539,-0.1897191256284713,1.312792181968689
1629880781509,0.5941466689109802,-0.0587607473134994,-0.1926511824131012,1.3039498329162598
1629880781602,0.5871442556381226,-0.0675234198570251,-0.1983977258205413,1.290485143661499
1629880781715,0.5511748194694519,-0.0888063535094261,-0.212557852268219,1.2731821537017822
1629880781808,0.4797586798667907,-0.1258056759834289,-0.2388783544301986,1.2519750595092771
1629880781949,0.3888346254825592,-0.1760458052158355,-0.2739948034286499,1.2304315567016602
1629880782043,0.3150551617145538,-0.2267370671033859,-0.3071878552436828,1.2141101360321045
1629880782137,0.2822117209434509,-0.2657957971096039,-0.3342160582542419,1.2051079273223877
1629880782277,0.2921544313430786,-0.2954134941101074,-0.3595672845840454,1.2047549486160278
1629880782324,0.333533227443695,-0.3282725811004638,-0.3868351578712463,1.2203551530838013
1629880782418,0.4019744396209717,-0.3668393492698669,-0.4122263491153717,1.2575972080230713
1629880782574,0.4790661036968231,-0.4037580192089081,-0.4275366365909576,1.3048224449157717
1629880782668,0.5383434891700745,-0.4333570897579193,-0.4285603761672973,1.3382389545440674
1629880782733,0.5700118541717529,-0.4557811021804809,-0.4191006124019623,1.3461905717849731
1629880782827,0.5790708661079407,-0.4680522978305816,-0.4065337479114532,1.3344483375549316
1629880782952,0.577187180519104,-0.4692947566509247,-0.3975381255149841,1.318087816238403
1629880782998,0.5713423490524292,-0.4677067995071411,-0.391582190990448,1.3055241107940674
1629880783217,0.5662328600883484,-0.4740708470344543,-0.384308248758316,1.2970484495162964
1629880783264,0.566257119178772,-0.4919247031211853,-0.3743776977062225,1.291968584060669
1629880783358,0.5758976340293884,-0.5085978507995605,-0.3657166659832001,1.2896028757095337
1629880783500,0.5981436967849731,-0.5051878690719604,-0.3631477355957031,1.288780927658081
1629880783565,0.629580557346344,-0.4781238138675689,-0.3642371594905853,1.2873203754425049
1629880783659,0.6614341735839844,-0.4441956579685211,-0.3595297336578369,1.2845335006713867
1629880783831,0.6831405162811279,-0.4192199110984802,-0.3450265526771545,1.277909278869629
1629880783878,0.6866888999938965,-0.4040019810199737,-0.3296344876289367,1.2570682764053345
1629880783987,0.6706653237342834,-0.3919169008731842,-0.3263389468193054,1.2102549076080322
1629880784065,0.6379808187484741,-0.3793503940105438,-0.3416875004768371,1.1369006633758545
1629880784143,0.5992365479469299,-0.367353081703186,-0.3742929100990295,1.0623900890350342
1629880784253,0.5702077150344849,-0.3571458756923675,-0.4135351181030273,1.0223474502563477
1629880784409,0.5600343942642212,-0.3471677303314209,-0.4402754008769989,1.0247764587402344
1629880784471,0.5612543225288391,-0.3329122960567474,-0.4353737533092499,1.0445306301116943
1629880784583,0.5656225681304932,-0.3093942701816559,-0.4026934802532196,1.0656739473342896
1629880784677,0.5746826529502869,-0.2775371968746185,-0.3653111457824707,1.0877399444580078
1629880784723,0.5941827297210693,-0.2451300919055938,-0.340721070766449,1.108181357383728
1629880784864,0.6199337244033813,-0.2183058112859726,-0.3311225473880768,1.1212276220321655
1629880785005,0.637376606464386,-0.1909128874540329,-0.328796237707138,1.1237200498580933
1629880785098,0.6366325616836548,-0.1548961997032165,-0.3274773061275482,1.1232322454452517
1629880785208,0.6211462020874023,-0.1135165318846702,-0.3280554413795471,1.1330184936523438
1629880785286,0.6033644676208496,-0.0788134634494781,-0.3342597484588623,1.1598360538482666
1629880785333,0.5919110774993896,-0.0589130744338035,-0.3456458449363708,1.195342183113098
1629880785442,0.5850739479064941,-0.0527206920087337,-0.3543571531772613,1.2283458709716797
1629880785599,0.5803707838058472,-0.0532686002552509,-0.3514626324176788,1.2518317699432373
1629880785728,0.5793027877807617,-0.0556305274367332,-0.3359181582927704,1.265015959739685
1629880785759,0.5810597538948059,-0.0600702799856662,-0.3178407847881317,1.2705767154693604
1629880785900,0.5842894315719604,-0.0691591128706932,-0.3102584481239319,1.2740389108657837
1629880786009,0.5934599041938782,-0.0853023305535316,-0.3223183751106262,1.2838661670684814
1629880786087,0.6108750700950623,-0.1093049794435501,-0.354004442691803,1.3026416301727295
1629880786228,0.628314197063446,-0.138987049460411,-0.3909783661365509,1.321614384651184
1629880786306,0.6324384808540344,-0.1708865165710449,-0.4107537269592285,1.331621170043945
1629880786384,0.61702960729599,-0.2044041603803634,-0.4030598402023315,1.3311604261398315
1629880786462,0.5857391357421875,-0.2497002333402633,-0.379558801651001,1.3278149366378784
1629880786635,0.5605936050415039,-0.3199697732925415,-0.3583791255950928,1.3277502059936523
1629880786684,0.572982668876648,-0.4149535298347473,-0.3449034690856933,1.3335847854614258
1629880786793,0.66633141040802,-0.5112730264663696,-0.3279030621051788,1.3580517768859863
1629880786934,0.8124174475669861,-0.575848400592804,-0.2951875030994415,1.4092366695404053
1629880787043,0.9499335289001464,-0.5986664891242981,-0.2459360659122467,1.4723243713378906
1629880787106,1.044365406036377,-0.5990614891052246,-0.1923546642065048,1.5214799642562866
1629880787184,1.09629487991333,-0.59430992603302,-0.1472544968128204,1.5353882312774658
1629880787262,1.1183154582977295,-0.5909649729728699,-0.1147339940071106,1.55298912525177
1629880787449,1.1245425939559937,-0.5926905870437622,-0.0932832509279251,1.572440266609192
1629880787543,1.1217596530914309,-0.5975127220153809,-0.0803382918238639,1.5610533952713013
1629880787605,1.1135752201080322,-0.5988902449607849,-0.0751615539193153,1.5443845987319946
1629880787749,1.1035128831863403,-0.5927558541297913,-0.0762746036052703,1.5267208814620972
1629880787811,1.0945909023284912,-0.5815954804420471,-0.0830966681241989,1.5138087272644043
1629880787873,1.089160680770874,-0.5741807818412781,-0.0947589129209518,1.509335160255432
1629880788061,1.0885220766067505,-0.5745434165000916,-0.1092359572649002,1.510530948638916
1629880788139,1.0887054204940796,-0.5791835784912109,-0.1235430017113685,1.511519432067871
1629880788264,1.0811243057250977,-0.580955982208252,-0.1376612484455108,1.503758192062378
1629880788358,1.0452826023101809,-0.5750895142555237,-0.1572505086660385,1.4679325819015503
1629880788420,0.9647389650344848,-0.5597488880157471,-0.1882230341434478,1.3857992887496948
1629880788514,0.8329533338546753,-0.5361806750297546,-0.2346745878458023,1.253872036933899
1629880788639,0.668339192867279,-0.5097365379333496,-0.2981481850147247,1.107673168182373
1629880788733,0.5156052112579346,-0.4849706590175628,-0.3767382204532623,1.1190966367721558
1629880788826,0.4312620759010315,-0.4580264091491699,-0.4643610715866089,1.1303627490997314
1629880788936,0.4196336269378662,-0.4096002876758575,-0.5476288795471191,1.1400060653686523
1629880789045,0.4434052109718323,-0.3288056850433349,-0.6105977892875671,1.1569273471832275
1629880789123,0.467889666557312,-0.2355165779590606,-0.640239953994751,1.164786696434021
1629880789264,0.4774063527584076,-0.1596792340278625,-0.6402080059051514,1.1607569456100464
1629880789326,0.4736824631690979,-0.1134362146258354,-0.6149224638938904,1.1506277322769165
1629880789467,0.4601699709892273,-0.0919510200619697,-0.5689318776130676,1.142112135887146
1629880789563,0.4431018233299255,-0.0820236653089523,-0.5123699903488159,1.1370965242385864
1629880789641,0.4277585744857788,-0.0745925232768058,-0.4605995118618011,1.1314507722854614
1629880789735,0.4178783297538757,-0.0689347609877586,-0.4183707237243652,1.1237815618515017
1629880789844,0.4121437072753906,-0.0620762445032596,-0.3730373680591583,1.1216720342636108
1629880789954,0.4038013517856598,-0.049078457057476,-0.3130914568901062,1.1308763027191162
1629880790063,0.3895862102508545,-0.0303375106304883,-0.2495903074741363,1.146323561668396
1629880790157,0.3747431337833404,-0.0141522381454706,-0.2007312327623367,1.1594032049179075
1629880790266,0.365670770406723,-0.0077768159098923,-0.1747883111238479,1.16705584526062
1629880790376,0.3564556539058685,-0.0128231989219784,-0.16659477353096,1.168229103088379
1629880790469,0.3361964821815491,-0.029089268296957,-0.1673104166984558,1.1598790884017944
1629880790552,0.3105969727039337,-0.0579973421990871,-0.1715439856052398,1.1440738439559937
1629880790677,0.293885737657547,-0.0952946320176124,-0.1763409227132797,1.128449559211731
1629880790770,0.2996634244918823,-0.1260205954313278,-0.1809277087450027,1.1225805282592771
1629880790883,0.3236003518104553,-0.1390440315008163,-0.1881965845823288,1.1298409700393677
1629880790945,0.350467324256897,-0.1390819698572158,-0.2027092725038528,1.142138957977295
1629880791086,0.3672715425491333,-0.1400133073329925,-0.2226357907056808,1.1529223918914795
1629880791195,0.3742353320121765,-0.1481340229511261,-0.2386397719383239,1.1590113639831543
1629880791257,0.3846751749515533,-0.159598097205162,-0.2454615831375122,1.1604793071746826
1629880791351,0.4100096523761749,-0.1759602725505828,-0.2554425597190857,1.1548864841461182
1629880791445,0.4429003596305847,-0.2046760469675064,-0.289428174495697,1.1405208110809326
1629880791554,0.4660646021366119,-0.248714730143547,-0.3548803329467773,1.1161346435546875
1629880791681,0.4718842208385467,-0.295665293931961,-0.4349630177021026,1.0838518142700195
1629880791775,0.4627377688884735,-0.3269079327583313,-0.4978721439838409,1.0485180616378784
1629880791853,0.449787974357605,-0.3329355716705322,-0.5233310461044312,1.0262426137924194
1629880791947,0.4447116553783417,-0.321594089269638,-0.5135009288787842,1.033672332763672
1629880792087,0.452799528837204,-0.2989155948162079,-0.4819798171520233,1.0667346715927124
1629880792197,0.4685949683189392,-0.2718138992786407,-0.4471355378627777,1.1033514738082886
1629880792290,0.4783194363117218,-0.2512486279010772,-0.4227584600448608,1.1214863061904907
1629880792431,0.4746202230453491,-0.2419699430465698,-0.4141489863395691,1.1119763851165771
1629880792478,0.4668875634670257,-0.2343545407056808,-0.4174456298351288,1.0834221839904783
1629880792556,0.4651315808296203,-0.2163395881652832,-0.429615169763565,1.0526739358901978
1629880792665,0.4664962291717529,-0.1900363564491272,-0.4495425820350647,1.0374641418457031
1629880792790,0.4573316574096679,-0.1698610931634903,-0.4697834551334381,1.0441961288452148
1629880792931,0.4419167339801788,-0.1623188555240631,-0.4720397889614105,1.052258849143982
1629880793009,0.4181063175201416,-0.1631395816802978,-0.4372585117816925,1.0648183822631836
1629880793149,0.4030872285366058,-0.1646951287984848,-0.3679684698581695,1.08081316947937
1629880793196,0.4085854887962341,-0.1663065403699875,-0.2930037677288055,1.0986902713775637
1629880793312,0.4319555461406708,-0.169328361749649,-0.2353617548942566,1.1178648471832275
1629880793421,0.457663357257843,-0.1751313954591751,-0.2029250711202621,1.1284488439559937
1629880793499,0.4743602275848388,-0.1846557110548019,-0.1933521628379821,1.1155451536178589
1629880793625,0.4710432887077331,-0.205962672829628,-0.1965600252151489,1.0707883834838867
1629880793721,0.4469080567359924,-0.2460205256938934,-0.200124442577362,1.00063157081604
1629880793830,0.4142228364944458,-0.2989748120307922,-0.1943409144878387,0.935414731502533
1629880793892,0.398924857378006,-0.3426091969013214,-0.1767460852861404,0.9230276346206664
1629880794018,0.5021628737449646,-0.359801173210144,-0.1517328172922134,0.9230276346206664
1629880794143,0.5383033752441406,-0.3552697598934173,-0.1250674873590469,0.9230276346206664
1629880794219,0.5366866588592529,-0.3415379822254181,-0.1012037619948387,0.9230276346206664
1629880794329,0.538662850856781,-0.3214522302150726,-0.083816647529602,0.9230276346206664
1629880794393,0.4999918043613434,-0.2981294095516205,-0.0738386511802673,0.9230276346206664
1629880794531,0.4694066345691681,-0.2756578624248504,-0.06954987347126,1.2186436653137207
1629880794609,0.4523365497589111,-0.2562831044197082,-0.0681174844503402,1.20773446559906
1629880794788,0.457866758108139,-0.2363335490226745,-0.0651985630393028,1.1975964307785034
1629880794899,0.4837832450866699,-0.2162470817565918,-0.0585100688040256,1.191502332687378
1629880794930,0.5201319456100464,-0.19930399954319,-0.0493161119520664,1.187250018119812
1629880794992,0.560555636882782,-0.1892698407173156,-0.0396900027990341,1.1806296110153198
1629880795144,0.5969564914703369,-0.1869288682937622,-0.0328065827488899,1.1675972938537598
1629880795253,0.620904266834259,-0.1911486387252807,-0.0306444410234689,1.149968147277832
1629880795395,0.6285449266433716,-0.1994231194257736,-0.0341086760163307,1.132967829704285
1629880795440,0.6222310662269592,-0.2116444855928421,-0.0432472340762615,1.119359850883484
1629880795551,0.6017487645149231,-0.2304307073354721,-0.0577249713242054,1.107296109199524
1629880795613,0.5915139317512512,-0.2595407366752624,-0.0773849710822105,1.0947386026382446
1629880795771,0.5930328965187073,-0.3010374903678894,-0.1016566380858421,1.0754283666610718
1629880795818,0.6006079316139221,-0.3514064252376556,-0.1288457661867141,1.0541287660598757
1629880795959,0.6101574897766113,-0.3996733725070953,-0.1599189341068267,1.0364433526992798
1629880796103,0.6169514060020447,-0.43499356508255,-0.2008323222398758,1.019914150238037
1629880796165,0.6152418255805969,-0.4576420783996582,-0.2574279010295868,1.000510573387146
1629880796238,0.601527988910675,-0.4769344925880432,-0.3307511508464813,0.9763641953468324
1629880796354,0.5754328966140747,-0.4954089224338531,-0.4134695529937744,0.9467252492904664
1629880796448,0.5398538112640381,-0.5069916844367981,-0.4937545359134674,0.9122757911682128
1629880796605,0.4953983724117279,-0.505094587802887,-0.5660238265991211,0.878493070602417
1629880796658,0.4414979815483093,-0.4887239634990692,-0.6310269236564636,0.854232132434845
1629880796786,0.3832170963287353,-0.4644608497619629,-0.688525378704071,0.842231273651123
1629880796864,0.3340592384338379,-0.4421665370464325,-0.733159601688385,0.8360710740089417
1629880796942,0.3076497614383697,-0.4311954081058502,-0.7566447257995605,0.8276441693305969
1629880797036,0.302018404006958,-0.4337790310382843,-0.748477578163147,0.8185018301010132
1629880797208,0.3025954067707062,-0.4456753730773926,-0.6976971626281738,0.8167782425880432
1629880797292,0.296464055776596,-0.4564561545848846,-0.6102092266082764,0.8240461349487305
1629880797356,0.2754115760326385,-0.4542304277420044,-0.5134148001670837,0.8296027183532715
1629880797467,0.2485929578542709,-0.4354952573776245,-0.4304084181785583,0.8312318921089172
1629880797530,0.2328066378831863,-0.4091056287288666,-0.3660435378551483,0.8367615938186646
1629880797657,0.2481892704963684,-0.3877241611480713,-0.3128781318664551,0.855684220790863
1629880797807,0.2889728248119354,-0.3759759366512298,-0.2604303359985351,0.882645308971405
1629880797869,0.3317650854587555,-0.3715462982654571,-0.2041364908218383,0.9084891676902772
1629880797947,0.3573566079139709,-0.3693024814128876,-0.1491864621639251,0.9304235577583312
1629880798088,0.3605305850505829,-0.3656014800071716,-0.1052910238504409,0.9523776769638062
1629880798187,0.3520091772079468,-0.357479840517044,-0.078225627541542,0.9764062762260436
1629880798315,0.3419349193572998,-0.3426863849163055,-0.0655668973922729,0.995847463607788
1629880798420,0.334052175283432,-0.3214625120162964,-0.0588311366736888,1.0075331926345823
1629880798530,0.322460800409317,-0.2945556640625,-0.0522194057703018,1.0152994394302368
1629880798624,0.3011437356472015,-0.2639061510562897,-0.0470025725662708,1.023926019668579
1629880798717,0.2709147930145263,-0.2331087440252304,-0.0492462217807769,1.0353730916976929
1629880798825,0.2418770492076873,-0.2074760645627975,-0.0619519017636776,1.0505421161651611
1629880798871,0.2245672047138214,-0.1927744597196579,-0.0823131948709487,1.0702481269836426
1629880799044,0.2184600681066513,-0.1906673461198806,-0.105227030813694,1.091315984725952
1629880799094,0.217412918806076,-0.1993666440248489,-0.1288514286279678,1.1085727214813232
1629880799219,0.2039564251899719,-0.2138998657464981,-0.1550674885511398,1.117126226425171
1629880799328,0.1691750586032867,-0.2305021286010742,-0.1870796680450439,1.1186645030975342
1629880799391,0.1256618499755859,-0.2468852549791336,-0.2250787615776062,1.1184672117233276
1629880799476,0.1031838059425354,-0.262904405593872,-0.2654914557933807,1.119853377342224
1629880799650,0.1223751828074455,-0.2769271731376648,-0.2999861538410187,1.1186141967773438
1629880799743,0.1654215604066848,-0.2888829410076141,-0.3172537088394165,1.1104332208633425
1629880799822,0.2125030606985092,-0.3006395101547241,-0.3092459738254547,1.0976828336715698
1629880799936,0.2514686584472656,-0.3153479993343353,-0.2813513576984405,1.083333134651184
1629880800015,0.2843837738037109,-0.3330732583999634,-0.2430547922849655,1.0670397281646729
1629880800077,0.3149041831493377,-0.3507877290248871,-0.2044824212789535,1.0469298362731934
1629880800218,0.3398827612400055,-0.3659732341766357,-0.1694906055927276,1.0209126472473145
1629880800327,0.3580741882324219,-0.3793989419937134,-0.137798398733139,0.988528847694397
1629880800436,0.3745409250259399,-0.3920197486877441,-0.107434831559658,0.9575824737548828
1629880800530,0.393500804901123,-0.4068903625011444,-0.0791092813014984,0.9416494369506836
1629880800597,0.4078032672405243,-0.4192508161067962,-0.0536809936165809,0.9450745582580566
1629880800690,0.4128807187080383,-0.4212074875831604,-0.0335971340537071,0.9568378925323486
1629880800847,0.4094489216804504,-0.4070848226547241,-0.0226451307535171,0.9624240398406982
1629880800956,0.3992795348167419,-0.3819121718406677,-0.0236690398305654,0.9567657709121704
1629880801018,0.3798111081123352,-0.3549537658691406,-0.0304340161383152,0.947377622127533
1629880801112,0.3521624803543091,-0.3364599049091339,-0.0313212014734745,0.9478512406349182
1629880801222,0.322259783744812,-0.3322522342205047,-0.0223408509045839,0.9645512104034424
1629880801331,0.2976816594600677,-0.3424209058284759,-0.0133087830618023,0.9950671195983888
1629880801472,0.2793551087379455,-0.3608092069625854,-0.0179201085120439,1.0295747518539429
1629880801534,0.2620791792869568,-0.3821942508220672,-0.0423849113285541,1.0599045753479004
1629880801662,0.2404472678899765,-0.4053936898708343,-0.0805084928870201,1.0828022956848145
1629880801693,0.2262328863143921,-0.4328575730323791,-0.1206078827381134,1.0985915660858154
1629880801834,0.2342212051153183,-0.4626162648200989,-0.1558189988136291,1.1071255207061768
1629880801943,0.2645086348056793,-0.485027551651001,-0.188497394323349,1.1057132482528689
1629880802068,0.2964049875736236,-0.4886625111103058,-0.221229687333107,1.0917357206344604
1629880802146,0.3202402591705322,-0.480943351984024,-0.2535543441772461,1.0716158151626587
1629880802224,0.3364398777484894,-0.4772016406059265,-0.2803017795085907,1.0576424598693848
1629880802349,0.3507383465766907,-0.4857840538024902,-0.2877791821956634,1.057459592819214
1629880802459,0.367535263299942,-0.5011215806007385,-0.2637460231781006,1.0680619478225708
1629880802490,0.3904711604118347,-0.5131286382675171,-0.2187127768993377,1.0814968347549438
1629880802680,0.4155735671520233,-0.5161648392677307,-0.1762753427028656,1.091662883758545
1629880802789,0.4397423565387726,-0.5075125098228455,-0.1506280899047851,1.0989251136779783
1629880802898,0.4569657742977142,-0.4861491918563843,-0.1403474062681198,1.103873610496521
1629880802992,0.4662707448005676,-0.4581306278705597,-0.1332034617662429,1.108160376548767
1629880803023,0.4678989052772522,-0.4294615983963012,-0.1209258884191513,1.1127533912658691
1629880803133,0.472645491361618,-0.401306539773941,-0.1042913943529129,1.1183878183364868
1629880803305,0.4895436763763428,-0.3649003207683563,-0.0918789133429527,1.1244451999664309
1629880803351,0.5190580487251282,-0.3155679702758789,-0.0907097235321998,1.1303619146347046
1629880803461,0.5516207218170166,-0.2653492093086242,-0.099450297653675,1.1355445384979248
1629880803570,0.5808959007263184,-0.2299662381410598,-0.1088744327425956,1.1392364501953125
1629880803648,0.6073353886604309,-0.2125592678785324,-0.1109822615981102,1.1447793245315552
1629880803760,0.637065052986145,-0.2027598470449447,-0.1044147834181785,1.1444915533065796
1629880803891,0.6644193530082703,-0.1874435693025589,-0.0969690307974815,1.1416146755218506
1629880803969,0.682135820388794,-0.1635803878307342,-0.0986962243914604,1.1405363082885742
1629880804047,0.6877026557922363,-0.1398826837539672,-0.114640288054943,1.152644395828247
1629880804172,0.6834583282470703,-0.123294785618782,-0.1435215175151825,1.1487213373184204
1629880804266,0.6717354655265808,-0.1129447519779205,-0.1790274679660797,1.1274909973144531
1629880804359,0.6576313376426697,-0.1063409596681594,-0.2135243862867355,1.0930016040802002
1629880804469,0.6452791690826416,-0.1043253242969513,-0.2434401661157608,1.0512396097183228
1629880804594,0.6393918991088867,-0.1082898378372192,-0.2691141366958618,1.0129594802856443
1629880804672,0.6350871324539185,-0.1182984188199043,-0.2864730954170227,0.9863409399986268
1629880804750,0.6222274303436279,-0.1357937306165695,-0.2862231731414795,0.9757668375968932
1629880804875,0.5925683975219727,-0.1637762039899826,-0.2681027948856354,0.977893590927124
1629880805000,0.5473232269287109,-0.2000346779823303,-0.2462390661239624,0.9839972853660583
1629880805125,0.4953410923480987,-0.2363824695348739,-0.2339299172163009,0.9846353530883788
1629880805172,0.4496935606002807,-0.2661041021347046,-0.2293138653039932,0.9830142259597778
1629880805312,0.4145777821540832,-0.2915324568748474,-0.2252536863088607,0.9786950945854188
1629880805437,0.3996295034885406,-0.3185100257396698,-0.2202480882406234,0.9762393832206726
1629880805515,0.4036817848682403,-0.34497931599617,-0.217150405049324,0.9775388836860656
1629880805581,0.4192986488342285,-0.3598057925701141,-0.2128534913063049,0.9589741826057434
1629880805768,0.4369724690914154,-0.3594860732555389,-0.2027387470006942,0.96360045671463
1629880805815,0.4539654552936554,-0.3542574942111969,-0.1884537637233734,0.9875181913375854
1629880805925,0.4702879190444946,-0.3498821556568146,-0.1756892204284668,1.01788592338562
1629880806003,0.4911733269691467,-0.3328934609889984,-0.1655583828687667,1.04305100440979
1629880806096,0.5175639986991882,-0.2969638705253601,-0.1506336033344268,1.0577160120010376
1629880806190,0.5504810810089111,-0.2548876404762268,-0.1295417100191116,1.0648113489151
1629880806362,0.5917474627494812,-0.2218808382749557,-0.1100825741887092,1.0712562799453735
1629880806424,0.6438915729522705,-0.201497808098793,-0.096801109611988,1.0862441062927246
1629880806487,0.7021239995956421,-0.1869102269411087,-0.0872706547379493,1.118000864982605
1629880806599,0.7599992752075195,-0.1691400855779647,-0.0768157392740249,1.1696871519088743
1629880806724,0.8071849942207336,-0.1459285914897918,-0.066310815513134,1.230958342552185
1629880806833,0.8385536670684814,-0.1225125268101692,-0.0605269894003868,1.285111665725708
1629880806911,0.8524195551872253,-0.1067019626498222,-0.0593329556286335,1.3188737630844116
1629880807052,0.8529555201530457,-0.106543056666851,-0.0578188486397266,1.3319963216781616
1629880807114,0.8462966680526733,-0.1224892064929008,-0.0569076351821422,1.330628752708435
1629880807239,0.8379658460617065,-0.1467051655054092,-0.0625482201576232,1.3232858180999756
1629880807317,0.8318682909011841,-0.1663442701101303,-0.0758765339851379,1.3167496919631958
1629880807442,0.8290975689888,-0.1755121201276779,-0.0905058309435844,1.315151572227478
1629880807536,0.8273863196372986,-0.1838064342737198,-0.1021061763167381,1.3197816610336304
1629880807648,0.8220512866973877,-0.1971690356731414,-0.1174257323145866,1.3262205123901367
1629880807773,0.8100022673606873,-0.2087622135877609,-0.1459459513425827,1.33018159866333
1629880807820,0.7945913076400757,-0.2109057456254959,-0.1869128197431564,1.3321149349212646
1629880807898,0.7810976505279541,-0.2052667438983917,-0.2289939671754837,1.33570396900177
1629880808085,0.7693249583244324,-0.1999498307704925,-0.2583153545856476,1.3406667709350586
1629880808132,0.7272254228591919,-0.1969556957483291,-0.2752781808376312,1.3385335206985474
1629880808257,0.6724517345428467,-0.1936396956443786,-0.290016770362854,1.3239647150039673
1629880808366,0.6127889156341553,-0.1888867616653442,-0.3034246861934662,1.3005883693695068
1629880808445,0.5626261234283447,-0.1847138404846191,-0.3057695627212524,1.282660961151123
1629880808523,0.5378575921058655,-0.1792607009410858,-0.2977344393730163,1.277326226234436
1629880808632,0.5419909954071045,-0.1710896641016006,-0.2925398051738739,1.280819296836853
1629880808757,0.6014472842216492,-0.1631378978490829,-0.2952371835708618,1.2861719131469729
1629880808866,0.6343455910682678,-0.1599744111299514,-0.2949393093585968,1.2879222631454468
1629880808929,0.6394433975219727,-0.161547914147377,-0.2811977863311767,1.2854478359222412
1629880809069,0.6268126368522644,-0.163871631026268,-0.2557478547096252,1.282604694366455
1629880809148,0.6103688478469849,-0.1682706922292709,-0.2251167893409729,1.2844451665878296
1629880809226,0.6002493500709534,-0.1797189861536026,-0.1896463185548782,1.2903621196746826
1629880809351,0.5826122164726257,-0.1973849684000015,-0.1537089943885803,1.2920736074447632
1629880809525,0.5271081328392029,-0.2128936648368835,-0.1244379580020904,1.279924750328064
1629880809557,0.4101260304450989,-0.2183374464511871,-0.1084508970379829,1.2506589889526367
1629880809635,0.4041508138179779,-0.2115669250488281,-0.105056032538414,1.2116286754608154
1629880809760,0.4117289185523987,-0.1918783783912658,-0.1083116680383682,1.1718820333480835
1629880809838,0.4372035264968872,-0.1641465127468109,-0.1164026260375976,1.1384949684143066
1629880809994,0.4701274037361145,-0.1382399201393127,-0.1350767314434051,1.1103531122207642
1629880810088,0.4981394112110138,-0.1223809793591499,-0.1668637543916702,1.0866549015045166
1629880810166,0.5176549553871155,-0.1164975240826606,-0.2009727656841278,1.066721796989441
1629880810275,0.5047338604927063,-0.1127864941954612,-0.2191658169031143,1.0479508638381958
1629880810353,0.5026857256889343,-0.1086533665657043,-0.2179335802793502,1.027461290359497
1629880810494,0.508962869644165,-0.1068596467375755,-0.2090809196233749,1.0081133842468262
1629880810622,0.5149215459823608,-0.1097193360328674,-0.2042197287082672,0.9931718111038208
1629880810669,0.5179533958435059,-0.1149968355894088,-0.2057468295097351,0.9848811030387878
1629880810809,0.5172684192657471,-0.1193615719676017,-0.2162035405635833,0.9806041121482848
1629880810887,0.5148352384567261,-0.1211048513650894,-0.2354582846164703,0.980169951915741
1629880810965,0.5130802989006042,-0.1194958984851837,-0.2575450539588928,0.9830695986747742
1629880811075,0.5182084441184998,-0.1118460372090339,-0.2725470066070556,0.9915002584457396
1629880811200,0.5278888940811157,-0.1034546792507171,-0.2741652131080627,1.0031986236572266
1629880811340,0.5322846174240112,-0.1038178876042366,-0.2666743695735931,1.0139893293380735
1629880811403,0.5199593901634216,-0.1148964092135429,-0.2582972645759582,1.0204123258590698
1629880811512,0.4914422631263733,-0.1285346150398254,-0.2529926300048828,1.0258073806762695
1629880811559,0.4553300440311432,-0.1343697160482406,-0.249905988574028,1.034184455871582
1629880811687,0.4264359474182129,-0.1303384602069854,-0.2491705119609832,1.0475083589553833
1629880811796,0.4143515229225158,-0.123573251068592,-0.2556569576263428,1.0619208812713623
1629880811890,0.426631212234497,-0.1177187338471412,-0.2734717428684234,1.074325680732727
1629880811984,0.4590349793434143,-0.1118254363536834,-0.3009166419506073,1.0802905559539795
1629880812093,0.4973693192005157,-0.1039905101060867,-0.3260298371315002,1.0767581462860107
1629880812203,0.526333212852478,-0.0958693474531173,-0.3354918956756592,1.0651971101760864
1629880812312,0.5401285290718079,-0.091381624341011,-0.3232150077819824,1.0514756441116333
1629880812437,0.5427725315093994,-0.0939046517014503,-0.2927291393280029,1.0419082641601562
1629880812515,0.5429968237876892,-0.1044844165444374,-0.2566948533058166,1.0386464595794678
1629880812609,0.5494903922080994,-0.1250291764736175,-0.2217958867549896,1.03751540184021
1629880812721,0.5659736394882202,-0.1528288275003433,-0.1857943832874298,1.039887309074402
1629880812799,0.5888909697532654,-0.1817311495542526,-0.1462392061948776,1.052139401435852
1629880812861,0.6076406240463257,-0.2058523148298263,-0.1055663302540779,1.0705236196517944
1629880813033,0.6232264041900635,-0.2233880162239074,-0.0689554363489151,1.0851585865020752
1629880813111,0.6496815085411072,-0.2357732504606247,-0.0384505353868007,1.0905718803405762
1629880813205,0.6927663683891296,-0.2475841045379638,-0.0117432158440351,1.0914974212646484
1629880813314,0.7400090098381042,-0.2624145448207855,0.0118472436442971,1.0974962711334229
1629880813377,0.7721636295318604,-0.2801150977611542,0.0289098620414733,1.1121665239334106
1629880813486,0.7810352444648743,-0.2995086312294006,0.037136860191822,1.128577470779419
1629880813627,0.7739453315734863,-0.320358395576477,0.0383276455104351,1.1389261484146118
1629880813741,0.7664105296134949,-0.3409696519374847,0.0365039333701133,1.140964150428772
1629880813819,0.766645073890686,-0.3564428091049194,0.0340838655829429,1.1386317014694214
1629880813944,0.7716189622879028,-0.3598232865333557,0.0304755587130785,1.134122014045715
1629880814022,0.774239182472229,-0.3516877293586731,0.0238391123712062,1.1292243003845217
1629880814100,0.767549991607666,-0.3407908976078033,0.0115758189931511,1.1239116191864014
1629880814225,0.7494345903396606,-0.3343782126903534,-0.010150815360248,1.1172077655792236
1629880814350,0.7249424457550049,-0.334478884935379,-0.0423132516443729,1.1097207069396973
1629880814428,0.707537829875946,-0.3352971971035003,-0.0790791511535644,1.1110979318618774
1629880814490,0.7036186456680298,-0.327553242444992,-0.108575165271759,1.1277360916137695
1629880814662,0.7006412148475647,-0.3121935725212097,-0.1237174421548843,1.151825189590454
1629880814776,0.6794270873069763,-0.2975719273090362,-0.1285451799631118,1.1678000688552856
1629880814901,0.6295948028564453,-0.2912146747112274,-0.1293223947286605,1.1650669574737549
1629880814963,0.5633141398429871,-0.2950181365013122,-0.1256168037652969,1.1444376707077026
1629880815088,0.5093855857849121,-0.3054806888103485,-0.1189025118947029,1.119035720825195
1629880815166,0.4880165159702301,-0.317986249923706,-0.1177049279212951,1.1050995588302612
1629880815229,0.4896081984043121,-0.3281838893890381,-0.1302327960729599,1.1093597412109375
1629880815323,0.4956876337528229,-0.3295152485370636,-0.1573785841464996,1.124582290649414
1629880815463,0.4997468888759613,-0.3197224140167236,-0.1931657195091247,1.1415539979934692
1629880815572,0.5002993941307068,-0.3052244782447815,-0.2284463495016098,1.154428243637085
1629880815666,0.4972270131111145,-0.2946540117263794,-0.2579347193241119,1.161966323852539
1629880815809,0.4897297918796539,-0.2944088876247406,-0.2819404602050781,1.1620407104492188
1629880815872,0.4780899286270141,-0.3036190271377563,-0.3042456805706024,1.1516708135604858
1629880815950,0.4613041877746582,-0.3181646764278412,-0.3306009173393249,1.1285008192062378
1629880816044,0.4341320693492889,-0.3371482193470001,-0.3697526454925537,1.093356013298035
1629880816153,0.3982828259468078,-0.3582757115364074,-0.4267264604568481,1.0530767440795898
1629880816294,0.3655368089675903,-0.3726041615009308,-0.4961448907852173,1.017236828804016
1629880816372,0.3535295128822326,-0.3707679808139801,-0.5605270266532898,0.9950615763664246
1629880816466,0.3583315908908844,-0.3555757999420166,-0.6062639355659485,0.9879878163337708
1629880816528,0.3607375025749206,-0.3382181227207184,-0.62982577085495,0.9896514415740968
1629880816684,0.3442085385322571,-0.3245169222354889,-0.6280763149261475,0.9894837737083436
1629880816797,0.3125163316726684,-0.3122981786727905,-0.593502938747406,0.9833891987800598
1629880816906,0.2839148044586181,-0.2986103594303131,-0.5370232462882996,0.9778865575790404
1629880816953,0.2721068263053894,-0.2837990522384643,-0.4832640588283539,0.9830766320228576
1629880817047,0.2801568508148193,-0.2641319334506988,-0.446734607219696,0.9981193542480468
1629880817140,0.2931812107563019,-0.2329596579074859,-0.4283348023891449,1.010730862617493
1629880817312,0.3076563775539398,-0.1913231462240219,-0.4200392067432403,1.0157283544540403
1629880817390,0.3276821672916412,-0.1501554995775222,-0.4114065170288086,1.014805555343628
1629880817484,0.348754733800888,-0.1168714240193367,-0.3867115974426269,1.021027684211731
1629880817565,0.3638650476932525,-0.0893992260098457,-0.3621383905410766,1.0329638719558716
1629880817674,0.3656908869743347,-0.0646427571773529,-0.3381128311157226,1.049797296524048
1629880817783,0.3482897579669952,-0.0459810197353363,-0.3195118308067322,1.0726897716522217
1629880817930,0.3165360689163208,-0.0358630456030368,-0.314134806394577,1.1015621423721311
1629880818005,0.2910712659358978,-0.0314780063927173,-0.3221447467803955,1.133717060089111
1629880818066,0.2914423048496246,-0.0273621138185262,-0.3342654407024383,1.1644119024276731
1629880818163,0.3233957290649414,-0.0241782199591398,-0.3440896570682525,1.193833589553833
1629880818286,0.3667402565479278,-0.0254973284900188,-0.366531103849411,1.2222232818603516
1629880818363,0.3978947699069977,-0.0345942415297031,-0.425458014011383,1.2446597814559937
1629880818537,0.3978947699069977,-0.0507014878094196,-0.5285502076148987,1.2446597814559937
1629880818614,0.3978947699069977,-0.0726771056652069,-0.5285502076148987,1.2446597814559937
1629880818693,0.3978947699069977,-0.1002152338624,-0.5285502076148987,1.2446597814559937
1629880818771,0.3978947699069977,-0.131730854511261,-0.5285502076148987,1.2446597814559937
1629880818843,0.3978947699069977,-0.1601483523845672,-0.5285502076148987,1.2446597814559937
1629880818999,0.3978947699069977,-0.1798418462276458,-0.1179997101426124,1.2446597814559937
1629880819140,0.3978947699069977,-0.1878788620233535,0.2053475528955459,1.2446597814559937
1629880819223,0.3978947699069977,-0.1896405816078186,0.2053475528955459,1.2446597814559937
1629880819285,0.3978947699069977,-0.1910111606121063,0.2053475528955459,1.2446597814559937
1629880819434,0.9748954176902772,-0.1978054344654083,0.2053475528955459,1.2446597814559937
1629880819497,1.0573712587356567,-0.2130042910575866,0.2053475528955459,1.2446597814559937
1629880819609,1.0573712587356567,-0.2357102334499359,0.2053475528955459,1.2446597814559937
1629880819703,1.0573712587356567,-0.2568340003490448,0.2053475528955459,1.2446597814559937
1629880819843,1.0573712587356567,-0.269732266664505,0.2053475528955459,1.2446597814559937
1629880819922,1.0573712587356567,-0.2739107608795166,0.157446414232254,1.2446597814559937
1629880820062,1.0573712587356567,-0.2756945490837097,0.1062204539775848,1.2446597814559937
1629880820109,0.9852391481399536,-0.2801927924156189,0.0595774911344051,1.2446597814559937
1629880820171,0.967151403427124,-0.2876066267490387,0.0637214258313179,1.2446597814559937
1629880820328,0.9481276273727416,-0.2901742458343506,0.0674672946333885,1.2446597814559937
1629880820421,0.9217737913131714,-0.2801904082298279,0.0535284206271171,1.2505558729171753
1629880820546,0.856609582901001,-0.2633396983146667,-0.0304498597979545,1.2328081130981443
1629880820593,0.8008422255516052,-0.260678231716156,-0.4495744407176971,1.1962950229644775
1629880820706,0.752716600894928,-0.2818231284618377,-0.4442315101623535,1.157065510749817
1629880820815,0.7116403579711914,-0.3172034919261932,-0.4307797253131866,1.121901273727417
1629880820940,0.3750472664833069,-0.3420795798301697,-0.4120814204216003,1.0897778272628784
1629880821034,-0.2644757628440857,-0.3374587893486023,-0.3842392265796661,1.0580613613128662
1629880821159,-0.2282121926546096,-0.303829938173294,-0.3421485424041748,1.0267677307128906
1629880821221,-0.2012162953615188,-0.2548607885837555,-0.2909154295921325,0.99662584066391
1629880821315,-0.1585461497306823,-0.2057642191648483,-0.2418493777513504,0.9684284925460817
1629880821409,-0.08536147326231,-0.1672552675008773,-0.2030029892921447,0.9426146149635316
1629880821549,0.0082435412332415,-0.1412710696458816,-0.1641110181808471,0.919607937335968
1629880821723,0.1001893505454063,-0.1246308758854866,-0.1376291513442993,0.8801474571228027
1629880821755,0.1735777258872985,-0.1145639866590499,-0.1242350116372108,0.8218474984169006
1629880821880,0.221053197979927,-0.1131534427404403,-0.1222569495439529,0.7412299513816833
1629880821942,0.2587293982505798,-0.1243765950202941,-0.1276717483997345,0.650040864944458
1629880822004,0.3022815883159637,-0.1452571004629135,-0.1350583732128143,0.5673555135726929
1629880822161,0.3538216650485992,-0.165046751499176,-0.1422622799873352,0.5111146569252014
1629880822270,0.4023212492465973,-0.1722880154848098,-0.1509657353162765,0.4804817140102386
1629880822360,0.4366436898708343,-0.1678509414196014,-0.1627591401338577,0.4799404144287109
1629880822454,0.4534502923488617,-0.1643914580345153,-0.1764244884252548,0.517212450504303
1629880822516,0.4578205049037933,-0.1740518361330032,-0.1926406323909759,0.5863497257232666
1629880822657,0.4609955549240112,-0.2014163136482238,-0.2147628366947174,0.6658160090446472
1629880822800,0.4731792509555816,-0.2449372261762619,-0.2478963136672973,0.7395406365394592
1629880822862,0.4929650127887726,-0.2963999807834625,-0.295274019241333,0.7972028851509094
1629880822987,0.5122567415237427,-0.3408118188381195,-0.3544939458370209,0.8380525708198547
1629880823050,0.5175648927688599,-0.3655437529087066,-0.4172205626964569,0.8654431700706482
1629880823128,0.5065566301345825,-0.3662997782230377,-0.4675014317035675,0.8855753540992737
1629880823268,0.4874823689460754,-0.3475470542907715,-0.4946711957454681,0.9016366600990297
1629880823425,0.4735115468502044,-0.3203108310699463,-0.4993860721588135,0.9188307523727416
1629880823456,0.4672318994998932,-0.2984216809272766,-0.4917531013488769,0.9455044269561768
1629880823581,0.4619644582271576,-0.2899762988090515,-0.4836689233779907,0.9857704639434814
1629880823690,0.4530098140239715,-0.2912115752696991,-0.4836037755012512,1.0312508344650269
1629880823786,0.4431242942810058,-0.2921597361564636,-0.4901430606842041,1.068988800048828
1629880823864,0.438175231218338,-0.2873471677303314,-0.4996190965175628,1.091073751449585
1629880824004,0.4374355971813202,-0.2790772616863251,-0.5118990540504456,1.0950276851654053
1629880824098,0.4361470341682434,-0.2709351181983948,-0.5295290350914001,1.083899974822998
1629880824192,0.4280814230442047,-0.2603402435779571,-0.5566108822822571,1.0645344257354736
1629880824317,0.4081629812717438,-0.2363946288824081,-0.5875850319862366,1.045940399169922
1629880824348,0.3721363246440887,-0.1909235715866089,-0.6118636131286621,1.0363978147506714
1629880824473,0.3196550607681274,-0.1348738670349121,-0.6214801669120789,1.0373860597610474
1629880824598,0.2695114612579345,-0.0890416800975799,-0.6129491925239563,1.046562671661377
1629880824692,0.2448340058326721,-0.0677331760525703,-0.5913166999816895,1.0569007396697998
1629880824787,0.2564679682254791,-0.0726734772324562,-0.5662067532539368,1.06311297416687
1629880824898,0.2849928140640259,-0.0945719331502914,-0.5428327918052673,1.0604392290115356
1629880824960,0.3019046187400818,-0.1195053681731224,-0.5211138129234314,1.0460374355316162
1629880825070,0.2939983606338501,-0.1370563805103302,-0.4944040477275848,1.0211151838302612
1629880825226,0.2670392692089081,-0.1478662490844726,-0.4608493745326996,0.992908775806427
1629880825304,0.2385438978672027,-0.1615466028451919,-0.4237854480743408,0.9706678986549376
1629880825382,0.2274606227874755,-0.1825079768896103,-0.3874883353710174,0.9573841094970704
1629880825512,0.2497240006923675,-0.203613132238388,-0.3551928400993347,0.9531421065330504
1629880825575,0.3030042350292206,-0.2130512297153473,-0.3299342095851898,0.955160677433014
1629880825699,0.3625018000602722,-0.2105172425508499,-0.3157621324062347,0.9567406177520752
1629880825821,0.4137174785137176,-0.2135633677244186,-0.3144444823265075,0.9520450830459596
1629880825918,0.4492871165275574,-0.243228405714035,-0.3199954926967621,0.9389199018478394
1629880826027,0.4714934527873993,-0.308210551738739,-0.3233936131000519,0.9252650141716005
1629880826102,0.4806695282459259,-0.3966790437698364,-0.3234846889972687,0.9183036684989928
1629880826196,0.4789271950721741,-0.4763524234294891,-0.3267650604248047,0.920248568058014
1629880826292,0.4655850529670715,-0.5160571932792664,-0.3373213112354278,0.9231604933738708
1629880826433,0.4463161826133728,-0.5123942494392395,-0.3498864769935608,0.9221272468566896
1629880826526,0.4275048673152923,-0.4773904681205749,-0.3546665012836456,0.9168453812599182
1629880826635,0.4138910472393036,-0.428748220205307,-0.3504536747932434,0.9095054864883424
1629880826713,0.4028432369232178,-0.3830966055393219,-0.3434505760669708,0.900813102722168
1629880826814,0.3887436985969543,-0.3442966938018799,-0.3430918753147125,0.8944035172462463
1629880826924,0.3654649555683136,-0.3051339387893677,-0.3540083765983581,0.8958244323730469
1629880827050,0.3285504877567291,-0.2599698901176452,-0.3739282488822937,0.9039382934570312
1629880827128,0.2797019779682159,-0.2138940095901489,-0.3981844186782837,0.913603663444519
1629880827237,0.245230957865715,-0.1775831580162048,-0.4185341298580169,0.9271804094314576
1629880827347,0.2527646124362945,-0.1547475904226303,-0.4282014369964599,0.9507051706314088
1629880827425,0.3084352612495422,-0.1408168524503708,-0.429096907377243,0.9856747388839722
1629880827503,0.3769932985305786,-0.1260724365711212,-0.4286065101623535,1.0224190950393677
1629880827708,0.4330191612243652,-0.1040573269128799,-0.4284366071224212,1.050765037536621
1629880827740,0.4668554365634918,-0.0770830139517784,-0.4228585362434387,1.068644404411316
1629880827818,0.4855985939502716,-0.0516183227300643,-0.4054652154445648,1.0846331119537354
1629880827960,0.4935595393180847,-0.032003279775381,-0.3804401755332947,1.1049606800079346
1629880828024,0.4953491687774658,-0.0208515059202909,-0.3620845675468445,1.1277611255645752
1629880828134,0.4989423155784607,-0.016133964061737,-0.3610776662826538,1.1502329111099243
1629880828274,0.5079892873764038,-0.0134172504767775,-0.37827068567276,1.1682838201522827
1629880828325,0.5250425934791565,-0.0089678550139069,-0.4018488228321075,1.1814264059066772
1629880828450,0.5451219081878662,-0.0044201621785759,-0.4119574129581451,1.1882199048995972
1629880828528,0.5637542605400085,-0.003427282674238,-0.3883823454380035,1.1885837316513062
1629880828643,0.5747718811035156,-0.0048364121466875,-0.3256503939628601,1.1817926168441772
1629880828721,0.5742920637130737,-0.0001315066037932,-0.2449734061956405,1.168370008468628
1629880828862,0.5576156377792358,0.0145602785050868,-0.1723138093948364,1.148455023765564
1629880828955,0.5276457071304321,0.0327652469277381,-0.1196627095341682,1.1234253644943235
1629880829049,0.4930887818336487,0.0424901060760021,-0.0857983604073524,1.0951889753341677
1629880829144,0.4658375084400177,0.0384252592921257,-0.064421072602272,1.0672848224639893
1629880829253,0.4532202780246734,0.024981016293168,-0.0523777492344379,1.039725422859192
1629880829363,0.4543501138687134,0.0104470131918787,-0.0490760393440723,1.009655237197876
1629880829472,0.472216248512268,0.0001122343237511,-0.0509831644594669,0.976013720035553
1629880829566,0.501663863658905,-0.0056613297201693,-0.0490533970296382,0.9396287202835084
1629880829675,0.5283792018890381,-0.0113962013274431,-0.0369687676429748,0.9005689024925232
1629880829769,0.5408236384391785,-0.0221670661121606,-0.0142365684732794,0.8654746413230896
1629880829878,0.5350950956344604,-0.0402475968003273,0.0158677771687507,0.8415436744689941
1629880829956,0.5173555612564087,-0.0647589638829231,0.0457993894815444,0.8073967695236206
1629880830099,0.4971722364425659,-0.0930375978350639,0.0638059675693512,0.8294453620910645
1629880830190,0.4819216132164001,-0.1276475936174392,0.0601477213203907,0.8632545471191406
1629880830253,0.4683969616889953,-0.1775068044662475,0.0344156101346015,0.8919900059700012
1629880830362,0.4486136138439178,-0.2463870197534561,-0.0039206077344715,0.9135037064552308
1629880830472,0.4163543283939361,-0.3227518200874328,-0.0423193201422691,0.933505356311798
1629880830612,0.3745810389518738,-0.3779400289058685,-0.0731100142002105,0.9536883234977722
1629880830709,0.3304440677165985,-0.3892829716205597,-0.0948455482721328,0.9697879552841188
1629880830787,0.2903111279010772,-0.3698075711727142,-0.1084587946534156,0.9787489175796508
1629880830881,0.2585667967796325,-0.3485021591186523,-0.1177375987172126,0.9812305569648744
1629880830974,0.2477450668811798,-0.3434690833091736,-0.1292479187250137,0.9803585410118104
1629880831099,0.2747364640235901,-0.3553208708763122,-0.1498097330331802,0.9802342653274536
1629880831177,0.3288813829421997,-0.3742477595806122,-0.1815206110477447,0.9827509522438048
1629880831334,0.3788165152072906,-0.3896084725856781,-0.2235812693834304,0.9858140349388124
1629880831380,0.4071121513843536,-0.3966304063796997,-0.2792062759399414,0.983582317829132
1629880831524,0.4183156490325928,-0.3883544206619262,-0.3512673079967499,0.982044756412506
1629880831602,0.4248242378234863,-0.3645953834056854,-0.4323419034481048,0.9576581716537476
1629880831680,0.4354667663574219,-0.33025723695755,-0.5011926889419556,0.9364421367645264
1629880831880,0.453672856092453,-0.2936453223228454,-0.5391747355461121,0.9300531148910522
1629880831927,0.4814036786556244,-0.2627582550048828,-0.5489566922187805,0.9305341839790344
1629880832052,0.5134797692298889,-0.2450886964797973,-0.5463864207267761,0.9229535460472108
1629880832130,0.5442432165145874,-0.2446110844612121,-0.5421798825263977,0.9088543057441713
1629880832192,0.5672571063041687,-0.2627629041671753,-0.5371755957603455,0.901390790939331
1629880832271,0.5824716687202454,-0.2906853854656219,-0.5275628566741943,0.9113057851791382
1629880832396,0.5910153388977051,-0.3155611157417297,-0.5116872191429138,0.9326401948928832
1629880832554,0.584582507610321,-0.3304640650749206,-0.4978405833244324,0.9518436789512634
1629880832647,0.5568992495536804,-0.3375960290431976,-0.4904360771179199,0.9651883244514464
1629880832788,0.514309823513031,-0.3376560807228088,-0.4826123714447021,0.9769302010536194
1629880832835,0.4840370714664459,-0.3249271214008331,-0.4673939049243927,0.9919896721839904
1629880832929,0.4850832521915436,-0.3016427457332611,-0.4493714570999145,1.0109810829162598
1629880832991,0.5073595643043518,-0.2857242524623871,-0.4367911517620086,1.0312747955322266
1629880833132,0.5262899994850159,-0.2926408946514129,-0.4318788051605224,1.048812747001648
1629880833210,0.5324628353118896,-0.3241291344165802,-0.4316311180591583,1.058599591255188
1629880833335,0.5281063318252563,-0.3693947196006775,-0.4319895207881927,1.0587791204452517
1629880833413,0.5240116119384766,-0.4118301272392273,-0.4267970621585846,1.0518767833709717
1629880833522,0.5303878784179688,-0.4364352226257324,-0.4033033549785614,1.0455480813980105
1629880833663,0.5472938418388367,-0.4372110962867737,-0.3469318449497223,1.0430597066879272
1629880833772,0.5656235218048096,-0.4163811206817627,-0.2724241018295288,1.0409990549087524
1629880833819,0.57839435338974,-0.3863847255706787,-0.2058527022600174,1.0354269742965698
1629880833928,0.5816799998283386,-0.3609171509742737,-0.1606490463018417,1.0260964632034302
1629880834069,0.5781693458557129,-0.3477822840213775,-0.1332862675189972,1.017388105392456
1629880834131,0.571219801902771,-0.3498826026916504,-0.1164510995149612,1.0114376544952393
1629880834210,0.5614762306213379,-0.3683759868144989,-0.1074353009462356,1.0051469802856443
1629880834397,0.5449033379554749,-0.4029973447322845,-0.1071598008275032,0.9928106665611268
1629880834475,0.5194807648658752,-0.4493839740753174,-0.1113740652799606,0.9723100662231444
1629880834538,0.497614324092865,-0.4937135279178619,-0.1146137043833732,0.9498753547668456
1629880834634,0.503243625164032,-0.5201277136802673,-0.1125171706080436,0.9373074769973756
1629880834759,0.5436089038848877,-0.5233029127120972,-0.1048743650317192,0.9422087073326112
1629880834822,0.5957114100456238,-0.5117640495300293,-0.0949482843279838,0.9602456092834472
1629880834962,0.6276834607124329,-0.4967454373836517,-0.0888948366045951,0.9800772666931152
1629880835072,0.625572144985199,-0.4860216975212097,-0.0951012000441551,0.9898605346679688
1629880835134,0.5973753333091736,-0.4838240146636963,-0.1242696195840835,0.9854223132133484
1629880835228,0.5641944408416748,-0.4970439076423645,-0.1790407299995422,0.9726049304008484
1629880835368,0.5434954166412354,-0.5302520394325256,-0.2509635388851166,0.962374210357666
1629880835493,0.541782557964325,-0.5748394727706909,-0.3221556544303894,0.9645951986312866
1629880835587,0.555189847946167,-0.6064911484718323,-0.3785897493362427,0.9783968925476074
1629880835683,0.574389636516571,-0.6031535863876343,-0.4206646084785461,0.9928922057151794
1629880835761,0.5929520130157471,-0.5691040754318237,-0.4516878128051758,0.998834192752838
1629880835839,0.610029399394989,-0.5267308950424194,-0.4591481685638428,0.9950500726699828
1629880835980,0.6302717328071594,-0.4899112284183502,-0.428646832704544,0.9831036925315856
1629880836027,0.6522392630577087,-0.4642062485218048,-0.3697319626808166,0.9657976031303406
1629880836183,0.6635481119155884,-0.4495334923267364,-0.3129911124706268,0.9422772526741028
1629880836277,0.6501030921936035,-0.4392529428005218,-0.2791448831558227,0.9109748005867004
1629880836402,0.6106695532798767,-0.4225921630859375,-0.2661047577857971,0.8732666373252869
1629880836433,0.5619542002677917,-0.3969914019107818,-0.2573546469211578,0.8395966291427612
1629880836542,0.526348352432251,-0.3701578676700592,-0.2411269247531891,0.8169679641723633
1629880836636,0.5097075700759888,-0.3542667031288147,-0.2205457687377929,0.8052234053611755
1629880836781,0.5032550692558289,-0.3492856621742248,-0.202848196029663,0.796123743057251
1629880836890,0.50457763671875,-0.3426451981067657,-0.1885476112365722,0.7835343480110168
1629880836968,0.5252265930175781,-0.3222770392894745,-0.1746108382940292,0.7693864703178406
1629880837062,0.5719040036201477,-0.291000097990036,-0.160904511809349,0.7652495503425598
1629880837218,0.6299282908439636,-0.2626928687095642,-0.1496088057756424,0.7768806219100952
1629880837249,0.6803116202354431,-0.2473658621311187,-0.1440782845020294,0.7986986637115479
1629880837405,0.7152226567268372,-0.2411769330501556,-0.1493559181690216,0.8215646743774414
1629880837484,0.7370113730430603,-0.2311608493328094,-0.1713544130325317,0.8472123146057129
1629880837562,0.7488102316856384,-0.2104043960571289,-0.2107320427894592,0.8772892355918884
1629880837752,0.752030074596405,-0.185728833079338,-0.2572830617427826,0.9096639156341552
1629880837783,0.7497438788414001,-0.170545294880867,-0.2963153421878814,0.9379531741142272
1629880837876,0.7490459084510803,-0.1738025993108749,-0.3240939676761627,0.961399495601654
1629880837986,0.7526472806930542,-0.1940583139657974,-0.3513436317443847,0.982829749584198
1629880838111,0.7574853301048279,-0.2229311019182205,-0.3850338160991668,1.0061899423599243
1629880838205,0.7600956559181213,-0.2479884624481201,-0.4161022901535034,1.028949737548828
1629880838283,0.7593472599983215,-0.2638711333274841,-0.4293400645256042,1.0463801622390747
1629880838423,0.7526670098304749,-0.2766352295875549,-0.4228140711784363,1.05477774143219
1629880838504,0.7349407076835632,-0.2960118055343628,-0.399900883436203,1.0575611591339111
1629880838629,0.7044633626937866,-0.3251767456531524,-0.3570202589035034,1.0658515691757202
1629880838676,0.6709247827529907,-0.3580526709556579,-0.2960422933101654,1.0919437408447266
1629880838816,0.6453806757926941,-0.3857348561286926,-0.2328881025314331,1.1276479959487915
1629880838894,0.6296215057373047,-0.4086154997348785,-0.1840546280145645,1.1567587852478027
1629880838988,0.6135174632072449,-0.4398623406887054,-0.1542895138263702,1.16588032245636
1629880839066,0.5924245119094849,-0.4893979430198669,-0.1370059698820114,1.156660079956055
1629880839223,0.5700878500938416,-0.5489777326583862,-0.1251121014356613,1.136909008026123
1629880839317,0.553295910358429,-0.5912091732025146,-0.1143822818994522,1.1151117086410522
1629880839410,0.5443335175514221,-0.5937164425849915,-0.1031713262200355,1.096127986907959
1629880839520,0.5451623797416687,-0.5659040212631226,-0.090028315782547,1.0791065692901611
1629880839598,0.562295138835907,-0.5266489386558533,-0.0725367292761802,1.0604392290115356
1629880839707,0.5957585573196411,-0.4808948636054992,-0.0517783612012863,1.0377185344696045
1629880839879,0.6353418827056885,-0.4268701076507568,-0.0343624204397201,1.0153191089630127
1629880839941,0.6670757532119751,-0.367616206407547,-0.0270346421748399,0.9997799396514891
1629880840019,0.6825755834579468,-0.3129779398441314,-0.0340926684439182,0.9884918332099916
1629880840129,0.6777912974357605,-0.2720365822315216,-0.058946918696165,0.9608078598976136
1629880840223,0.6542530655860901,-0.2484341859817505,-0.1018157005310058,0.8957095742225647
1629880840348,0.6195214986801147,-0.2401307374238968,-0.1560656130313873,0.7975375652313232
1629880840488,0.5873153209686279,-0.2422751039266586,-0.2061695903539657,0.7041656374931335
1629880840504,0.5678155422210693,-0.2474310845136642,-0.2384991198778152,0.6732422113418579
1629880840631,0.5593183636665344,-0.2478535026311874,-0.253105103969574,0.7000017166137695
1629880840788,0.5625392198562622,-0.2408049553632736,-0.2589747905731201,0.7415376305580139
1629880840850,0.5875362157821655,-0.2281646132469177,-0.2626839876174927,0.7739311456680298
1629880840928,0.6356508731842041,-0.2144905179738998,-0.2645072638988495,0.7997260093688965
1629880841053,0.690207839012146,-0.2030000835657119,-0.2637687027454376,0.8249132633209229
1629880841163,0.7263502478599548,-0.197192832827568,-0.2669928669929504,0.848422646522522
1629880841241,0.733495831489563,-0.2011173069477081,-0.2847389280796051,0.8704362511634827
1629880841319,0.7192214131355286,-0.2177698016166687,-0.3204912841320038,0.8938014507293701
1629880841428,0.7008268237113953,-0.2445583790540695,-0.3636789321899414,0.923382580280304
1629880841553,0.6884511709213257,-0.2749688327312469,-0.3949681520462036,0.9572850465774536
1629880841682,0.6847122311592102,-0.3013081848621368,-0.4010250568389892,0.9955282211303712
1629880841776,0.6843746304512024,-0.3167836368083954,-0.3881369829177856,1.0348868370056152
1629880841885,0.6828441619873047,-0.3131799697875976,-0.3716057240962982,1.070730686187744
1629880841947,0.6772683262825012,-0.2780309617519378,-0.3628478944301605,1.0958210229873655
1629880842026,0.6675268411636353,-0.2154713869094848,-0.3653099536895752,1.106337308883667
1629880842135,0.6565706729888916,-0.1509072333574295,-0.3761839866638183,1.10758376121521
1629880842275,0.6428790092468262,-0.1057428792119026,-0.3863494992256164,1.1072688102722168
1629880842338,0.6141756772994995,-0.0856510698795318,-0.3864697217941284,1.1092079877853394
1629880842447,0.5571990013122559,-0.0809481590986251,-0.3721032440662384,1.1103284358978271
1629880842572,0.4710188210010528,-0.0770207643508911,-0.3503303229808807,1.10748028755188
1629880842666,0.3789528012275696,-0.0623852089047431,-0.3308084011077881,1.1032686233520508
1629880842778,0.3162626326084137,-0.0320817083120346,-0.3142547905445099,1.1005539894104004
1629880842887,0.2943753004074096,0.0118194902315735,-0.2949787378311157,1.0977840423583984
1629880842997,0.297865480184555,0.0578842461109161,-0.2693173289299011,1.0905780792236328
1629880843075,0.3187230825424194,0.0943152159452438,-0.2376104742288589,1.07920503616333
1629880843184,0.3471499383449554,0.1178604513406753,-0.2051615566015243,1.064987063407898
1629880843278,0.3754469454288482,0.1335502117872238,-0.1767573207616806,1.046487808227539
1629880843419,0.4089159667491913,0.1448392570018768,-0.1530668437480926,1.0205591917037964
1629880843512,0.4529979526996612,0.1463843584060669,-0.1322198063135147,0.988573431968689
1629880843606,0.5043694376945496,0.1315454989671707,-0.1118805930018425,0.9583368897438048
1629880843700,0.544956624507904,0.102657750248909,-0.0922561362385749,0.9338843822479248
1629880843778,0.563887894153595,0.0708099231123924,-0.0778350606560707,0.9143568277359008
1629880843872,0.566994309425354,0.046855978667736,-0.0731720104813575,0.8994712829589844
1629880843997,0.565678060054779,0.0310669131577014,-0.0820874199271202,0.888156533241272
1629880844090,0.5650774836540222,0.0165066812187433,-0.1044409200549125,0.878473699092865
1629880844200,0.5671773552894592,-0.003314102301374,-0.1349620670080185,0.8687167763710022
1629880844309,0.5728456377983093,-0.0348403491079807,-0.1665594577789306,0.8568707704544067
1629880844418,0.5819253325462341,-0.0852971822023391,-0.1950584203004837,0.8415085077285767
1629880844481,0.5909380316734314,-0.1539428085088729,-0.2212565243244171,0.8223077654838562
1629880844547,0.5930758118629456,-0.2212477326393127,-0.2518579363822937,0.7990925312042236
1629880844687,0.5887109041213989,-0.2577895820140838,-0.2906927168369293,0.7797716856002808
1629880844797,0.5893334150314331,-0.2588918209075928,-0.3353452682495117,0.7834168672561646
1629880844859,0.6037011742591858,-0.2466267347335815,-0.3775164186954498,0.8241124153137207
1629880844984,0.6284770965576172,-0.2337929755449295,-0.4094500541687011,0.8916505575180054
1629880845062,0.6535144448280334,-0.2149563133716583,-0.4292789399623871,0.9620171189308168
1629880845219,0.6770095825195312,-0.1852498352527618,-0.4421838819980621,1.0190623998641968
1629880845297,0.7029714584350586,-0.1507271230220794,-0.4509002566337585,1.0589419603347778
1629880845390,0.7301247715950012,-0.120718777179718,-0.4535569250583648,1.0847973823547363
1629880845484,0.7558887600898743,-0.0976556241512298,-0.4419927299022674,1.102866530418396
1629880845612,0.781112790107727,-0.0810001716017723,-0.4060946404933929,1.1194045543670654
1629880845706,0.8071761131286621,-0.0716394186019897,-0.347943514585495,1.1385204792022705
1629880845784,0.8323859572410583,-0.0692904517054557,-0.2828483283519745,1.1620967388153076
1629880845926,0.8506217002868652,-0.0709928572177887,-0.2263741046190261,1.185173273086548
1629880846052,0.8596898913383484,-0.0759582445025444,-0.1848320662975311,1.2023407220840454
1629880846143,0.8620754480361938,-0.0886241048574447,-0.1536434739828109,1.210754156112671
1629880846238,0.8613119125366211,-0.1147228181362152,-0.1259454637765884,1.2115780115127563
1629880846304,0.8547368049621582,-0.1512443721294403,-0.0990867391228675,1.20646333694458
1629880846425,0.8362426161766052,-0.1838352680206298,-0.0757619962096214,1.1950984001159668
1629880846565,0.8047770261764526,-0.2026586234569549,-0.0595753975212574,1.1784753799438477
1629880846648,0.7651282548904419,-0.2156669646501541,-0.0523587688803672,1.1581166982650757
1629880846710,0.7239171266555786,-0.236676886677742,-0.0531340055167675,1.136465311050415
1629880846820,0.6840904355049133,-0.2693430483341217,-0.0598707646131515,1.115095615386963
1629880846913,0.6473408937454224,-0.3081294596195221,-0.0710668340325355,1.0960960388183594
1629880847038,0.6139542460441589,-0.3493432700634002,-0.086652934551239,1.0797628164291382
1629880847140,0.5822487473487854,-0.3923538029193878,-0.1073777973651886,1.0627548694610596
1629880847265,0.5483218431472778,-0.4323004186153412,-0.1322550922632217,1.0382494926452637
1629880847343,0.5101482272148132,-0.4628138840198517,-0.1563230901956558,1.0038079023361206
1629880847421,0.4756123423576355,-0.4821155369281769,-0.1731960326433181,0.9667568802833556
1629880847530,0.4656642079353332,-0.490864485502243,-0.1833126842975616,0.9376177787780762
1629880847593,0.4925275444984436,-0.4934685826301574,-0.1969848871231079,0.922809898853302
1629880847752,0.5466546416282654,-0.49919393658638,-0.2240311652421951,0.922732949256897
1629880847892,0.6110211610794067,-0.518223762512207,-0.2642379403114319,0.929196834564209
1629880847939,0.6761173605918884,-0.5575401186943054,-0.3084215521812439,0.9329631328582764
1629880848017,0.7321600914001465,-0.6137780547142029,-0.3473363816738128,0.9260032176971436
1629880848126,0.7757734060287476,-0.6716949343681335,-0.3723235428333282,0.9145280122756958
1629880848205,0.8085080981254578,-0.7072567939758301,-0.3773092329502105,0.9143436551094056
1629880848408,0.8363891243934631,-0.6993643045425415,-0.366818368434906,0.9351176023483276
1629880848454,0.8605555295944214,-0.6454125046730042,-0.3514213860034942,0.9639762043952942
1629880848582,0.8784897923469543,-0.5527253746986389,-0.3388752341270447,0.9868393540382384
1629880848647,0.8901156783103943,-0.4396994411945343,-0.3336241841316223,0.9990859031677246
1629880848757,0.9004151821136475,-0.331801027059555,-0.3410497903823852,1.007418155670166
1629880848836,0.9135788083076476,-0.2436919659376144,-0.3669484555721283,1.0142415761947632
1629880848961,0.9310823082923888,-0.1766805499792099,-0.4110379517078399,1.0179824829101562
1629880849054,0.9483264684677124,-0.1267990469932556,-0.4603975713253021,1.017845869064331
1629880849132,0.9621221423149108,-0.0896302312612533,-0.4935470223426819,1.0175483226776123
1629880849273,0.9697264432907104,-0.0644736737012863,-0.4967933893203735,1.0175808668136597
1629880849351,0.9673779010772704,-0.0511669442057609,-0.4702941477298736,1.0134239196777344
1629880849445,0.9510043859481812,-0.0470831170678138,-0.4272359013557434,1.0027987957000732
1629880849585,0.9228167533874512,-0.0485619790852069,-0.3818836808204651,0.9895188212394714
1629880849665,0.8904255032539368,-0.0514486916363239,-0.3479995429515838,0.9759223461151124
1629880849791,0.8620534539222717,-0.0533026605844497,-0.3295753300189972,0.9623678922653198
1629880849869,0.8394220471382141,-0.0534192323684692,-0.3161476552486419,0.9492466449737548
1629880849947,0.8212429285049438,-0.0540289729833602,-0.296570360660553,0.9405747056007384
1629880850072,0.8074103593826294,-0.0602574944496154,-0.2732003927230835,0.9378027319908142
1629880850211,0.7992957234382629,-0.0766128078103065,-0.2539777755737304,0.9383344054222108
1629880850274,0.7940173745155334,-0.10267124325037,-0.2385535836219787,0.9352587461471558
1629880850430,0.7864036560058594,-0.1353424787521362,-0.2186922132968902,0.9259235262870787
1629880850493,0.7696356773376465,-0.1713109463453292,-0.1920298039913177,0.9136877655982972
1629880850586,0.7369633913040161,-0.2085178196430206,-0.1660626828670501,0.9021403789520264
1629880850696,0.6826008558273315,-0.2447575181722641,-0.1475661695003509,0.8896488547325134
1629880850826,0.6060006618499756,-0.2741001546382904,-0.1381775587797165,0.8722458481788635
1629880850889,0.5212609767913818,-0.2920215427875519,-0.1386395394802093,0.8532088398933411
1629880850983,0.4537872672080993,-0.3007958531379699,-0.1488074213266372,0.8378490209579468
1629880851076,0.4190203547477722,-0.3059791922569275,-0.166654348373413,0.8281711339950562
1629880851186,0.4052779674530029,-0.3104874789714813,-0.1882144063711166,0.8220239877700806
1629880851295,0.3937428593635559,-0.3127866089344024,-0.2119588106870651,0.8096752166748047
1629880851404,0.3756112456321716,-0.3121153116226196,-0.2408855557441711,0.781127393245697
1629880851482,0.3574413657188415,-0.3110249042510986,-0.2753070890903473,0.734821081161499
1629880851610,0.3486276268959045,-0.3157294988632202,-0.3079463243484497,0.6779971718788147
1629880851673,0.3480858504772186,-0.3275581300258636,-0.3288270235061645,0.6229874491691589
1629880851813,0.3476036190986633,-0.3352006673812866,-0.3344848155975342,0.583720862865448
1629880851907,0.3435565531253814,-0.3151764869689941,-0.3286169767379761,0.5676833987236023
1629880852032,0.3435061872005462,-0.2600335776805877,-0.3142505884170532,0.576626718044281
1629880852141,0.3553561866283417,-0.1910976320505142,-0.2964179813861847,0.610950231552124
1629880852219,0.3799498379230499,-0.1326877474784851,-0.2836619019508362,0.6628606915473938
1629880852297,0.413341224193573,-0.0937679484486579,-0.279263824224472,0.7192714214324951
1629880852438,0.4542036354541778,-0.0697303339838981,-0.2761453092098236,0.7674729228019714
1629880852532,0.4976967871189117,-0.0526250787079334,-0.2653937041759491,0.8022783398628235
1629880852688,0.536137044429779,-0.0391767099499702,-0.2494187653064727,0.8224393725395203
1629880852816,0.5641647577285767,-0.0312282368540763,-0.2343774735927581,0.8285953402519226
1629880852909,0.5805057287216187,-0.0297978334128856,-0.2234459817409515,0.8226028084754944
1629880852956,0.5884085893630981,-0.0322306863963604,-0.2136615961790084,0.8151251077651978
1629880853003,0.5906031131744385,-0.0309450402855873,-0.2004032433032989,0.8220344185829163
1629880853097,0.5898313522338867,-0.0207210201770067,-0.1811552941799163,0.8555245995521545
1629880853269,0.5852808952331543,-0.0064084199257195,-0.1581694632768631,0.910528600215912
1629880853347,0.5732172727584839,-0.001110057812184,-0.1392201632261276,0.96806401014328
1629880853409,0.5515546202659607,-0.0177317950874567,-0.1350585371255874,1.0137871503829956
1629880853534,0.521462082862854,-0.0609891936182975,-0.1523083299398422,1.0418745279312134
1629880853646,0.4899215698242187,-0.1241370141506195,-0.1844247728586197,1.0535430908203125
1629880853740,0.464359700679779,-0.1925117373466491,-0.21528160572052,1.0535783767700195
1629880853834,0.4499673545360565,-0.2497459650039672,-0.2329346686601638,1.0472592115402222
1629880853943,0.4491382539272308,-0.2876790463924408,-0.239676296710968,1.045125961303711
1629880854053,0.4646621346473694,-0.3074710667133331,-0.2431091368198394,1.05474054813385
1629880854131,0.4921752512454986,-0.3135227262973785,-0.2413588911294937,1.0738122463226318
1629880854224,0.5212017893791199,-0.3105447590351105,-0.2257671803236007,1.0929771661758425
1629880854340,0.5433958172798157,-0.3068508207798004,-0.1900064647197723,1.1081582307815552
1629880854465,0.5551693439483643,-0.3132038712501526,-0.1412698924541473,1.1177396774291992
1629880854574,0.5584192872047424,-0.3411598205566406,-0.0983210727572441,1.1201860904693604
1629880854686,0.5525578856468201,-0.3964671790599823,-0.0758396610617637,1.1101830005645752
1629880854749,0.5366733074188232,-0.468794047832489,-0.0744153708219528,1.0844922065734863
1629880854843,0.5153558850288391,-0.525152325630188,-0.0840707793831825,1.0487995147705078
1629880854936,0.4969660639762878,-0.5369297862052917,-0.0935791060328483,1.0132668018341064
1629880855093,0.4885275959968567,-0.5139349102973938,-0.0966404154896736,0.9874212741851808
