timestamp,TP9,AF7,AF8,TP10
1629880721626,0.7454818487167358,-0.156267836689949,0.3281787037849426,1.0251028537750244
1629880721673,0.7454818487167358,-0.1293196231126785,0.3543975055217743,1.0251028537750244
1629880721798,0.7454818487167358,-0.0788454487919807,0.3543975055217743,1.0251028537750244
1629880721891,0.7454818487167358,-0.0003756955557037,0.3543975055217743,1.0251028537750244
1629880722001,0.7454818487167358,0.084221139550209,0.3543975055217743,1.0251028537750244
1629880722110,0.7454818487167358,0.0990077704191207,0.3543975055217743,1.0251028537750244
1629880722219,0.7454818487167358,0.1065649017691612,0.3532663285732269,1.0748951435089111
1629880722329,1.2242810726165771,0.1065649017691612,0.3312716484069824,1.142829656600952
1629880722407,1.2729060649871826,0.1065649017691612,0.3034080266952514,1.188864827156067
1629880722501,1.2998331785202026,0.1065649017691612,0.2913745641708374,1.24882173538208
1629880722579,1.305325627326965,0.1100321635603904,0.2809917032718658,1.2992130517959597
1629880722725,1.305325627326965,0.1187015399336814,0.2678853869438171,1.3284201622009275
1629880722819,1.32226300239563,0.1242481395602226,0.2713805437088012,1.3323636054992676
1629880722897,1.3391133546829224,0.1272518187761306,0.2730619609355926,1.3333721160888672
1629880723022,1.344159722328186,0.1272518187761306,0.2790570259094238,1.3333721160888672
1629880723100,1.3614000082015991,0.1278158128261566,0.2637042701244354,1.3333721160888672
1629880723225,1.3854199647903442,0.1396104246377945,0.2305599302053451,1.3333721160888672
1629880723319,1.3915785551071167,0.1413997560739517,0.1661720424890518,1.3333721160888672
1629880723428,1.3915785551071167,0.1413224637508392,0.1154699474573135,1.331265926361084
1629880723537,1.3915785551071167,0.1257926076650619,0.0959403067827224,1.331074357032776
1629880723647,1.3915785551071167,0.0475466884672641,0.0899135395884513,1.330127835273743
1629880723716,1.374853491783142,-0.0563378930091857,0.0899135395884513,1.3209030628204346
1629880723810,1.3631248474121094,-0.0630107149481773,0.0899135395884513,1.300333857536316
1629880723904,1.3572176694869995,-0.0630107149481773,0.0696077048778534,1.2876319885253906
1629880724107,1.3401319980621338,-0.0614295043051242,0.048441108316183,1.2803782224655151
1629880724154,1.318302035331726,-0.0432891696691513,0.0107618551701307,1.2684986591339111
1629880724294,1.318302035331726,-0.0267951041460037,-0.0513280257582664,1.2321264743804932
1629880724372,1.318302035331726,-0.0244899541139602,-0.0834624469280242,1.1518014669418335
1629880724419,1.2989649772644043,-0.0284201428294181,-0.1029546409845352,1.013848066329956
1629880724529,1.249134182929993,-0.0648010149598121,-0.1118590533733367,0.9077062606811525
1629880724673,1.249134182929993,-0.0671244487166404,-0.143678680062294,0.9077062606811525
1629880724766,1.249134182929993,-0.0693343803286552,-0.1571840345859527,0.9077062606811525
1629880724844,1.249134182929993,-0.081505499780178,-0.1571840345859527,0.9077062606811525
1629880724938,1.249134182929993,-0.095737375319004,-0.1571840345859527,0.9077062606811525
1629880725032,1.249134182929993,-0.095737375319004,-0.1574829071760177,1.153436541557312
1629880725141,0.8296079635620117,-0.0960414558649063,-0.1439154893159866,1.16005277633667
1629880725266,0.8296079635620117,-0.1200777292251586,-0.1095533445477485,1.1745370626449585
1629880725360,0.8296079635620117,-0.1201081797480583,-0.098634622991085,1.1969865560531616
1629880725500,0.8296079635620117,-0.100932665169239,-0.0941402912139892,1.1979411840438845
1629880725547,0.8296079635620117,-0.0586651563644409,-0.094606265425682,1.1979411840438845
1629880725657,0.8296079635620117,-0.033367745578289,-0.094606265425682,1.1979411840438845
1629880725768,0.8296079635620117,-0.0171548370271921,-0.081308513879776,1.2003840208053589
1629880725925,0.8296079635620117,-0.0115524316206574,-0.0600172840058803,1.2308865785598757
1629880725971,0.8296079635620117,-0.0050909360870718,0.0266207102686166,1.238536357879639
1629880726065,0.8296079635620117,0.0018106478964909,0.1029339879751205,1.238536357879639
1629880726143,0.8296079635620117,0.019565412774682,0.1415170431137085,1.238536357879639
1629880726253,0.8296079635620117,0.0365088060498237,0.1648689359426498,1.2321001291275024
1629880726346,0.8004117608070374,0.0495726466178894,0.1714346706867218,1.2201718091964722
1629880726489,0.6963528394699097,0.1023984178900718,0.1714346706867218,1.2038840055465698
1629880726576,0.6963528394699097,0.1221904084086418,0.1714346706867218,1.195203423500061
1629880726685,0.6963528394699097,0.1227261945605278,0.1714346706867218,1.195203423500061
1629880726813,0.6963528394699097,0.1229366734623909,0.1675913482904434,1.195203423500061
1629880726904,0.6963528394699097,0.1276037693023681,0.146599531173706,1.1867210865020752
1629880726952,0.6963528394699097,0.1402845382690429,0.1270864605903625,1.1421159505844116
1629880727122,0.6963528394699097,0.1448591500520706,0.1257975101470947,1.061016321182251
1629880727183,0.6963528394699097,0.1508848965167999,0.1257975101470947,1.0058131217956543
1629880727282,0.6963528394699097,0.1518425047397613,0.1268944144248962,1.0058131217956543
1629880727420,0.6963528394699097,0.1301015317440033,0.1328412145376205,1.0058131217956543
1629880727483,0.6963528394699097,0.1046527847647667,0.1328412145376205,1.0058131217956543
1629880727529,0.6963528394699097,0.0798171386122703,0.1328412145376205,1.0058131217956543
1629880727742,0.6963528394699097,0.062248982489109,0.1069455668330192,1.0058131217956543
1629880727805,0.6963528394699097,0.0630215480923652,0.0106702102348208,1.0058131217956543
1629880727885,0.6963528394699097,0.065135583281517,-0.0268720928579568,1.0058131217956543
1629880727960,0.6963528394699097,0.0612543858587741,-0.0450289361178875,1.0058131217956543
1629880728071,0.6963528394699097,0.0359091497957706,-0.0460822768509388,1.0058131217956543
1629880728167,0.2922933399677276,0.0018459379207342,-0.0497782975435256,0.9497532248497008
1629880728353,0.3712410926818847,-0.0196931045502424,-0.0530322976410388,0.9838908910751344
1629880728403,0.4197706580162048,-0.0542217791080474,-0.0517769902944564,0.9857994914054872
1629880728497,0.4346334636211395,-0.076218344271183,-0.0508781187236309,0.9857994914054872
1629880728640,0.4427782297134399,-0.0867330580949783,-0.0421018898487091,0.9857994914054872
1629880728700,0.4524446725845337,-0.1054329946637153,0.0021276441402733,0.9909557104110718
1629880728795,0.4582302570343017,-0.1224652528762817,0.0655709207057952,0.9909557104110718
1629880728941,0.4594953954219818,-0.1625140607357025,0.0908675789833068,0.9909557104110718
1629880729003,0.4594953954219818,-0.1849167346954345,0.0603920966386795,0.9909557104110718
1629880729097,0.4594953954219818,-0.1849167346954345,0.0484538227319717,0.9909557104110718
1629880729191,0.4594953954219818,-0.1835416853427887,0.0517794303596019,0.9909557104110718
1629880729302,0.4594953954219818,-0.1549780815839767,0.05784847214818,0.9909557104110718
1629880729382,0.438770592212677,-0.0668465197086334,0.0570062845945358,0.9886554479599
1629880729542,0.4275576472282409,-0.0129333958029747,0.053565215319395,0.9820213913917542
1629880729655,0.425148457288742,-0.009866545908153,0.053565215319395,0.9788971543312072
1629880729748,0.4184328317642212,-0.0216541271656751,0.0505029335618019,0.9300784468650818
1629880729812,0.3654658794403076,-0.0475351959466934,0.0428307689726352,0.8901649117469788
1629880729939,0.2863448858261108,-0.0540306158363819,0.0403789170086383,0.8645963072776794
1629880730017,0.200733870267868,-0.0558596961200237,0.0397567376494407,0.863052487373352
1629880730155,0.1074088141322135,-0.0499357804656028,0.0397567376494407,0.863052487373352
1629880730233,0.1074088141322135,-0.0485835336148738,0.0397567376494407,0.863052487373352
1629880730296,0.1074088141322135,-0.0466848015785217,0.0472578518092632,0.863052487373352
1629880730436,0.1074088141322135,-0.0473091788589954,-0.0052060168236494,0.863052487373352
1629880730514,0.1074088141322135,-0.0421351194381713,-0.0926647931337356,0.863052487373352
1629880730577,0.8067076206207275,-0.039851389825344,-0.0790111646056175,0.863052487373352
1629880730751,0.8113933801651001,-0.039851389825344,-0.0704545527696609,1.2256269454956057
1629880730845,0.8113933801651001,-0.039851389825344,-0.072453074157238,1.2291163206100464
1629880730923,0.8113933801651001,-0.0491950698196888,-0.0735653862357139,1.262729525566101
1629880731032,0.8113933801651001,-0.0728276297450065,-0.0611687824130058,1.296889305114746
1629880731126,0.8138734102249146,-0.1392775923013687,-0.0342695228755474,1.3106029033660889
1629880731204,0.8171040415763855,-0.2011659145355224,-0.0151159493252635,1.358102798461914
1629880731376,0.819481372833252,-0.2046772092580795,-0.0046949433162808,1.412647724151611
1629880731439,0.819481372833252,-0.15177783370018,0.0112201599404215,1.430397629737854
1629880731564,0.8282136917114258,-0.1326502561569214,0.0112201599404215,1.430397629737854
1629880731626,0.8555728197097778,-0.1367610543966293,0.0112201599404215,1.430397629737854
1629880731769,0.8775379061698914,-0.1475471705198288,0.0162342935800552,1.430397629737854
1629880731847,0.8538229465484619,-0.1632741540670395,0.022427188232541,1.430397629737854
1629880731988,0.8337225914001465,-0.1747847199440002,0.0287253148853778,1.4267611503601074
1629880732097,0.8334010243415833,-0.1426640897989273,0.0274720806628465,1.4267611503601074
1629880732160,0.8300613164901733,-0.1299650371074676,0.0249749831855297,1.4267611503601074
1629880732241,0.819701075553894,-0.1399699300527572,0.0218077823519706,1.4202899932861328
1629880732338,0.814542829990387,-0.144049197435379,0.0296074971556663,1.4140689373016355
1629880732447,0.814542829990387,-0.1221391707658767,0.043305791914463,1.4138864278793335
1629880732635,0.8975192308425903,-0.1110294982790947,0.0595611035823822,1.4138864278793335
1629880732714,0.8975192308425903,-0.1044759303331375,0.0756501331925392,1.401206374168396
1629880732778,0.8975192308425903,-0.1026207208633422,0.0840872600674629,1.3719496726989746
1629880732872,0.8928894400596619,-0.0867471396923065,0.1042188927531242,1.3376376628875732
1629880732982,0.8888719081878662,-0.0706923604011535,0.1122479140758514,1.278663992881775
1629880733075,0.9078582525253296,-0.0753296241164207,0.1154882162809372,1.219724416732788
1629880733200,0.905369997024536,-0.0861218646168708,0.1160675808787345,1.1399292945861816
1629880733278,0.8638858199119568,-0.0851864963769912,0.1163175478577613,1.1094720363616943
1629880733388,0.735529899597168,-0.0770367011427879,0.1163175478577613,1.1094720363616943
1629880733497,0.735529899597168,-0.0770367011427879,0.1163175478577613,1.1094720363616943
1629880733575,0.735529899597168,-0.0734395608305931,0.1163175478577613,1.1094720363616943
1629880733731,0.735529899597168,-0.0779685601592063,0.1163175478577613,1.1094720363616943
1629880733796,0.735529899597168,-0.091257095336914,0.1156709343194961,1.1094720363616943
1629880733875,0.735529899597168,-0.0890566483139991,0.1432995349168777,1.1094720363616943
1629880734015,0.735529899597168,-0.0525828227400779,0.1646112650632858,1.1094720363616943
1629880734078,0.6925576329231262,-0.0461549125611782,0.1585959196090698,1.1094720363616943
1629880734203,0.6589207053184509,-0.0185997765511274,0.1221517249941825,1.1094720363616943
1629880734265,0.6589207053184509,0.0415308475494384,0.1168635413050651,1.1094720363616943
1629880734421,0.6589207053184509,0.0888039842247963,0.1309887617826461,1.1094720363616943
1629880734548,0.6589207053184509,0.1025260910391807,0.1309887617826461,1.1094720363616943
1629880734642,0.6589207053184509,0.0977459996938705,0.1273902356624603,1.1094720363616943
1629880734720,0.6589207053184509,0.0885170623660087,0.1211397871375083,1.1094720363616943
1629880734798,0.9487380385398864,0.0875027552247047,0.117556944489479,1.2024592161178589
1629880734939,1.0187585353851318,0.1196063831448555,0.1090126112103462,1.2367974519729614
1629880735017,1.109493851661682,0.1580563336610794,0.0922070071101188,1.2367974519729614
1629880735111,1.163347601890564,0.1894442737102508,0.0953579545021057,1.2367974519729614
1629880735220,1.1670293807983398,0.206164002418518,0.1257420033216476,1.2367974519729614
1629880735298,1.1670293807983398,0.226009726524353,0.1409795731306076,1.2389376163482666
1629880735392,1.1696410179138184,0.2345159947872162,0.1382569223642349,1.2510744333267212
1629880735486,1.1756378412246704,0.2384875565767288,0.1024852097034454,1.2908459901809692
1629880735665,1.1865369081497192,0.2219186574220657,0.0709741562604904,1.313605785369873
1629880735712,1.1931531429290771,0.2060368657112121,0.0513586811721324,1.336982488632202
1629880735821,1.1931531429290771,0.1958426684141159,0.026706613600254,1.3553688526153564
1629880735915,1.1931531429290771,0.1918067634105682,-0.0160994920879602,1.372630000114441
1629880736008,1.1787878274917605,0.1903458833694458,-0.0680272951722145,1.3703089952468872
1629880736110,1.173486828804016,0.1895005255937576,-0.0509778149425983,1.3682594299316406
1629880736242,1.1707016229629517,0.1842530071735382,0.0121836075559258,1.3665767908096311
1629880736344,1.1698397397994995,0.1687691807746887,0.0761047154664993,1.3541110754013062
1629880736425,1.1721686124801636,0.1672279238700866,0.1321336030960083,1.3194090127944946
1629880736492,1.1721686124801636,0.1643299013376236,0.1436478048563003,1.2763850688934326
1629880736639,1.1606734991073608,0.1630431115627288,0.1412458419799804,1.2469784021377563
1629880736709,1.1180988550186155,0.1448769867420196,0.1247971281409263,1.2240296602249146
1629880736842,1.1000059843063354,0.1130221784114837,0.0932780653238296,1.2068504095077517
1629880736952,1.1000059843063354,0.084893874824047,0.0850365981459617,1.2046877145767212
1629880737061,1.096576690673828,0.066534087061882,0.0869043469429016,1.197799563407898
1629880737123,1.095776081085205,0.0412205979228019,0.0921269357204437,1.1947325468063354
1629880737208,1.1084809303283691,0.1180424615740776,0.1074358522891998,1.2369931936264038
1629880737324,1.0916588306427002,0.1977439373731613,0.1451067477464676,1.2636395692825315
1629880737496,1.088834285736084,0.2267513126134872,0.1800436973571777,1.2768806219100952
1629880737557,1.102349877357483,0.2359731495380401,0.2084117382764816,1.279504656791687
1629880737658,1.111288070678711,0.2374300062656402,0.2214095592498779,1.2787559032440186
1629880737752,1.1180990934371948,0.2374300062656402,0.2090633362531662,1.2712218761444092
1629880737832,1.1136068105697632,0.2374300062656402,0.2234332859516143,1.2712218761444092
1629880737954,1.1011583805084229,0.2374300062656402,0.2240005582571029,1.2712218761444092
1629880738077,1.0994112491607666,0.2374300062656402,0.1915114521980285,1.2736754417419434
1629880738236,1.0994112491607666,0.2374300062656402,0.1414910852909088,1.2724595069885254
1629880738293,1.0994112491607666,0.24107426404953,0.1060527190566062,1.2581363916397097
1629880738340,1.112435817718506,0.2570638656616211,0.1006195917725563,1.2576229572296145
1629880738433,1.1379475593566897,0.2656984031200409,0.1006195917725563,1.2576229572296145
1629880738556,1.1543419361114502,0.266867458820343,0.1072815805673599,1.2530134916305542
1629880738681,1.149477481842041,0.2664652168750763,0.1180648505687713,1.2530134916305542
1629880738774,1.1490024328231812,0.2585677206516266,0.1180648505687713,1.2473509311676023
1629880738852,1.1391417980194092,0.2389770895242691,0.117330364882946,1.2350897789001465
1629880739009,1.1157606840133667,0.2318535149097442,0.117330364882946,1.2198268175125122
1629880739071,1.086692452430725,0.2095112651586532,0.117330364882946,1.1771581172943115
1629880739165,1.0616182088851929,0.1693914532661438,0.1042080670595169,1.129737377166748
1629880739279,1.0366154909133911,0.1219276040792465,0.0651195794343948,1.0816570520401
1629880739388,1.012439250946045,0.0662792026996612,0.0003018901625182,1.0648014545440674
1629880739497,0.993090569972992,0.0418557189404964,-0.0603346563875675,1.0640478134155271
1629880739575,0.9824549555778505,0.0590031892061233,-0.0716018676757812,1.0693366527557373
1629880739638,0.9722956418991088,0.0829840898513794,-0.0446284376084804,1.0648986101150513
1629880739796,0.9662983417510986,0.0986740440130233,0.0064788106828927,1.0611867904663086
1629880739953,0.9662983417510986,0.1188339591026306,0.0402220971882343,1.063795804977417
1629880739999,0.9650525450706482,0.1370700150728225,0.0465616956353187,1.076130986213684
1629880740064,0.958054780960083,0.1483729779720306,0.0510199256241321,1.074675679206848
1629880740170,0.912584900856018,0.1471247524023056,0.0510199256241321,1.0664827823638916
1629880740281,0.8332170248031616,0.1445782482624054,0.0510199256241321,1.0551490783691406
1629880740359,0.7459418177604675,0.1424789875745773,0.0510199256241321,1.0392165184020996
1629880740531,0.6819029450416565,0.1377769410610199,0.0510199256241321,0.998839259147644
1629880740639,0.6978211402893066,0.1309524923563003,0.0510199256241321,0.966922640800476
1629880740702,0.7774363160133362,0.1226254552602768,0.0510199256241321,0.992377519607544
1629880740779,0.8689733743667603,0.1109857261180877,0.0436988845467567,1.0966005325317385
1629880740921,0.9293360710144044,0.0983001887798309,0.0196874178946018,1.188576579093933
1629880740968,0.9508789777755736,0.0854607447981834,-0.0038983456324785,1.2123783826828003
1629880741140,0.9508789777755736,0.0815279558300972,-0.008317245170474,1.2113676071166992
1629880741234,0.9508789777755736,0.0547766201198101,-0.0096513433381915,1.2145919799804688
1629880741296,0.9508789777755736,0.0286279860883951,-0.0201975610107183,1.2170090675354004
1629880741406,0.9508789777755736,0.0283523648977279,-0.0523766502737998,1.217471957206726
1629880741499,0.9569562077522278,0.0053299884311854,-0.0816414654254913,1.2072564363479614
1629880741580,0.9717722535133362,-0.0325392745435237,-0.1040164083242416,1.2072564363479614
1629880741721,0.996022641658783,-0.0887694433331489,-0.1310793310403823,1.2054425477981567
1629880741830,1.0143723487854004,-0.0939485281705856,-0.157610610127449,1.2023333311080933
1629880741940,1.0187921524047852,-0.0936425551772117,-0.1893916130065918,1.1999887228012085
1629880742002,1.0239614248275757,-0.0936425551772117,-0.1907414495944976,1.1999887228012085
1629880742127,1.044914484024048,-0.0936425551772117,-0.190430536866188,1.1999887228012085
1629880742221,1.0834964513778689,-0.0873281359672546,-0.1882051676511764,1.1999887228012085
1629880742377,1.0869187116622925,-0.0895169004797935,-0.1872604936361313,1.1999887228012085
1629880742424,1.0762044191360474,-0.0963658466935157,-0.1806698441505432,1.1699271202087402
1629880742533,1.0762044191360474,-0.1194266900420188,-0.1743710041046142,1.0956639051437378
1629880742599,1.0762044191360474,-0.1230659335851669,-0.1566096246242523,1.003928542137146
1629880742692,1.0762044191360474,-0.1265362650156021,-0.1143165230751037,0.9517176747322084
1629880742802,1.0762044191360474,-0.1429886370897293,-0.0908071547746658,0.9415687918663024
1629880742958,1.0762044191360474,-0.1470107436180114,-0.0898146778345108,0.9179795384407043
1629880743052,1.0762044191360474,-0.1250530481338501,-0.0898146778345108,0.8960748314857483
1629880743145,1.067694902420044,-0.104928620159626,-0.0898146778345108,0.8988386392593384
1629880743239,1.0441277027130127,-0.0929652601480484,-0.0898146778345108,0.9317759871482848
1629880743317,0.9955511093139648,-0.0776276215910911,-0.0968006402254104,1.029660701751709
1629880743427,0.9593191146850586,-0.0308021884411573,-0.0981501936912536,1.1665610074996948
1629880743551,0.967580258846283,-0.004561279900372,-0.0989627689123153,1.2680583000183103
1629880743679,0.9491839408874512,0.0201408807188272,-0.0869186744093895,1.3081163167953491
1629880743742,0.9591091871261596,0.1056530773639679,-0.0778812021017074,1.3458049297332764
1629880743820,0.9923818707466124,0.1561726331710815,-0.074437141418457,1.3663153648376465
1629880743976,1.014540672302246,0.1741945594549179,-0.0709307938814163,1.3747003078460691
1629880744023,1.0154322385787964,0.1753821969032287,-0.0764492377638816,1.3781157732009888
1629880744148,1.0154322385787964,0.1753821969032287,-0.0764492377638816,1.3767240047454834
1629880744257,1.0154322385787964,0.1753821969032287,-0.0764492377638816,1.3869746923446655
1629880744351,1.032604098320007,0.1753821969032287,-0.0828742086887359,1.388031005859375
1629880744445,1.0930613279342651,0.1753821969032287,-0.0772366151213646,1.388031005859375
1629880744539,1.147152066230774,0.1763638705015182,-0.0724330097436904,1.388031005859375
1629880744617,1.1668606996536257,0.1764480620622635,-0.0724330097436904,1.388031005859375
1629880744773,1.1668606996536257,0.1771620064973831,-0.0719589665532112,1.388031005859375
1629880744914,1.1668606996536257,0.1848805099725723,-0.0622865371406078,1.388031005859375
1629880744960,1.1668606996536257,0.1951175779104232,-0.0533856488764286,1.388031005859375
1629880745065,1.1668606996536257,0.1974541544914245,-0.0633458495140075,1.3782790899276731
1629880745146,1.166316032409668,0.1822161823511123,-0.002641343511641,1.3179107904434204
1629880745284,1.159433364868164,0.1743384301662445,0.0155871268361806,1.2516326904296875
1629880745378,1.155014157295227,0.1378068327903747,0.0044998996891081,1.174052357673645
1629880745503,1.1438846588134766,0.0826611071825027,-0.0148389562964439,1.1018880605697632
1629880745609,1.1119495630264282,0.098405621945858,-0.025586387142539,1.071879744529724
1629880745687,1.078198790550232,0.1558172702789306,-0.0250867996364831,1.0701457262039185
1629880745799,1.0407285690307615,0.1812705248594284,0.0109108779579401,1.0646477937698364
1629880745846,1.011874794960022,0.1812705248594284,0.0698040872812271,1.045014262199402
1629880746002,0.9859687089920044,0.1812705248594284,0.0921341106295585,1.0360264778137207
1629880746080,0.956780731678009,0.1812705248594284,0.088184505701065,1.0309299230575562
1629880746222,0.9243995547294616,0.1909397542476654,0.085889957845211,1.0252310037612915
1629880746268,0.8481149077415466,0.2054229825735092,0.0858418941497802,0.9929117560386658
1629880746361,0.7982136011123657,0.223859816789627,0.0894083678722381,0.9425688982009888
1629880746455,0.7982136011123657,0.252082496881485,0.0869819298386573,0.92527574300766
1629880746590,0.8029425144195557,0.2771849334239959,0.0645020902156829,0.917255699634552
1629880746700,0.7987039685249329,0.2863943576812744,0.0466228350996971,0.9328123331069946
1629880746809,0.7999822497367859,0.2821050584316253,0.0381823405623436,0.9715396165847778
1629880746888,0.7968937754631042,0.2791352272033691,0.0444249175488948,1.0773439407348633
1629880747022,0.7971293926239014,0.2802988290786743,0.0494114719331264,1.1242010593414309
1629880747059,0.8151035308837891,0.2736370861530304,0.0499543845653533,1.1242010593414309
1629880747184,0.8694484233856201,0.2582550644874573,0.0508770644664764,1.124752402305603
1629880747296,0.8979262709617615,0.2131430357694625,0.0488368533551692,1.1888031959533691
1629880747386,0.9013263583183287,0.1490708142518997,0.0424978919327259,1.247713923454285
1629880747467,0.906271755695343,0.1165784671902656,0.0296007990837097,1.2557896375656128
1629880747562,0.9310731887817384,0.1124415844678878,-0.0117770191282033,1.2557896375656128
1629880747685,0.9455939531326294,0.1214404255151748,-0.0875600799918174,1.2557896375656128
1629880747824,0.9390627145767212,0.1214404255151748,-0.1274488419294357,1.2557896375656128
1629880747933,0.93533194065094,0.1312429010868072,-0.1370513886213302,1.2557896375656128
1629880747996,0.9335799813270568,0.1383543461561203,-0.1385210752487182,1.2557896375656128
1629880748091,0.9335799813270568,0.1458600908517837,-0.1630621403455734,1.2557896375656128
1629880748170,0.93221914768219,0.1543487012386322,-0.1485123485326767,1.25435209274292
1629880748319,0.9200825691223145,0.1716302037239074,-0.1173041239380836,1.2520756721496582
1629880748430,0.8916344046592712,0.192894697189331,-0.09872717410326,1.2337599992752075
1629880748509,0.9284190535545348,0.1990464180707931,-0.0934899523854255,1.21379292011261
1629880748618,0.9697954654693604,0.1963332444429397,-0.0737088099122047,1.215801477432251
1629880748729,0.980754554271698,0.2034518420696258,0.0086241802200675,1.215801477432251
1629880748835,0.9579200148582458,0.1956485509872436,0.035947348922491,1.2221935987472534
1629880748900,0.9455332159996032,0.1853468865156173,0.0320709086954593,1.2329665422439575
1629880749070,0.968830704689026,0.1744686812162399,0.0314408764243125,1.2209763526916504
1629880749116,1.0019148588180542,0.1676715910434723,0.0314408764243125,1.2887029647827148
1629880749257,1.0648616552352903,0.167325884103775,0.0314408764243125,1.293919563293457
1629880749352,1.1574985980987549,0.167325884103775,0.0314408764243125,1.293919563293457
1629880749398,1.2297929525375366,0.167325884103775,0.0314408764243125,1.293919563293457
1629880749489,1.2429651021957395,0.167325884103775,0.0314408764243125,1.293919563293457
1629880749639,1.2429651021957395,0.167325884103775,0.0304425880312919,1.293919563293457
1629880749780,1.2429651021957395,0.167325884103775,0.0288930293172597,1.2943809032440186
1629880749826,1.2429651021957395,0.167325884103775,0.0216249134391546,1.2943809032440186
1629880749951,1.2429651021957395,0.1764833778142929,0.0182007979601621,1.2943809032440186
1629880750061,1.2429651021957395,0.1745355427265167,0.024846950545907,1.283007025718689
1629880750139,1.2429651021957395,0.1898840367794037,0.0305928327143192,1.259406566619873
1629880750265,1.2429651021957395,0.2009738832712173,0.002234031446278,1.240406155586243
1629880750358,1.2429651021957395,0.1927160024642944,-0.0820366442203521,1.240406155586243
1629880750421,1.2429651021957395,0.1864378601312637,-0.1691709607839584,1.236936330795288
1629880750530,1.2429651021957395,0.1864378601312637,-0.2439158260822296,1.2080543041229248
1629880750642,1.2429651021957395,0.1864378601312637,-0.2308346182107925,1.151991844177246
1629880750751,1.2429651021957395,0.1864378601312637,-0.1951032727956771,1.095301866531372
1629880750861,1.2412021160125732,0.1864378601312637,-0.1778519749641418,1.01399028301239
1629880750939,1.1951117515563965,0.2119236141443252,-0.171882688999176,0.9567602276802064
1629880751064,1.0534032583236694,0.2665744125843048,-0.1647032648324966,0.9392009377479552
1629880751126,0.900806486606598,0.2874344885349273,-0.1647032648324966,0.9200586676597596
1629880751238,0.8065611720085144,0.2669314444065094,-0.1635194420814514,0.8779955506324768
1629880751338,0.7540724277496338,0.2420097887516021,-0.1644162237644195,0.852952241897583
1629880751463,0.7076311707496643,0.2374194264411926,-0.1644162237644195,0.914990484714508
1629880751574,0.6841111779212952,0.2224801778793335,-0.1644162237644195,0.9909902215003968
1629880751700,0.6881426572799683,0.1989721655845642,-0.1644162237644195,0.9975956678390504
1629880751794,0.7584484219551086,0.186069905757904,-0.167550042271614,0.9994173645973206
1629880751841,0.7846685647964478,0.1832038760185241,-0.167550042271614,0.9998319149017334
1629880751997,0.7846685647964478,0.1952321678400039,-0.1841835379600525,0.9998319149017334
1629880752106,0.7846685647964478,0.2115283012390136,-0.225769966840744,0.9796113967895508
1629880752184,0.7846685647964478,0.2282967716455459,-0.2312197983264923,0.9543843269348145
1629880752247,0.7846685647964478,0.2660630643367767,-0.2239043861627578,0.939666748046875
1629880752356,0.7846685647964478,0.3312204778194427,-0.217715173959732,0.9394781589508056
1629880752465,0.7846685647964478,0.3909428417682647,-0.2320170998573303,0.9394781589508056
1629880752558,0.7824532985687256,0.4087525308132171,-0.2298628091812133,0.9394781589508056
1629880752685,0.7704012393951416,0.3970733284950256,-0.2302079051733017,0.9287900924682616
1629880752779,0.770237147808075,0.372166246175766,-0.219867542386055,0.9287900924682616
1629880752888,0.770237147808075,0.3557661771774292,-0.2060654014348983,0.9185699820518494
1629880753013,0.7611486911773682,0.3557661771774292,-0.199497252702713,0.9133663773536682
1629880753107,0.7611486911773682,0.3557661771774292,-0.199497252702713,0.89427250623703
1629880753169,0.7611486911773682,0.3557661771774292,-0.199497252702713,0.89427250623703
1629880753294,0.7611486911773682,0.3557661771774292,-0.199497252702713,0.89427250623703
1629880753419,0.7611486911773682,0.3597325086593628,-0.1967365890741348,0.89427250623703
1629880753482,0.7611486911773682,0.368027001619339,-0.2110887616872787,0.89427250623703
1629880753560,0.7611486911773682,0.3694467842578888,-0.2371242344379425,0.89427250623703
1629880753672,0.7611486911773682,0.3694467842578888,-0.224807322025299,0.89427250623703
1629880753781,0.7611486911773682,0.3694467842578888,-0.2044274508953094,0.89427250623703
1629880753906,0.7611486911773682,0.3613437712192535,-0.1215476617217063,0.89427250623703
1629880754047,0.7611486911773682,0.2954727709293365,-0.0512382686138153,0.89427250623703
1629880754094,0.7611486911773682,0.1589738428592682,-0.0061333021149039,0.89427250623703
1629880754172,0.7611486911773682,-0.0122713586315512,0.0595486126840114,0.89427250623703
1629880754295,0.7611486911773682,-0.1019718423485755,0.1167129576206207,0.89427250623703
1629880754404,0.7611486911773682,-0.1111225932836532,0.1298143714666366,0.89427250623703
1629880754513,0.7611486911773682,-0.0825355350971221,0.1306793540716171,0.89427250623703
1629880754607,0.7611486911773682,-0.0156980138272047,0.1491573601961136,0.89427250623703
1629880754720,0.7611486911773682,0.0701731368899345,0.1675798594951629,0.89427250623703
1629880754829,0.7611486911773682,0.1286262720823288,0.1906124353408813,0.89427250623703
1629880754892,0.7611486911773682,0.156474307179451,0.2057850807905197,0.89427250623703
1629880754970,0.7611486911773682,0.1656864881515503,0.2100265473127365,0.89427250623703
1629880755126,0.7611486911773682,0.1986715793609619,0.1987991333007812,0.89427250623703
1629880755204,0.7611486911773682,0.256044864654541,0.1815634965896606,0.958718478679657
1629880755298,0.7611486911773682,0.2737984359264374,0.1830376088619232,0.9950104355812072
1629880755407,0.7611486911773682,0.2698151767253876,0.1830376088619232,0.9989057779312134
1629880755532,0.7611486911773682,0.2649197876453399,0.1830376088619232,0.9989057779312134
1629880755610,0.7611486911773682,0.2649197876453399,0.1741457730531692,0.9989057779312134
1629880755722,0.7611486911773682,0.2649197876453399,0.1508098989725113,0.9989057779312134
1629880755862,0.7611486911773682,0.2649197876453399,0.1399953812360763,0.9995080828666688
1629880755940,0.7611486911773682,0.2649197876453399,0.1304134577512741,1.0010303258895874
1629880756050,0.7611486911773682,0.2649197876453399,0.140661284327507,1.0010303258895874
1629880756143,0.7611486911773682,0.2654053866863251,0.1518502086400985,1.0032649040222168
1629880756253,0.7611486911773682,0.2750089764595032,0.1604264378547668,1.0073260068893433
1629880756393,0.7611486911773682,0.2878682017326355,0.1641454249620437,1.02516770362854
1629880756456,0.7611486911773682,0.2897916138172149,0.1692619323730468,1.038490653038025
1629880756567,0.7611486911773682,0.2691028714179992,0.1712495535612106,1.0329588651657104
1629880756609,0.7611486911773682,0.2252198010683059,0.1755967289209365,1.01393723487854
1629880756733,0.7611486911773682,0.1923508495092392,0.1619911938905716,0.9958328008651732
1629880756848,0.7611486911773682,0.1495047509670257,0.1585500389337539,0.9651764631271362
1629880756957,0.7611486911773682,0.1011761054396629,0.1525817215442657,0.8798162937164307
1629880757035,0.7611486911773682,0.0587989948689937,0.1456822752952575,0.8097832798957825
1629880757160,0.7611486911773682,0.0200279131531715,0.1418241709470749,0.7724243402481079
1629880757254,0.7611486911773682,-0.02353211119771,0.1314725428819656,0.7620317935943604
1629880757316,0.7611486911773682,-0.0494349226355552,0.1501095741987228,0.7285957336425781
1629880757426,0.7611486911773682,-0.0506414696574211,0.1689264476299286,0.7285957336425781
1629880757554,0.7611486911773682,-0.0386481620371341,0.1604318767786026,0.7092138528823853
1629880757694,0.7611486911773682,0.0028690206818282,0.1387492269277572,0.7092138528823853
1629880757772,0.7611486911773682,0.0880803018808364,0.1186966821551323,0.7092138528823853
1629880757897,0.7611486911773682,0.1134764924645423,0.110520601272583,0.7092138528823853
1629880757960,0.7611486911773682,0.1052660122513771,0.1323762089014053,0.7092138528823853
1629880758038,0.7611486911773682,0.1037888452410698,0.1359819918870926,0.7092138528823853
1629880758163,0.7611486911773682,0.1037888452410698,0.1359819918870926,0.7092138528823853
1629880758288,0.7611486911773682,0.1051340699195861,0.1242454946041107,0.7092138528823853
1629880758413,0.7611486911773682,0.1051340699195861,0.1066935956478118,0.8586350679397583
1629880758475,0.7611486911773682,0.1051340699195861,0.1038059815764427,0.8594422340393066
1629880758538,0.7611486911773682,0.1060812026262283,0.1188056468963623,0.8594422340393066
1629880758678,0.7611486911773682,0.1290979087352752,0.1390863507986068,0.8594422340393066
1629880758806,0.7611486911773682,0.1384937018156051,0.147847831249237,0.8594422340393066
1629880758884,0.7611486911773682,0.1276676803827285,0.1376781910657882,0.8594422340393066
1629880758993,0.7611486911773682,0.1067802086472511,0.1313664317131042,0.8594422340393066
1629880759087,0.7611486911773682,0.1067802086472511,0.10920100659132,0.8594422340393066
1629880759150,0.7611486911773682,0.1067802086472511,0.0970949381589889,0.8594422340393066
1629880759243,0.7611486911773682,0.1054297238588333,0.0956392660737037,0.8594422340393066
1629880759415,0.7611486911773682,0.0956482216715812,0.0956392660737037,0.8594422340393066
1629880759478,0.7611486911773682,0.0880960896611213,0.098116934299469,0.8594422340393066
1629880759589,0.7611486911773682,0.1677823811769485,0.172864481806755,1.0242136716842651
1629880759714,0.7611486911773682,0.2303362637758255,0.2863122522830963,1.1114249229431152
1629880759792,0.7611486911773682,0.2435643374919891,0.3561542928218841,1.1549826860427856
1629880759870,0.7611486911773682,0.2435328662395477,0.3699855804443359,1.1658905744552612
1629880760027,0.7611486911773682,0.2435328662395477,0.3711310923099518,1.167098879814148
1629880760089,0.7611486911773682,0.2435328662395477,0.3711310923099518,1.167098879814148
1629880760198,0.9556913375854492,0.2407017648220062,0.3678877353668213,1.167098879814148
1629880760292,0.9712802171707152,0.2273002117872238,0.3542178869247436,1.167098879814148
1629880760370,0.9712802171707152,0.200196161866188,0.3247607946395874,1.167098879814148
1629880760480,0.9712802171707152,0.1586711704730987,0.3026030659675598,1.167098879814148
1629880760622,0.9712802171707152,0.2167151570320129,0.30069699883461,1.167098879814148
1629880760685,0.9712802171707152,0.3076421022415161,0.2999080121517181,1.167098879814148
1629880760794,0.9712802171707152,0.3480615019798279,0.2999080121517181,1.167098879814148
1629880760919,0.9712802171707152,0.3550641238689422,0.2995272874832153,1.167098879814148
1629880761013,0.9712802171707152,0.3561038672924042,0.2926855087280273,1.167098879814148
1629880761122,0.9712802171707152,0.3584490716457367,0.290257841348648,1.1476987600326538
1629880761247,0.9712802171707152,0.3576011657714844,0.2867594361305237,1.1476987600326538
1629880761310,0.9712802171707152,0.3406493365764618,0.2727444767951965,1.1476987600326538
1629880761403,1.1227495670318604,0.3234100639820099,0.1960104405879974,1.1476987600326538
1629880761513,1.1249016523361206,0.3234100639820099,0.0316636860370636,1.1476987600326538
1629880761623,1.1410709619522097,0.3234100639820099,-0.1326617151498794,1.1476987600326538
1629880761720,1.1154614686965942,0.3234100639820099,-0.2081165611743927,1.1476987600326538
1629880761860,1.0411967039108276,0.3234100639820099,-0.1989345848560333,1.1476987600326538
1629880761938,1.0411967039108276,0.3234100639820099,-0.2144540548324585,1.1476987600326538
1629880762063,1.041879653930664,0.3234100639820099,-0.2144540548324585,1.038845419883728
1629880762110,1.0423517227172852,0.3171660304069519,-0.2144540548324585,1.0487467050552368
1629880762204,1.0423517227172852,0.2799802720546722,-0.2073191702365875,1.0487467050552368
1629880762298,1.0439786911010742,0.2626004219055176,-0.1979120820760727,1.0487467050552368
1629880762423,1.0442147254943848,0.2515109479427337,-0.1904620975255966,1.0487467050552368
1629880762548,1.0442147254943848,0.2546347379684448,-0.1877834796905517,1.0533109903335571
1629880762626,1.0442147254943848,0.2557945549488067,-0.1163457930088043,1.1084091663360596
1629880762723,1.047515034675598,0.2557945549488067,-0.0049949171952903,1.145238757133484
1629880762802,1.0563008785247805,0.2557945549488067,0.0465694703161716,1.153237223625183
1629880762942,1.065550446510315,0.2557945549488067,0.0897549912333488,1.1603293418884275
1629880763052,1.0734246969223022,0.2557945549488067,0.1178982853889465,1.1660221815109253
1629880763161,1.0633257627487185,0.2557945549488067,0.1291827708482742,1.172460675239563
1629880763270,1.0349392890930176,0.2557945549488067,0.1455720961093902,1.172460675239563
1629880763333,1.0318570137023926,0.2454781085252761,0.1879769116640091,1.1805627346038818
1629880763411,1.0485142469406128,0.2386340796947479,0.2146868556737899,1.18925678730011
1629880763505,1.0485142469406128,0.2516099810600281,0.2146868556737899,1.1852052211761477
1629880763676,1.0515949726104736,0.2489504069089889,0.2146868556737899,1.148758888244629
1629880763757,1.0742708444595337,0.2418550997972488,0.2146868556737899,1.1311383247375488
1629880763851,1.0884675979614258,0.2397219985723495,0.2146868556737899,1.1311383247375488
1629880763945,1.1134755611419678,0.2155387848615646,0.2146868556737899,1.1475634574890137
1629880764023,1.1641796827316284,0.1700379699468612,0.211551085114479,1.1671820878982544
1629880764132,1.2158856391906738,0.1476647108793258,0.2110857814550399,1.1722100973129272
1629880764320,1.242772102355957,0.1399137377738952,0.2110857814550399,1.160635471343994
1629880764367,1.2456114292144775,0.1144516915082931,0.1938524693250656,1.160635471343994
1629880764445,1.2456114292144775,0.0837515443563461,0.1710307449102401,1.160635471343994
1629880764570,1.2456114292144775,0.0796333402395248,0.1515600979328155,1.153253436088562
1629880764679,1.2456114292144775,0.080454483628273,0.1272087544202804,1.1337201595306396
1629880764757,1.2456114292144775,0.0968157276511192,0.0925014168024063,1.1044650077819824
1629880764886,1.2456114292144775,0.1059101074934005,0.0440209805965423,1.107447624206543
1629880764979,1.2433128356933594,0.1059101074934005,-0.026851674541831,1.0819302797317505
1629880765073,1.2379701137542725,0.0838573351502418,-0.0701101943850517,1.049851894378662
1629880765167,1.2379701137542725,0.0297012906521558,-0.0798564255237579,1.0500736236572266
1629880765260,1.238694190979004,0.0066722463816404,-0.0798564255237579,1.0500736236572266
1629880765354,1.235751748085022,0.0043603931553661,-0.0701738074421882,1.050160527229309
1629880765526,1.2351669073104858,0.0192254185676574,-0.0493844114243984,1.068621277809143
1629880765588,1.223352074623108,0.0345398597419261,-0.0483944490551948,1.1215872764587402
1629880765667,1.1927930116653442,0.0629434436559677,-0.0483944490551948,1.1208630800247192
1629880765807,1.143398642539978,0.1208341419696807,-0.0483944490551948,1.0694178342819214
1629880765870,1.0318646430969238,0.1610400378704071,-0.0263036210089921,1.0250509977340698
1629880765979,0.956826150417328,0.1946285218000412,0.0094772670418024,1.0264689922332764
1629880766104,0.9461931586265564,0.2300234138965606,0.0384226031601429,1.0295617580413818
1629880766213,0.9476785063743592,0.2489087432622909,0.0740762427449226,1.035860896110535
1629880766276,0.9482755064964294,0.2453452795743942,0.0865787491202354,1.0451200008392334
1629880766401,0.9482755064964294,0.2468666285276413,0.0435835719108581,1.0582704544067385
1629880766463,0.9482755064964294,0.2468666285276413,0.0124922292307019,1.0638386011123655
1629880766638,0.9482755064964294,0.2468666285276413,-0.0139409750699996,1.0782098770141602
1629880766732,0.9492254853248596,0.2465034276247024,-0.0313028916716575,1.0779685974121094
1629880766779,1.040703058242798,0.2465034276247024,-0.031963761895895,1.0719114542007446
1629880766872,1.1417196989059448,0.2465034276247024,-0.031963761895895,1.0719114542007446
1629880767013,1.2222024202346802,0.2444563657045364,-0.00801148917526,1.0665439367294312
1629880767076,1.2222024202346802,0.2421112358570099,0.1171505525708198,1.0498217344284058
1629880767169,1.2222024202346802,0.230267122387886,0.315879076719284,1.005861759185791
1629880767325,1.3227146863937378,0.2547648549079895,0.4223518967628479,0.969628632068634
1629880767419,1.3431708812713623,0.2666014432907104,0.4385033547878265,0.9544790983200072
1629880767529,1.3490424156188965,0.2447120994329452,0.4385033547878265,0.9530082941055298
1629880767607,1.3490619659423828,0.2162420600652694,0.4385033547878265,0.9530082941055298
1629880767672,1.3449559211730957,0.2263156622648239,0.4385033547878265,0.9530082941055298
1629880767781,1.339154601097107,0.24997179210186,0.4385033547878265,0.9530082941055298
1629880767906,1.339154601097107,0.2528303265571594,0.4385033547878265,0.9530082941055298
1629880768047,1.339154601097107,0.2360817492008209,0.4385033547878265,0.9530082941055298
1629880768109,1.339154601097107,0.2127924859523773,0.4385033547878265,0.9530082941055298
1629880768188,1.339154601097107,0.1748847067356109,0.4385033547878265,0.9530082941055298
1629880768297,1.339154601097107,0.1537452638149261,0.4403572976589203,0.9530082941055298
1629880768438,1.339154601097107,0.1537452638149261,0.4468658864498138,0.9530082941055298
1629880768516,1.2669782638549805,0.1537452638149261,0.450259119272232,0.6630364656448364
1629880768609,1.2669782638549805,0.1593860238790512,0.465707778930664,0.7649176120758057
1629880768721,1.2669782638549805,0.1644933223724365,0.4887756109237671,0.8507097959518433
1629880768815,1.1886507272720337,0.1644933223724365,0.4553079009056091,0.943337380886078
1629880768940,1.1142021417617798,0.1699218153953552,0.4074394404888153,1.0205050706863403
1629880768987,1.0500134229660034,0.1572058051824569,0.39240762591362,1.121111273765564
1629880769143,0.9302054047584534,0.1662239283323288,0.3914556801319122,1.197388768196106
1629880769221,0.8781260251998901,0.193787395954132,0.3950072526931762,1.2277860641479492
1629880769315,0.8797959089279175,0.1904377192258834,0.3970866799354553,1.2277860641479492
1629880769409,0.8737122416496277,0.1522509753704071,0.396479845046997,1.2308897972106934
1629880769502,0.8737122416496277,0.0969853922724723,0.396479845046997,1.234316349029541
1629880769627,0.8776833415031433,0.0700311660766601,0.3962633609771728,1.2517410516738892
1629880769739,1.0098762512207031,0.0719198659062385,0.3960045576095581,1.3398385047912598
1629880769817,1.224884867668152,0.0727965757250785,0.3960045576095581,1.4413421154022217
1629880769958,1.3516254425048828,0.0727965757250785,0.3964961469173431,1.4879164695739746
1629880770052,1.362904667854309,0.0727965757250785,0.3967880010604858,1.4884657859802246
1629880770130,1.362904667854309,0.0707343742251396,0.3854094743728637,1.4884657859802246
1629880770224,1.362904667854309,0.0731263980269432,0.3408487141132355,1.4884657859802246
1629880770411,1.362904667854309,0.084035150706768,0.2516408264636993,1.4884657859802246
1629880770474,1.362904667854309,0.0977777242660522,0.1351257264614105,1.4884657859802246
1629880770598,1.362904667854309,0.1202361285686492,0.0929683223366737,1.4884657859802246
1629880770677,1.362904667854309,0.1502880454063415,0.0954551473259925,1.4884657859802246
1629880770742,1.3608317375183103,0.183847576379776,0.1096286475658416,1.4816254377365112
1629880770835,1.3610941171646118,0.1926149874925613,0.1099776029586792,1.4816254377365112
1629880770976,1.3555779457092283,0.192090705037117,0.1087058931589126,1.4817039966583252
1629880771054,1.3535317182540894,0.192929983139038,0.1204710900783538,1.4836640357971191
1629880771164,1.3535317182540894,0.1941082626581192,0.1335462629795074,1.4836640357971191
1629880771288,1.3535317182540894,0.1941082626581192,0.1395875513553619,1.4828675985336304
1629880771382,1.3535317182540894,0.189489483833313,0.1432947218418121,1.4787588119506836
1629880771491,1.3424144983291626,0.1834159344434738,0.1307243555784225,1.3979021310806274
1629880771572,1.2409638166427612,0.1813571751117706,0.0631583109498024,1.235325574874878
1629880771666,1.141892671585083,0.1750580072402954,0.0100966924801468,1.1159796714782717
1629880771776,1.1398169994354248,0.147774338722229,-0.0049512893892824,1.0578123331069946
1629880771869,1.1408648490905762,0.1353109180927276,-0.0007002771017141,1.028373956680298
1629880771963,1.1408648490905762,0.124402143061161,0.0002486733137629,1.0205028057098389
1629880772072,1.1408648490905762,0.1121297776699066,0.0002486733137629,1.0195722579956057
1629880772213,1.1452277898788452,0.1078861430287361,0.002646364737302,1.0156162977218628
1629880772291,1.1501718759536743,0.0775586515665054,-0.003840745659545,0.9994978308677672
1629880772369,1.1617828607559204,0.0514271631836891,0.0161659233272075,0.9698013663291932
1629880772494,1.1100884675979614,0.0041847140528261,0.0498677156865596,1.0392948389053345
1629880772557,1.0191044807434082,0.0154947694391012,0.0850775092840194,1.1980549097061155
1629880772666,1.0801373720169067,0.0415032170712947,0.0925315618515014,1.4128233194351196
1629880772822,1.19898521900177,0.0473641529679298,0.0909694358706474,1.551239013671875
1629880772900,1.2821534872055054,0.047474205493927,0.0875122770667076,1.5993900299072266
1629880772994,1.2977348566055298,0.040019653737545,0.0754135698080062,1.6129823923110962
1629880773088,1.297322154045105,0.0316127240657806,0.054683893918991,1.6129823923110962
1629880773150,1.3008288145065308,0.0259804502129554,0.0439737252891063,1.6129823923110962
1629880773259,1.3193234205245972,0.064049981534481,0.0463461838662624,1.6129823923110962
1629880773416,1.3387607336044312,0.1483972370624542,0.0306765846908092,1.6129823923110962
1629880773494,1.342443585395813,0.1920205503702163,-0.0004030927084386,1.6129823923110962
1629880773605,1.3462193012237549,0.2180523723363876,-0.0004030927084386,1.6129823923110962
1629880773669,1.3643208742141724,0.2306996583938598,0.0084715848788619,1.6129823923110962
1629880773794,1.40133535861969,0.2306996583938598,0.0229776930063962,1.6129823923110962
1629880773856,1.4436370134353638,0.2306996583938598,0.0312152039259672,1.6129823923110962
1629880774044,1.4695481061935425,0.2306996583938598,0.0322606898844242,1.6129823923110962
1629880774122,1.4890495538711548,0.2306996583938598,0.0292099844664335,1.6104025840759275
1629880774231,1.4915297031402588,0.2306996583938598,-0.0101628731936216,1.6044491529464722
1629880774294,1.4915297031402588,0.2152977287769317,-0.0570579022169113,1.5867851972579956
1629880774403,1.481481909751892,0.1736744344234466,-0.0758183673024177,1.4857207536697388
1629880774512,1.4525648355484009,0.1257880628108978,-0.0650315955281257,1.300938844680786
1629880774622,1.4397441148757937,0.1053154170513153,-0.0627422630786895,1.2234193086624146
1629880774731,1.437042474746704,0.0950473845005035,-0.0581767335534095,1.2152888774871826
1629880774809,1.4315098524093628,0.0895025208592414,-0.0628515556454658,1.2152888774871826
1629880774934,1.430363416671753,0.0881567895412445,-0.0569503605365753,1.2150936126708984
1629880774997,1.430363416671753,0.0450674407184124,-0.027797196060419,1.2330901622772217
1629880775090,1.4305154085159302,0.0153385773301124,-0.0153671037405729,1.2446818351745603
1629880775231,1.4454808235168457,0.0115602845326066,-0.0042325272224843,1.2839181423187256
1629880775309,1.451207160949707,0.020357197150588,0.0174935553222894,1.2921727895736694
1629880775434,1.4465984106063845,0.0336059592664241,0.0550661012530326,1.294111251831055
1629880775543,1.4277315139770508,0.079143688082695,0.0680508017539978,1.280148983001709
1629880775621,1.3797850608825684,0.1151962354779243,0.0682575106620788,1.2259752750396729
1629880775718,1.279000997543335,0.1314107924699783,0.0905074104666709,1.1508280038833618
1629880775874,1.1527963876724243,0.1363191753625869,0.1110580712556839,1.0905331373214722
1629880775968,1.113371729850769,0.106926329433918,0.1135473623871803,1.0733695030212402
1629880776046,1.111974596977234,0.0691074356436729,0.1135473623871803,1.072046995162964
1629880776124,1.1117266416549685,0.0323581956326961,0.1135473623871803,1.072046995162964
1629880776233,1.1117266416549685,0.0178746990859508,0.1135473623871803,1.072046995162964
1629880776312,1.1117266416549685,0.013469218276441,0.1116658598184585,1.072046995162964
1629880776483,1.1117266416549685,0.013469218276441,0.1116658598184585,1.072046995162964
1629880776546,1.1117266416549685,0.013469218276441,0.1095500513911247,1.0721696615219116
1629880776671,1.1113592386245728,0.013469218276441,0.0836034566164016,1.0918158292770386
1629880776736,1.109885334968567,0.013469218276441,0.0532520152628421,1.106512188911438
1629880776845,1.0828781127929688,0.013469218276441,0.0427777990698814,1.0291427373886108
1629880776924,1.0601813793182373,0.0181578677147626,0.0332868658006191,0.9772281646728516
1629880777064,1.0970605611801147,0.0016584278782829,0.0094224298372864,0.9617395997047424
1629880777173,1.1227740049362185,0.0132187874987721,-0.0533587522804737,0.9617395997047424
1629880777252,1.1311687231063845,0.0166542939841747,-0.0996442586183548,0.9617395997047424
1629880777345,1.1225733757019043,0.0067405025474727,-0.0204531103372573,0.9617395997047424
1629880777439,1.1226123571395874,0.0092450305819511,0.1253894716501236,0.9666171669960022
1629880777551,1.1028088331222534,0.0675140097737312,0.1914899349212646,0.988447904586792
1629880777676,1.0804522037506104,0.1285040378570556,0.2012726068496704,0.9942337274551392
1629880777785,1.0796130895614624,0.1537503600120544,0.2012726068496704,1.0045698881149292
1629880777879,1.0796130895614624,0.1636114567518234,0.2013493776321411,1.0179001092910769
1629880777988,1.0796130895614624,0.1702388525009155,0.1990691125392913,1.0312843322753906
1629880778035,1.0796130895614624,0.1774611324071884,0.1905295848846435,1.0451297760009766
1629880778176,1.0796130895614624,0.1793146580457687,0.1849522292613983,1.0539017915725708
1629880778270,1.0965467691421509,0.1845104098320007,0.1849522292613983,1.0933756828308103
1629880778348,1.1859853267669678,0.1898102760314941,0.1851038485765457,1.1717127561569214
1629880778519,1.282135009765625,0.2041614651679992,0.1855655759572982,1.265913963317871
1629880778551,1.3043222427368164,0.2118857651948928,0.1855655759572982,1.316893458366394
1629880778676,1.3036500215530396,0.2087811380624771,0.1855655759572982,1.320510983467102
1629880778769,1.3050156831741333,0.2043075263500213,0.1855655759572982,1.320510983467102
1629880778894,1.3150266408920288,0.2005927115678787,0.1855655759572982,1.320510983467102
1629880778988,1.314104080200195,0.1927105188369751,0.1816024184226989,1.320510983467102
1629880779113,1.314104080200195,0.1732069998979568,0.1248119547963142,1.320510983467102
1629880779160,1.314104080200195,0.126578688621521,0.0497905239462852,1.320510983467102
1629880779285,1.314104080200195,0.0848099365830421,0.0098825097084045,1.320510983467102
1629880779363,1.3335936069488523,0.0991169661283493,-0.0027765980921685,1.320510983467102
1629880779488,1.3910170793533323,0.1145216077566146,-0.0027765980921685,1.3201825618743896
1629880779582,1.4107022285461426,0.1276388466358184,-0.0027765980921685,1.3201825618743896
1629880779725,1.4107022285461426,0.1572368294000625,-0.0072521665133535,1.3201825618743896
1629880779756,1.4107022285461426,0.1616034060716629,-0.0015953581314533,1.3201825618743896
1629880779897,1.4086898565292358,0.1519206017255783,0.0049683195538818,1.3116276264190674
1629880779960,1.398928999900818,0.1439734697341919,0.0212725661695003,1.2636696100234983
1629880780116,1.3928289413452148,0.1490808129310608,0.0255322027951478,1.169787883758545
1629880780178,1.3942806720733645,0.1629139482975006,0.0369308665394783,1.0995008945465088
1629880780303,1.4029074907302856,0.1696579456329345,0.0547238700091838,1.1307464838027954
1629880780397,1.39397132396698,0.1709869652986526,0.0813070386648178,1.1688066720962524
1629880780475,1.3756790161132812,0.1709869652986526,0.0873995944857597,1.1728549003601074
1629880780616,1.3713561296463013,0.1695814877748489,0.0742935910820961,1.173257827758789
1629880780759,1.3713561296463013,0.1695814877748489,0.0248489845544099,1.170155644416809
1629880780837,1.3723496198654177,0.1687081754207611,-0.0334090776741504,1.174037218093872
1629880780931,1.3890303373336792,0.1606598943471908,-0.0582504607737064,1.1978458166122437
1629880781009,1.389168620109558,0.1473290026187896,-0.0481191053986549,1.2559356689453125
1629880781087,1.3475382328033447,0.1473290026187896,-0.0314914174377918,1.309285044670105
1629880781181,1.2924257516860962,0.1477435529232025,-0.0133228385820984,1.3485006093978882
1629880781337,1.251252293586731,0.1490009278059005,0.0156775489449501,1.3774161338806152
1629880781431,1.211661458015442,0.1435686647891998,0.0338455997407436,1.3865195512771606
1629880781509,1.1740018129348757,0.119195207953453,0.0427724979817867,1.3865195512771606
1629880781602,1.1805623769760132,0.0592016875743866,0.0629017725586891,1.3865195512771606
1629880781715,1.2023624181747437,-0.0069717722944915,0.0671319812536239,1.3865195512771606
1629880781824,1.213866949081421,-0.0525065101683139,0.0671319812536239,1.3822524547576904
1629880781934,1.2080247402191162,-0.1077704578638076,0.0628198534250259,1.3734890222549438
1629880782043,1.2179144620895386,-0.1259063929319381,0.035096064209938,1.3621681928634644
1629880782137,1.262683987617493,-0.1382274180650711,-0.009536737576127,1.3440730571746826
1629880782277,1.3068629503250122,-0.150854229927063,-0.0480016209185123,1.341355323791504
1629880782324,1.3520846366882324,-0.1568629294633865,-0.0559843145310878,1.3351632356643677
1629880782418,1.4264603853225708,-0.1614865809679031,-0.0157554280012846,1.3574193716049194
1629880782590,1.530609130859375,-0.1634068191051483,0.0334102436900138,1.505218505859375
1629880782668,1.5747612714767456,-0.154253751039505,0.0611393079161644,1.5885189771652222
1629880782749,1.5743680000305176,-0.1374385207891464,0.0487391874194145,1.6189608573913574
1629880782827,1.570207953453064,-0.1424877643585205,0.0487391874194145,1.6197822093963623
1629880782936,1.5679665803909302,-0.1424877643585205,0.0487391874194145,1.6120190620422363
1629880783014,1.5677533149719238,-0.1424877643585205,0.0400136783719062,1.6065152883529663
1629880783217,1.570077419281006,-0.1391030699014663,0.0434777960181236,1.608506202697754
1629880783248,1.5703250169754028,-0.0788199603557586,0.0617808401584625,1.608506202697754
1629880783342,1.5693786144256592,-0.0264561809599399,0.067064844071865,1.608506202697754
1629880783499,1.5693786144256592,-0.0203071814030408,0.0577921532094478,1.6085399389266968
1629880783550,1.5693786144256592,-0.0187579095363616,0.0415819399058818,1.6120834350585938
1629880783659,1.5693786144256592,-0.0381401740014553,0.0327351205050945,1.6131689548492432
1629880783815,1.571244716644287,-0.0361323729157447,0.0326395258307457,1.6131689548492432
1629880783862,1.572379469871521,-0.0015263725072145,0.034113273024559,1.6131689548492432
1629880783971,1.5682275295257568,0.035014484077692,0.0424312762916088,1.6131689548492432
1629880784065,1.560813546180725,0.0520766079425811,0.048842541873455,1.611816644668579
1629880784128,1.5425103902816772,0.0592620186507701,0.0429577194154262,1.568772315979004
1629880784237,1.4967437982559204,0.0678920298814773,0.0352479182183742,1.5194720029830933
1629880784409,1.4441628456115725,0.0720258727669715,0.027308402583003,1.4694485664367676
1629880784471,1.3914026021957395,0.100045159459114,0.0231898725032806,1.4202464818954468
1629880784566,1.3322802782058716,0.1308994442224502,0.0131797436624765,1.348186492919922
1629880784677,1.2554377317428589,0.1587417423725128,-0.0029281030874699,1.2458583116531372
1629880784739,1.143462300300598,0.1896132677793502,-0.0161875691264867,1.170378565788269
1629880784864,1.0672870874404907,0.2244522720575332,-0.0578145049512386,1.13490092754364
1629880785005,1.0499229431152344,0.2181296646595001,-0.1088833585381507,1.105178952217102
1629880785098,1.040865421295166,0.1851060539484024,-0.1089361906051635,1.0765531063079834
1629880785192,1.0115931034088137,0.1570566296577453,-0.1089361906051635,1.0327792167663574
1629880785286,1.0120218992233276,0.1560458242893219,-0.1089361906051635,0.996399462223053
1629880785348,1.0058900117874146,0.1560458242893219,-0.1089361906051635,1.0130361318588257
1629880785426,0.9843119978904724,0.1560458242893219,-0.1089361906051635,1.078288435935974
1629880785603,0.9739840626716614,0.1424380391836166,-0.1089361906051635,1.1230510473251345
1629880785728,0.9739840626716614,0.1300056427717209,-0.1083529889583587,1.1261039972305298
1629880785775,0.9734280109405518,0.1282006204128265,-0.122750274837017,1.099507451057434
1629880785900,0.9691266417503356,0.1298647820949554,-0.1951410621404647,1.0807137489318848
1629880785994,0.9691266417503356,0.1320299506187439,-0.238090306520462,1.076297163963318
1629880786087,0.9685693979263306,0.132057636976242,-0.2606675326824188,1.0760092735290527
1629880786228,0.9459254145622252,0.1283396333456039,-0.2718342542648315,1.0672669410705566
1629880786306,0.9424805641174316,0.1196794286370277,-0.2752912640571594,1.0575590133666992
1629880786368,0.9738467335700988,0.1076719835400581,-0.2774601280689239,1.0526772737503052
1629880786478,1.0612809658050537,0.0956517457962036,-0.2630035281181335,1.0633708238601685
1629880786635,1.18667733669281,0.052320972084999,-0.2292653918266296,1.0759748220443726
1629880786684,1.296418309211731,0.0214148126542568,-0.1952979415655136,1.0939006805419922
1629880786809,1.3701448440551758,-0.0413463450968265,-0.1549213081598281,1.1472090482711792
1629880786918,1.411382794380188,-0.0939525440335273,-0.1427348554134369,1.2293866872787476
1629880787043,1.411382794380188,-0.1421569436788559,-0.1038193330168724,1.2682335376739502
1629880787121,1.411382794380188,-0.150936871767044,-0.0546669699251651,1.2839025259017944
1629880787199,1.4098787307739258,-0.0678057521581649,0.0076428391039371,1.2693097591400146
1629880787262,1.4057250022888184,-0.0337975248694419,0.0340501256287097,1.266149640083313
1629880787434,1.4026970863342283,-0.034214049577713,0.0340501256287097,1.266149640083313
1629880787543,1.4040353298187256,-0.0307837910950183,0.0340501256287097,1.266149640083313
1629880787605,1.4052125215530396,-0.0289146155118942,0.0340501256287097,1.266149640083313
1629880787764,1.4052125215530396,-0.0289146155118942,0.0340501256287097,1.266149640083313
1629880787811,1.4052125215530396,-0.0289146155118942,0.0340501256287097,1.266149640083313
1629880787889,1.4056663513183594,-0.0289146155118942,0.0340501256287097,1.2656629085540771
1629880788061,1.4070123434066772,-0.0223861448466777,0.0340501256287097,1.2615948915481567
1629880788139,1.4066725969314575,-0.0080945659428834,0.0350077822804451,1.2403029203414917
1629880788264,1.399396300315857,0.0304261911660432,0.0340916737914085,1.2225987911224363
1629880788373,1.3932470083236694,0.0660991594195365,0.0237944107502698,1.2185832262039185
1629880788420,1.3707876205444336,0.0734012126922607,0.0132576385512948,1.2234394550323486
1629880788498,1.306848406791687,0.0734012126922607,0.0069126319140195,1.2389298677444458
1629880788639,1.258935570716858,0.0734012126922607,-0.0007634143694303,1.216383695602417
1629880788733,1.2127619981765747,0.068933866918087,-0.0035445820540189,1.2884669303894043
1629880788826,1.1586883068084717,0.0403210185468196,-0.0266889613121747,1.317456603050232
1629880788920,1.1165927648544312,-0.0208578929305076,-0.0856138989329338,1.317456603050232
1629880789029,1.09637451171875,-0.0758217275142669,-0.1678547710180282,1.317456603050232
1629880789108,1.1016510725021362,-0.1063069701194763,-0.1901823729276657,1.317456603050232
1629880789264,1.122164249420166,-0.1194528862833976,-0.1917047202587127,1.317456603050232
1629880789342,1.1256331205368042,-0.1328578144311905,-0.2029485553503036,1.317456603050232
1629880789451,1.1256331205368042,-0.1361188888549804,-0.2254213094711303,1.317456603050232
1629880789563,1.1256331205368042,-0.1251373142004013,-0.2262406945228576,1.317456603050232
1629880789657,1.1256331205368042,-0.1200044527649879,-0.2331027239561081,1.317456603050232
1629880789735,1.1256331205368042,-0.0397678725421428,-0.1986949741840362,1.3496037721633911
1629880789844,1.1256331205368042,0.0531713478267192,-0.0872009024024009,1.408386468887329
1629880789954,1.1354304552078247,0.1055659428238868,0.0298804100602865,1.430312156677246
1629880790079,1.160164713859558,0.1483949422836303,0.1012395918369293,1.425939679145813
1629880790141,1.1748297214508057,0.1660774201154709,0.1059193462133407,1.4218240976333618
1629880790266,1.1411737203598022,0.1660774201154709,0.1080276072025299,1.4147580862045288
1629880790360,1.1275643110275269,0.1660774201154709,0.108809120953083,1.3653931617736816
1629880790469,1.1275643110275269,0.1660774201154709,0.108809120953083,1.2876527309417725
1629880790552,1.130883812904358,0.1660774201154709,0.108809120953083,1.2662253379821775
1629880790677,1.1390514373779297,0.1731110662221908,0.108809120953083,1.2627742290496826
1629880790770,1.1480848789215088,0.1841851472854614,0.108809120953083,1.2625582218170166
1629880790883,1.1358931064605713,0.2016713619232177,0.108809120953083,1.2625582218170166
1629880790945,1.1351161003112793,0.229579210281372,0.1061175987124443,1.2625582218170166
1629880791101,1.1351161003112793,0.2484960556030273,0.1065390408039093,1.2625582218170166
1629880791195,1.1351161003112793,0.2502080500125885,0.099137857556343,1.2654283046722412
1629880791257,1.135412096977234,0.2397265285253524,0.0979928597807884,1.2727757692337036
1629880791367,1.1442325115203855,0.2303489297628402,0.1015942841768264,1.280424952507019
1629880791429,1.1605029106140137,0.2260490804910659,0.1112624332308769,1.2467304468154907
1629880791539,1.1690504550933838,0.2153061032295227,0.1176821589469909,1.144178032875061
1629880791697,1.1670852899551392,0.1913714706897735,0.0517081506550312,1.0094225406646729
1629880791775,1.1331294775009155,0.2015044093132019,-0.0202377289533615,0.8399257063865662
1629880791853,1.0834540128707886,0.2095988392829895,-0.0552800521254539,0.7212732434272766
1629880791962,1.0361363887786863,0.2099189907312393,-0.0718447342514991,0.7478417754173279
1629880792103,1.0155797004699707,0.2141704857349395,-0.0718447342514991,0.7946758270263672
1629880792197,1.0052087306976318,0.220306396484375,-0.0718447342514991,0.834031343460083
1629880792306,1.0172406435012815,0.2198910862207412,-0.0598384588956832,0.9143948554992676
1629880792431,1.030756592750549,0.2214307934045791,-0.0510119460523128,1.034238338470459
1629880792493,1.046883463859558,0.2249812930822372,-0.0510119460523128,1.1816712617874146
1629880792556,1.0715243816375732,0.2115036249160766,-0.0510119460523128,1.286502242088318
1629880792665,1.1113066673278809,0.1956428587436676,-0.0514960400760173,1.3084441423416138
1629880792775,1.14207923412323,0.1743714958429336,-0.0494492761790752,1.3084441423416138
1629880792946,1.14207923412323,0.1352664977312088,-0.0416701696813106,1.3084441423416138
1629880793024,1.14207923412323,0.0823072716593742,-0.0303934495896101,1.3084441423416138
1629880793149,1.1102420091629028,0.0194798372685909,-0.0443298667669296,1.3084441423416138
1629880793212,1.0663156509399414,-0.0199679154902696,-0.0639530047774314,1.3084441423416138
1629880793312,1.045324444770813,-0.04718454554677,-0.1043561324477195,1.3084441423416138
1629880793421,1.045324444770813,-0.0734168514609336,-0.1348019540309906,1.3084441423416138
1629880793515,1.045324444770813,-0.1055687442421913,-0.1378674209117889,1.3084441423416138
1629880793609,1.045324444770813,-0.0925439223647117,-0.1261569261550903,1.3084441423416138
1629880793705,1.045324444770813,-0.0910583660006523,-0.096858337521553,1.3084441423416138
1629880793814,1.045324444770813,-0.0910583660006523,-0.0862905234098434,1.292836308479309
1629880793892,1.03747296333313,-0.0867584124207496,-0.0921571031212806,1.2891147136688232
1629880794018,1.025571584701538,-0.0645397007465362,-0.087462343275547,1.2891147136688232
1629880794157,1.005625605583191,-0.0420612953603267,-0.0744303092360496,1.2891147136688232
1629880794235,0.9473667144775392,0.0050984672270715,-0.0652757063508033,1.2891147136688232
1629880794330,0.6330480575561523,0.0059634274803102,-0.0489818602800369,1.2891147136688232
1629880794393,0.6330480575561523,0.0351108908653259,-0.0364764519035816,1.2891147136688232
1629880794517,0.6330480575561523,0.1035170629620552,-0.0308311693370342,0.8412577509880066
1629880794609,0.6330480575561523,0.1405967473983764,-0.0423662848770618,0.8512141108512878
1629880794773,0.6330480575561523,0.149663358926773,-0.0652722343802452,0.856454074382782
1629880794899,0.6330480575561523,0.1584603786468505,-0.0800379440188407,0.8579267859458923
1629880794949,0.7139007449150085,0.1633905172348022,-0.0841886773705482,0.8836879134178162
1629880795007,0.7962409853935242,0.1633905172348022,-0.0473513528704643,0.9038442969322203
1629880795144,0.8169101476669312,0.1633905172348022,0.0037646596319973,0.9060495495796204
1629880795269,0.8307232856750488,0.1609351336956024,0.0336762592196464,0.9206687211990356
1629880795395,0.8714877963066101,0.1567045599222183,0.0616375729441642,0.9588046669960022
1629880795440,0.9380778670310974,0.1567045599222183,0.0605364553630352,1.016595482826233
1629880795535,0.9848549365997314,0.1578869670629501,0.0589933060109615,1.0980708599090576
1629880795614,1.0166919231414795,0.1578869670629501,0.0589933060109615,1.151837944984436
1629880795755,1.0289970636367798,0.1574409902095794,0.0589933060109615,1.1266909837722778
1629880795818,1.0289970636367798,0.1081197187304496,0.0589933060109615,1.1180648803710938
1629880795947,1.0289970636367798,0.0451814718544483,0.0577159896492958,1.134776949882507
1629880796102,1.0289970636367798,0.0086061535403132,0.0468208082020282,1.134776949882507
1629880796166,1.0289970636367798,-0.0376728326082229,0.0468208082020282,1.134776949882507
1629880796238,1.0289970636367798,-0.0822343975305557,0.0587931983172893,1.134776949882507
1629880796354,1.0289970636367798,-0.0822232589125633,0.0868955478072166,1.134776949882507
1629880796448,1.0289970636367798,-0.0464658327400684,0.0983421131968498,1.133442521095276
1629880796605,1.025370955467224,0.051370371133089,0.0983421131968498,1.1162279844284058
1629880796643,1.0060948133468628,0.1121366247534751,0.0983421131968498,1.0816686153411863
1629880796786,1.0017149448394775,0.1248030439019203,0.0879187583923339,1.0808581113815308
1629880796864,1.0090317726135254,0.1392832249403,0.051848080009222,1.0832737684249878
1629880796942,1.011646032333374,0.1484304815530777,-0.0304192993789911,1.0747798681259155
1629880797036,1.0134860277175903,0.1484304815530777,-0.083122082054615,1.0753713846206665
1629880797208,0.9855554103851318,0.1484304815530777,-0.083122082054615,1.0646988153457642
1629880797277,0.905202090740204,0.1484304815530777,-0.083122082054615,0.9800793528556824
1629880797356,0.8083105087280273,0.1484304815530777,-0.083122082054615,0.8803115487098694
1629880797467,0.7517610192298889,0.1484304815530777,-0.0746333226561546,0.8270282745361328
1629880797530,0.7633492946624756,0.1484304815530777,-0.0399728491902351,0.7893013954162598
1629880797657,0.8239803910255432,0.1472804993391037,0.0032099129166454,0.8063164353370667
1629880797807,0.8930332064628601,0.1386166960000991,0.0014983371365815,0.8411087393760681
1629880797869,0.9289600253105164,0.1335536241531372,-0.0117752151563763,0.8517274856567383
1629880797947,0.9386767745018004,0.131978690624237,-0.0572987645864486,0.8517274856567383
1629880798088,0.9439810514450072,0.1179192438721656,-0.1092804297804832,0.8534713387489319
1629880798187,0.9482852220535278,0.1022276133298873,-0.1223634332418441,0.8601141571998596
1629880798299,0.953805923461914,0.0847553014755249,-0.0792216360569,0.8600148558616638
1629880798406,0.955501675605774,0.0428660735487937,-0.0055695828050374,0.8787005543708801
1629880798530,0.9602066874504088,-0.0024465746246278,0.0266864150762558,0.8941231966018677
1629880798624,0.9667320847511292,-0.0117293084040284,0.0482504181563854,0.8920649290084839
1629880798717,0.9727213978767396,-0.0117293084040284,0.072315938770771,0.903436243534088
1629880798810,0.9742087125778198,-0.0237999856472015,0.0800509378314018,0.9059593677520752
1629880798871,0.9742087125778198,-0.0423207394778728,0.0800509378314018,0.9137172102928162
1629880799044,0.9742087125778198,-0.0593524947762489,0.0800509378314018,0.9190979599952698
1629880799094,0.9742087125778198,-0.0756081566214561,0.0800509378314018,0.9320405721664428
1629880799219,0.9932136535644532,-0.0757683292031288,0.0688915625214576,0.9320405721664428
1629880799313,1.0114165544509888,-0.0757683292031288,0.0185344070196151,0.9041494131088256
1629880799391,0.9783635139465332,-0.0757683292031288,-0.0029142044950276,0.8926122784614563
1629880799476,0.9158297777175904,-0.0768187493085861,-0.0121176606044173,0.9008489847183228
1629880799650,0.9005844593048096,-0.0768187493085861,-0.0137813687324523,0.9446029663085938
1629880799759,0.8969230651855469,-0.0756384432315826,-0.0130567364394664,0.986028492450714
1629880799823,0.8948518633842468,-0.0601775981485843,-0.0163062568753957,1.0016944408416748
1629880799921,0.8975963592529297,-0.0228115413337945,-0.0122611271217465,1.0162248611450195
1629880799999,0.8855140209197998,0.0825422182679176,-0.0372302904725074,1.0387364625930786
1629880800077,0.861555278301239,0.1584294885396957,-0.0965762659907341,1.0374103784561155
1629880800218,0.8521679639816284,0.1730023771524429,-0.151861771941185,1.040516972541809
1629880800327,0.8540323972702026,0.1782192438840866,-0.1937028914690017,1.0419480800628662
1629880800436,0.8622450828552246,0.1825262457132339,-0.1923625022172927,1.0440753698349
1629880800530,0.8771680593490601,0.1825465410947799,-0.1924261301755905,1.0440753698349
1629880800597,0.8811716437339783,0.1812431812286377,-0.1924261301755905,1.0445178747177124
1629880800675,0.882722795009613,0.1782435178756714,-0.1924261301755905,1.0445178747177124
1629880800847,0.882722795009613,0.1747248321771621,-0.1924261301755905,1.0445178747177124
1629880800956,0.853223443031311,0.1735688894987106,-0.1924261301755905,1.0445178747177124
1629880801018,0.8066443204879761,0.1735688894987106,-0.1924261301755905,1.0445178747177124
1629880801112,0.7763482928276062,0.1735688894987106,-0.2103970795869827,1.0444599390029907
1629880801222,0.7658145427703857,0.1787766218185424,-0.2848193049430847,1.0371620655059814
1629880801315,0.7648956179618835,0.1832882463932037,-0.3821630179882049,1.026079535484314
1629880801472,0.7648956179618835,0.1875288784503936,-0.4099636077880859,1.0183351039886477
1629880801534,0.7757547497749329,0.1913606226444244,-0.3658264279365539,0.9947003722190856
1629880801662,0.8002157211303711,0.1745966672897339,-0.295551061630249,0.9956283569335938
1629880801709,0.8753270506858826,0.1176601871848106,-0.2360715568065643,1.0078247785568235
1629880801834,0.9777489900588988,0.0779914557933807,-0.1614465117454528,1.08703351020813
1629880801943,1.030240774154663,0.0302667431533336,-0.0988673418760299,1.1927943229675293
1629880802068,1.022530198097229,0.023132549598813,-0.0809024721384048,1.2135047912597656
1629880802146,0.9887898564338684,0.0220170132815837,-0.0871756449341774,1.2179558277130127
1629880802240,0.9633098244667052,0.0231137219816446,-0.09719879925251,1.227079153060913
1629880802349,0.9614199995994568,0.0255168806761503,-0.0994006544351577,1.231825351715088
1629880802459,0.9614199995994568,0.0271869171410799,-0.0769275873899459,1.231825351715088
1629880802506,0.9614199995994568,0.0289911851286888,-0.0628824308514595,1.231825351715088
1629880802680,0.9614199995994568,0.0289911851286888,-0.0627990439534187,1.231825351715088
1629880802789,0.9614199995994568,0.0289911851286888,-0.0627990439534187,1.231825351715088
1629880802898,0.9614199995994568,0.0319922529160976,-0.0627990439534187,1.231825351715088
1629880802992,0.9614199995994568,0.0483778826892375,-0.0627990439534187,1.231825351715088
1629880803023,0.9614199995994568,0.0863791033625602,-0.0627990439534187,1.231825351715088
1629880803133,0.9614199995994568,0.107367143034935,-0.055468376725912,1.231825351715088
1629880803305,0.9714722037315368,0.1188384592533111,-0.0647930800914764,1.231825351715088
1629880803351,1.0082558393478394,0.1210097670555114,-0.0767114013433456,1.225287675857544
1629880803476,1.0354454517364502,0.1366749554872512,-0.0650264546275138,1.20293128490448
1629880803586,0.9918118119239808,0.155908778309822,0.0113126952201128,1.0966120958328247
1629880803667,0.9489519000053406,0.1952555030584335,0.0746584013104438,0.9590423107147216
1629880803760,0.941512644290924,0.2168026715517044,0.1105401143431663,0.9002545475959778
1629880803891,0.949390470981598,0.2176804691553115,0.0962172001600265,0.8821183443069458
1629880803969,0.9665656089782716,0.2176804691553115,0.0779870674014091,0.846184253692627
1629880804063,0.9665656089782716,0.2176804691553115,0.0744606927037239,0.9861488342285156
1629880804172,0.9665656089782716,0.2176804691553115,0.0744606927037239,0.9583722352981568
1629880804250,0.9665656089782716,0.2176804691553115,0.0744606927037239,0.9453303813934326
1629880804359,0.9665656089782716,0.2176804691553115,0.0744606927037239,0.9373445510864258
1629880804469,0.9671543836593628,0.2176804691553115,0.0744606927037239,0.9227190613746644
1629880804594,0.9776406288146972,0.2287555783987045,0.0686444044113159,0.9259676933288574
1629880804672,0.9821397066116332,0.2268518954515457,0.0576281361281871,0.9435923099517822
1629880804750,0.9828346967697144,0.2042860835790634,0.0815832465887069,0.9484126567840576
1629880804859,0.9828346967697144,0.1566124111413955,0.1058791801333427,0.9521303176879884
1629880805000,0.97667133808136,0.1150961220264434,0.1104954108595848,0.9487642049789428
1629880805109,0.9730703830718994,0.0976593270897865,0.1114000380039215,0.9487642049789428
1629880805187,0.9642194509506226,0.0976593270897865,0.1114000380039215,0.9487642049789428
1629880805312,0.9409388303756714,0.0883333683013916,0.0952967256307601,0.9487642049789428
1629880805422,0.8975167274475098,0.0625337213277816,0.0932911112904548,0.9578977227211
1629880805500,0.8370870351791382,0.0641428530216217,0.0932911112904548,0.9959514737129213
1629880805581,0.7533178329467773,0.0929213017225265,0.0935075208544731,0.9799633026123048
1629880805753,0.7355078458786011,0.1221518144011497,0.1079139336943626,0.9494535326957704
1629880805815,0.7355078458786011,0.1430562883615493,0.1345244497060775,0.9869799613952636
1629880805925,0.7544177174568176,0.1673098057508468,0.1568640917539596,0.9921971559524536
1629880806003,0.8295637965202332,0.192383125424385,0.1607700288295745,0.9933911561965942
1629880806096,1.0139613151550293,0.1941985785961151,0.1607700288295745,0.9976018667221068
1629880806190,1.2204289436340332,0.1480615586042404,0.1607700288295745,1.002952218055725
1629880806362,1.4084638357162476,0.1190506443381309,0.1595299392938614,1.0026532411575315
1629880806424,1.5133758783340454,0.1408812999725341,0.1411216557025909,1.018628716468811
1629880806487,1.5442500114440918,0.2153001874685287,0.1367965936660766,1.117329716682434
1629880806599,1.555702805519104,0.2560547888278961,0.1578281372785568,1.2761329412460327
1629880806708,1.555702805519104,0.2567811012268066,0.1716987490653991,1.5053915977478027
1629880806849,1.555702805519104,0.2584378123283386,0.1837361603975296,1.7110532522201538
1629880806911,1.555702805519104,0.2584378123283386,0.2070784717798233,1.7968741655349731
1629880807036,1.555702805519104,0.2584378123283386,0.2129855304956436,1.7980217933654783
1629880807114,1.555702805519104,0.2587610781192779,0.2132699787616729,1.7980217933654783
1629880807224,1.555702805519104,0.2801222205162048,0.2137679159641266,1.7980217933654783
1629880807333,1.556729078292847,0.3507732152938843,0.2143178582191467,1.7980217933654783
1629880807442,1.5581833124160769,0.4205143451690674,0.2132966667413711,1.7980217933654783
1629880807520,1.5581833124160769,0.4611600339412689,0.1988427937030792,1.7980217933654783
1629880807648,1.5576117038726809,0.4691570103168487,0.1988427937030792,1.7980217933654783
1629880807757,1.5512775182724,0.4784133434295654,0.1988427937030792,1.7980217933654783
1629880807820,1.5453722476959229,0.4845545291900635,0.1988427937030792,1.7980217933654783
1629880807913,1.523712158203125,0.4845879375934601,0.1980542540550232,1.7980217933654783
1629880808085,1.4370094537734983,0.4845879375934601,0.1980542540550232,1.7980217933654783
1629880808132,1.3829984664916992,0.4750735163688659,0.1918116360902786,1.7967596054077148
1629880808257,1.3452246189117432,0.4478467404842376,0.161398097872734,1.7861976623535156
1629880808366,1.3158535957336426,0.4209128618240356,0.1419094949960708,1.779931902885437
1629880808460,1.3052749633789062,0.4137653708457947,0.228392407298088,1.7639132738113403
1629880808523,1.303105711936951,0.4137653708457947,0.3279013037681579,1.660560965538025
1629880808648,1.2997031211853027,0.4137653708457947,0.3931906223297119,1.5351589918136597
1629880808757,1.3607722520828247,0.4232673346996307,0.4011120200157165,1.5030139684677124
1629880808866,1.349844455718994,0.435352087020874,0.3975370228290558,1.5064955949783323
1629880808929,1.311036229133606,0.4276245832443237,0.3867197334766388,1.5029876232147217
1629880809069,1.2437093257904053,0.3947815299034118,0.3816368877887726,1.498355507850647
1629880809132,1.1577770709991455,0.3240026235580444,0.3791249692440033,1.493602275848389
1629880809226,1.0689873695373535,0.2439116388559341,0.3782601058483124,1.4950965642929075
1629880809351,0.9992899298667908,0.2225187569856643,0.3782601058483124,1.4950965642929075
1629880809510,0.9612590074539183,0.2011187821626663,0.3848008513450622,1.4950965642929075
1629880809557,0.942514717578888,0.1652093231678009,0.3974157571792602,1.4950965642929075
1629880809650,0.9433938264846802,0.1506289094686508,0.3977671265602112,1.4926981925964355
1629880809760,0.9475086331367492,0.1670383661985397,0.3977671265602112,1.4926981925964355
1629880809853,0.9476890563964844,0.2161276787519455,0.3977671265602112,1.4926981925964355
1629880809994,0.9478222131729126,0.2438904494047165,0.3977671265602112,1.4926981925964355
1629880810088,0.9478222131729126,0.2253692746162414,0.3876824975013733,1.4846340417861938
1629880810181,0.95143324136734,0.2044174671173095,0.3625361919403076,1.4653223752975464
1629880810275,0.8320780992507935,0.2041793018579483,0.2970556020736694,1.4225729703903198
1629880810353,0.6481852531433105,0.2041793018579483,0.1987999379634857,1.3409197330474854
1629880810494,0.6184731125831604,0.1994347423315048,0.0890138894319534,1.2074368000030518
1629880810622,0.6255636215209961,0.1852362304925918,0.0014409790746867,1.116720199584961
1629880810669,0.6255636215209961,0.1688604354858398,-0.0038712609093636,1.0950965881347656
1629880810794,0.6255636215209961,0.1498129069805145,0.0034141878131777,1.067551851272583
1629880810903,0.6255636215209961,0.1279371082782745,0.0697468370199203,1.0097432136535645
1629880810965,0.6255636215209961,0.1082321926951408,0.137210264801979,0.9368395805358888
1629880811075,0.6255636215209961,0.0909709930419921,0.1812594830989837,0.9193200469017028
1629880811200,0.6331002116203308,0.085825964808464,0.1921101361513137,0.9208611845970154
1629880811340,0.6640442609786987,0.079545684158802,0.1921661645174026,0.9223143458366394
1629880811387,0.7212676405906677,0.079545684158802,0.1942805796861648,0.9232589602470398
1629880811512,0.7812215089797974,0.0626128837466239,0.1917974948883056,0.9243439435958862
1629880811559,0.8033384084701538,-0.0100045893341302,0.1814765185117721,0.9315078854560852
1629880811703,0.7947402000427246,-0.0622071623802185,0.1635873466730117,0.9300623536109924
1629880811796,0.812098503112793,-0.0533399917185306,0.1435868591070175,0.9249245524406432
1629880811890,0.8428071141242981,-0.0132418489083647,0.1487500071525573,0.915513277053833
1629880811984,0.9066065549850464,0.005085258744657,0.1546813249588012,0.8979969620704651
1629880812093,0.932667076587677,0.0147442137822508,0.1563095897436142,0.855516791343689
1629880812218,0.932667076587677,0.0328372493386268,0.1654639095067978,0.8721432089805603
1629880812327,0.932667076587677,0.0635396242141723,0.1891100704669952,0.8694904446601868
1629880812437,0.937260925769806,0.0649766400456428,0.1965690404176712,0.8669270277023315
1629880812515,0.9525156617164612,0.0662446692585945,0.2006149739027023,0.8669270277023315
1629880812609,0.9584782123565674,0.0733742266893386,0.2129060924053192,0.8709768056869507
1629880812721,0.9621185660362244,0.0741157680749893,0.2070067524909973,0.8980954885482788
1629880812783,0.9621185660362244,0.0705515965819358,0.1669340133666992,0.919231653213501
1629880812861,0.9621185660362244,0.0695976987481117,0.1154746860265731,0.9235374331474304
1629880813033,0.9603944420814514,0.0693208798766136,0.050295278429985,0.9248195290565492
1629880813111,0.9556061625480652,0.0693208798766136,0.0350939258933067,0.927571177482605
1629880813221,0.97872656583786,0.0710340440273284,0.0350939258933067,0.927571177482605
1629880813299,0.9867058396339417,0.0717195495963096,0.0369468480348587,0.951330840587616
1629880813392,0.9595014452934264,0.0533226877450943,0.0513264685869216,0.9827074408531188
1629880813471,0.9478921890258788,0.0335834249854087,0.071643941104412,0.9917091727256776
1629880813647,0.936503767967224,0.0138883162289857,0.0843849331140518,0.9808465242385864
1629880813741,0.93197900056839,0.0199375823140144,0.0752842053771019,0.9724092483520508
1629880813803,0.937640905380249,0.0131759876385331,0.014067561365664,0.9523391723632812
1629880813944,0.935171604156494,-0.030086675658822,-0.0657275319099426,0.9336007237434388
1629880814022,0.9376354813575744,-0.0149060301482677,-0.080687791109085,0.9336007237434388
1629880814100,0.9399612545967102,-0.0260866843163967,-0.0834335312247276,0.9336007237434388
1629880814225,0.9454644918441772,-0.0176905803382396,-0.0949262455105781,0.9336007237434388
1629880814350,0.9406620264053344,0.0227850638329982,-0.1307858973741531,0.9336007237434388
1629880814428,0.9382199048995972,0.0597002059221267,-0.1451000273227691,0.9336689114570618
1629880814506,0.9362873435020448,0.0931498780846595,-0.1480519324541092,0.9362624883651732
1629880814647,0.9275330305099488,0.0979552790522575,-0.1448153257369995,0.9357696175575256
1629880814776,0.9227898120880128,0.1053139790892601,-0.1291307508945465,0.9291885495185852
1629880814916,0.9008964896202089,0.1111910194158554,-0.0998386591672897,0.9137983918190002
1629880814948,0.7836889624595642,0.1161644384264946,-0.0722685009241104,0.8901891708374023
1629880815088,0.6435334086418152,0.1209631562232971,-0.0678525492548942,0.816731333732605
1629880815166,0.6081455945968628,0.1193850040435791,-0.0826652124524116,0.7765540480613708
1629880815213,0.6169144511222839,0.1260152757167816,-0.124425821006298,0.7768176198005676
1629880815323,0.6258805990219116,0.1260152757167816,-0.1628957837820053,0.8067221641540527
1629880815447,0.6105024218559265,0.1260152757167816,-0.179359570145607,0.786426842212677
1629880815572,0.5873960256576538,0.1260152757167816,-0.2044013142585754,0.7929247617721558
1629880815666,0.5915664434432983,0.1183190569281578,-0.2009677141904831,0.810082197189331
1629880815809,0.5988933444023132,0.1142215207219123,-0.1995483338832855,0.8087400794029236
1629880815872,0.5993778109550476,0.1480022966861724,-0.1860900968313217,0.8057078123092651
1629880815950,0.6064721345901489,0.2109656333923339,-0.1520059257745742,0.8295941352844238
1629880816044,0.6009114384651184,0.2184421122074127,-0.0934408754110336,0.8813322186470032
1629880816138,0.6236765384674072,0.1813255995512008,-0.020133800804615,0.9534658789634703
1629880816278,0.6616503596305847,0.1600574702024459,0.0360456630587577,1.036305546760559
1629880816356,0.6636861562728882,0.1433085054159164,0.0768864527344703,1.1162502765655518
1629880816466,0.6650436520576477,0.1333729773759842,0.0941644236445427,1.1415163278579712
1629880816544,0.6650436520576477,0.1325055211782455,0.0916719213128089,1.1474251747131348
1629880816669,0.6650436520576477,0.1307342201471328,0.0916719213128089,1.1474251747131348
1629880816797,0.6786965131759644,0.133997306227684,0.0916719213128089,1.1474251747131348
1629880816890,0.7638957500457764,0.1612478345632553,0.0916719213128089,1.165257692337036
1629880816953,0.8743088245391846,0.1780613660812378,0.0916719213128089,1.241085410118103
1629880817062,0.9389540553092957,0.1822435855865478,0.0916719213128089,1.2995516061782837
1629880817140,0.9633170366287231,0.1822435855865478,0.0916719213128089,1.314518690109253
1629880817312,1.0035004615783691,0.1860083639621734,0.0916719213128089,1.314518690109253
1629880817390,1.0035004615783691,0.2046753317117691,0.0916719213128089,1.314518690109253
1629880817484,1.0035004615783691,0.2486928403377533,0.0865149796009063,1.314518690109253
1629880817549,1.0035004615783691,0.2833653688430786,0.0794330462813377,1.314518690109253
1629880817689,1.0035004615783691,0.3155725598335266,0.072903849184513,1.314518690109253
1629880817783,1.001664400100708,0.3305597305297851,0.0515474043786525,1.314518690109253
1629880817930,0.9794731736183168,0.3305597305297851,0.014393082819879,1.314518690109253
1629880818021,0.9569088220596312,0.3305597305297851,-0.0707468539476394,1.3106433153152466
1629880818066,0.955457866191864,0.3324564695358276,-0.1909949481487274,1.3070857524871826
1629880818162,0.955457866191864,0.3324564695358276,-0.2630932331085205,1.30366849899292
1629880818285,0.955457866191864,0.3324564695358276,-0.2940000891685486,1.2977440357208252
1629880818362,0.955457866191864,0.3324564695358276,-0.3093760311603546,1.2810219526290894
1629880818537,0.955457866191864,0.3247733116149902,-0.3589355647563934,1.2810219526290894
1629880818614,0.955457866191864,0.3015144467353821,-0.3589355647563934,1.2810219526290894
1629880818693,0.955457866191864,0.2885206639766693,-0.3589355647563934,1.2810219526290894
1629880818771,0.955457866191864,0.2885206639766693,-0.3589355647563934,1.2810219526290894
1629880818843,0.955457866191864,0.2885206639766693,-0.3589355647563934,1.2810219526290894
1629880818999,0.955457866191864,0.2742277979850769,-0.2391945272684097,1.2810219526290894
1629880819141,0.955457866191864,0.2298839390277862,-0.0827580392360687,1.2810219526290894
1629880819223,0.955457866191864,0.1794145405292511,-0.0827580392360687,1.2810219526290894
1629880819301,0.955457866191864,0.1420386284589767,-0.0827580392360687,1.2810219526290894
1629880819434,0.9902985095977784,0.201877474784851,-0.0827580392360687,1.2810219526290894
1629880819497,1.0175607204437256,0.2325397282838821,-0.0827580392360687,1.2810219526290894
1629880819609,1.0175607204437256,0.2537594437599182,-0.0827580392360687,1.2810219526290894
1629880819718,1.0175607204437256,0.3012292683124542,-0.0827580392360687,1.2810219526290894
1629880819859,1.0175607204437256,0.3075106739997864,-0.0827580392360687,1.2810219526290894
1629880819922,1.0175607204437256,0.3069163560867309,0.0851158946752548,1.2810219526290894
1629880820062,1.0175607204437256,0.3069163560867309,0.0851158946752548,1.2810219526290894
1629880820109,1.0175607204437256,0.3072203695774078,0.0865207910537719,1.2810219526290894
1629880820171,1.0088216066360474,0.3083923757076263,0.0888717249035835,1.2810219526290894
1629880820328,0.9994150400161744,0.3087539374828338,0.0892346426844596,1.2810219526290894
1629880820421,0.9270583987236024,0.309337854385376,0.0873265340924263,0.9986122846603394
1629880820546,0.927440106868744,0.3100477755069732,0.0871800705790519,0.9986122846603394
1629880820593,0.927440106868744,0.3119244575500488,-0.0418421179056167,1.0015884637832642
1629880820706,0.927440106868744,0.3133495151996612,-0.0263595711439847,1.0037838220596311
1629880820831,0.927440106868744,0.3155415654182434,-0.0093342438340187,1.0064431428909302
1629880820940,0.849912703037262,0.3143303692340851,0.0054438621737062,1.0064431428909302
1629880821034,0.6298472285270691,0.295421153306961,0.0118598351255059,1.009897232055664
1629880821159,0.6298472285270691,0.2477375268936157,0.0193323493003845,1.023552417755127
1629880821221,0.6298472285270691,0.2347686141729354,0.0292237419635057,1.0490132570266724
1629880821315,0.631191611289978,0.2493988424539566,0.0389186553657054,1.0610367059707642
1629880821424,0.6452382802963257,0.2994221448898315,0.0146797373890876,1.0747581720352173
1629880821549,0.7265546321868896,0.3554816246032715,0.0674477368593216,1.07953143119812
1629880821708,0.7914429306983948,0.3438964784145355,0.1108663007616996,1.0765464305877686
1629880821755,0.8205304145812988,0.3418356478214264,0.1163599863648414,1.076440691947937
1629880821895,0.8234309554100037,0.3418356478214264,0.1182072237133979,1.0282130241394043
1629880821926,0.8464442491531372,0.3418356478214264,0.1198097243905067,0.8999485373497009
1629880822004,0.8825797438621521,0.3418356478214264,0.1198097243905067,0.8451919555664062
1629880822145,0.9255189299583436,0.3447446823120117,0.1216339543461799,0.9029833674430848
1629880822254,0.9572741389274596,0.3475253880023956,0.1332364976406097,0.9573943018913268
1629880822360,0.9673283696174622,0.3521966338157654,0.1865204870700836,1.0182228088378906
1629880822438,0.9759970903396606,0.3567249476909637,0.2301615327596664,1.0715768337249756
1629880822516,0.984064280986786,0.3569085299968719,0.2407619804143905,1.0981296300888062
1629880822641,0.9895991683006288,0.3569085299968719,0.2488258332014084,1.1203426122665403
1629880822784,0.9895991683006288,0.3569085299968719,0.2522116005420685,1.1268619298934937
1629880822862,0.9895991683006288,0.3457576632499695,0.2322999089956283,1.125967264175415
1629880822987,0.9895991683006288,0.3358097970485687,0.2036174237728119,1.1341627836227417
1629880823050,0.9895991683006288,0.3282746374607086,0.1938970237970352,1.133167386054993
1629880823143,0.9895991683006288,0.2187968492507934,0.1938970237970352,1.1447888612747192
1629880823268,0.9712786078453064,0.1107540503144264,0.1938970237970352,1.1574375629425049
1629880823409,0.9159149527549744,0.1058168932795524,0.1928385496139526,1.1834747791290283
1629880823472,0.8766450881958008,0.1014322936534881,0.189469113945961,1.196987509727478
1629880823565,0.8698669075965881,0.0914956778287887,0.200108140707016,1.1997227668762207
1629880823690,0.8821989297866821,0.073165014386177,0.2046214640140533,1.1997227668762207
1629880823786,0.906167209148407,0.0271821077913045,0.205505684018135,1.1997227668762207
1629880823864,0.8727734684944153,-0.0851142629981041,0.2072179615497589,1.1997227668762207
1629880824004,0.8230052590370178,-0.1578139960765838,0.2052472233772277,1.1874080896377563
1629880824083,0.7616906762123108,-0.222983717918396,0.1649317592382431,1.1721400022506714
1629880824192,0.7274283766746521,-0.2426325976848602,0.0868994072079658,1.1680208444595337
1629880824333,0.7364166378974915,-0.2381447404623031,0.0021684425882995,1.179412007331848
1629880824364,0.7492546439170837,-0.1644907891750335,-0.033846940845251,1.1711832284927368
1629880824473,0.7538846731185913,-0.1299581378698349,-0.055890567600727,1.1527527570724487
1629880824582,0.7580080032348633,-0.1299581378698349,-0.068037211894989,1.135639786720276
1629880824692,0.7712522149085999,-0.1299581378698349,-0.0542941465973854,1.1150386333465576
1629880824787,0.7916265726089478,-0.1299581378698349,0.0292250867933034,1.090914607048035
1629880824882,0.8073375225067139,-0.1299581378698349,0.0911885201930999,1.0844786167144775
1629880824960,0.8194391131401062,-0.1299581378698349,0.1122926250100135,1.0876498222351074
1629880825070,0.8378825187683105,-0.1299581378698349,0.1096251457929611,1.0748059749603271
1629880825242,0.8632729053497314,-0.1237374618649482,0.1096251457929611,1.0614027976989746
1629880825304,0.8957090973854065,-0.1237374618649482,0.1096251457929611,1.0587499141693115
1629880825382,0.9174593091011048,-0.1237374618649482,0.1138794869184494,1.0555076599121094
1629880825496,0.9756330251693726,-0.1237374618649482,0.1106923818588256,1.0624291896820068
1629880825574,1.0208367109298706,-0.1237374618649482,0.1011526584625244,1.0852649211883545
1629880825683,1.0298142433166504,-0.1278634369373321,0.0895847156643867,1.0955992937088013
1629880825838,1.0356593132019043,-0.1596192568540573,0.0551459044218063,1.0931800603866575
1629880825902,1.043760895729065,-0.2223630845546722,0.0147522017359733,1.0688070058822632
1629880826027,1.0635523796081543,-0.1222293898463249,0.0101447012275457,1.0478335618972778
1629880826102,1.0715694427490234,-0.0193730872124433,0.0188724230974912,1.0253962278366089
1629880826196,1.0715694427490234,0.037576075643301,0.0203345958143472,1.0224553346633911
1629880826310,1.0715694427490234,0.0400199927389621,0.0240470524877309,1.0224553346633911
1629880826434,1.0715694427490234,0.0442568808794021,0.0186858214437961,1.0224553346633911
1629880826526,1.0715694427490234,0.0617309957742691,-0.0270542223006486,1.0159943103790283
1629880826636,1.0715694427490234,0.0916352644562721,-0.1035017147660255,1.009774088859558
1629880826712,1.0715694427490234,0.101963423192501,-0.1605225503444671,0.9910519123077391
1629880826814,1.0715694427490234,0.1120148375630378,-0.1861492097377777,0.975382924079895
1629880826930,1.0724891424179075,0.1254489421844482,-0.1650778353214264,0.9580171704292296
1629880827033,1.0674240589141846,0.1692544519901275,-0.1143761277198791,0.9551590085029602
1629880827128,1.044685959815979,0.2257151454687118,-0.0921979919075965,0.9295060634613036
1629880827237,0.9988997578620912,0.2520495355129242,-0.0828505307435989,0.85608971118927
1629880827331,0.9522836804389954,0.2520495355129242,-0.0731598138809204,0.8362974524497986
1629880827440,0.8805451989173889,0.2520495355129242,-0.0731598138809204,0.8514378666877747
1629880827503,0.8652486205101013,0.2571912407875061,-0.0651803910732269,0.9058495163917542
1629880827693,0.8346144556999207,0.2697007954120636,-0.0453499741852283,0.9364169836044312
1629880827740,0.819725513458252,0.2730574905872345,-0.0285903736948966,0.9379417300224304
1629880827818,0.8139927983283997,0.2424784004688263,-0.0110294083133339,0.9457165002822876
1629880827960,0.7833890914916992,0.2105971723794937,0.0028913118876516,0.9470221400260924
1629880828024,0.7248216867446899,0.2043047398328781,0.0100244162604212,0.9422631859779358
1629880828135,0.6794130802154541,0.2052149027585983,0.0185626428574323,0.934638738632202
1629880828274,0.6457144021987915,0.2057704031467437,0.0124967694282531,0.9341552257537842
1629880828325,0.620378851890564,0.2057704031467437,0.0108169801533222,0.9341552257537842
1629880828450,0.6037915349006653,0.2032392621040344,0.0108169801533222,0.9376035928726196
1629880828528,0.5813015103340149,0.1792168319225311,0.013503841124475,0.9581573605537416
1629880828643,0.5651918649673462,0.1621462404727935,0.0104019194841384,0.9769052863121032
1629880828737,0.5715610980987549,0.1563618332147598,0.0380760878324508,0.998933970928192
1629880828862,0.5805907249450684,0.1248830929398536,0.0744898468255996,1.0386544466018677
1629880828940,0.594654381275177,0.0808761566877365,0.1298020929098129,1.0618473291397097
1629880829049,0.6846703886985779,0.0505053028464317,0.1706851869821548,1.0792511701583862
1629880829144,0.7600241303443909,0.0417321771383285,0.1772343963384628,1.0643844604492188
1629880829253,0.7663446068763733,0.0342606082558631,0.1781463027000427,1.037049412727356
1629880829378,0.7712436318397522,0.0208009127527475,0.1781463027000427,1.0235518217086792
1629880829472,0.773838996887207,0.0097168907523155,0.1770135015249252,1.0082799196243286
1629880829566,0.7796833515167236,0.0071975113824009,0.1695277392864227,0.992387592792511
1629880829675,0.7975868582725525,0.0081185633316636,0.1600253134965896,0.992387592792511
1629880829753,0.8489472270011902,-0.0064802304841578,0.1452737599611282,0.992387592792511
1629880829878,0.945566177368164,-0.0088615100830793,0.1312963664531707,0.992387592792511
1629880829956,1.0019162893295288,-0.00155486818403,0.1157564222812652,0.992387592792511
1629880830097,1.0053123235702517,0.0233324822038412,0.1017125397920608,1.0209494829177856
1629880830190,1.0053123235702517,0.0413657091557979,0.0960884466767311,1.0555124282836914
1629880830253,1.0053123235702517,0.0489802993834018,0.1349553018808365,1.082447528839111
1629880830362,1.0053123235702517,0.048326525837183,0.1409693360328674,1.0901808738708496
1629880830472,1.0053123235702517,0.0478533245623111,0.1234342604875564,1.121958613395691
1629880830612,1.0053123235702517,0.0373268835246562,0.0900810286402702,1.163820505142212
1629880830709,1.0049775838851929,0.0608642883598804,0.0354102663695812,1.166728377342224
1629880830802,0.985643982887268,0.075419470667839,-0.0152883036062121,1.1684821844100952
1629880830881,0.968339204788208,0.0713908821344375,-0.0382287874817848,1.1684821844100952
1629880830974,0.950343668460846,0.0756837725639343,-0.0404512546956539,1.1684821844100952
1629880831099,0.9497449398040771,0.0771517530083656,-0.0288291852921247,1.1684821844100952
1629880831162,0.9511089324951172,0.0768084153532981,-0.0058585414662957,1.1684821844100952
1629880831349,0.9511089324951172,0.0768084153532981,0.0216567069292068,1.1684821844100952
1629880831380,0.9511089324951172,0.0768084153532981,0.0303844884037971,1.1684821844100952
1629880831524,0.9140834212303162,0.0768084153532981,0.0455883778631687,1.1684821844100952
1629880831587,0.7922747135162354,0.073913037776947,0.0442497879266738,1.1512322425842283
1629880831680,0.6869294047355652,0.0600404478609561,0.0351835936307907,1.140450119972229
1629880831880,0.6886117458343506,0.0369824469089508,0.0272534508258104,1.1233402490615845
1629880831927,0.7327247262001038,0.0156366359442472,0.0189972799271345,1.110767126083374
1629880832036,0.7327247262001038,-0.001872532069683,-0.0097272051498293,1.1028650999069214
1629880832114,0.7327247262001038,-0.0059880004264414,0.0174365639686584,1.0923264026641846
1629880832208,0.7327247262001038,-0.0101886317133903,0.1131991669535636,1.0338314771652222
1629880832286,0.7327247262001038,-0.0341385714709758,0.1679631322622299,1.0130687952041626
1629880832411,0.729403018951416,-0.0761524140834808,0.1708229333162307,0.9972399473190308
1629880832569,0.7281315326690674,-0.1017705574631691,0.1708229333162307,0.9817461967468262
1629880832663,0.7320011258125305,-0.1429959237575531,0.1708229333162307,0.9681936502456664
1629880832772,0.7637062072753906,-0.1468641012907028,0.1708229333162307,0.9605412483215332
1629880832835,0.7854311466217041,-0.0998777225613594,0.1589285582304,0.980950117111206
1629880832929,0.7917400598526001,-0.0684910342097282,0.1404561102390289,0.9916008114814758
1629880832975,0.7872048616409302,-0.0678552463650703,0.1371508538722992,0.9633133411407472
1629880833132,0.7769025564193726,-0.0678552463650703,0.1371508538722992,0.9371360540390016
1629880833210,0.7998766899108887,-0.0678552463650703,0.1420776695013046,0.9253594875335692
1629880833319,0.8411542773246765,-0.0735712572932243,0.1634344011545181,0.9750091433525084
1629880833413,0.8582693338394165,-0.1071967333555221,0.1835512071847915,1.0681705474853516
1629880833507,0.8314501643180847,-0.1376606225967407,0.1885151416063308,1.096290111541748
1629880833663,0.8410641551017761,-0.1293126195669174,0.1902443319559097,1.1056538820266724
1629880833772,0.8461199998855591,-0.0921501368284225,0.2029913663864135,1.107998251914978
1629880833819,0.8461199998855591,-0.0655711516737937,0.204598993062973,1.1090679168701172
1629880833928,0.8574165105819702,-0.0599331185221672,0.1760894209146499,1.1081793308258057
1629880834069,0.8996449112892151,-0.0599331185221672,0.1254577189683914,1.1081061363220217
1629880834116,0.9278818368911744,-0.0599331185221672,0.0962452888488769,1.1081061363220217
1629880834210,0.9287286400794984,-0.0599331185221672,0.0899249538779258,1.1081061363220217
1629880834397,0.9267436861991882,-0.0599331185221672,0.0899249538779258,1.1081061363220217
1629880834460,0.9143429398536682,-0.0931255519390106,0.0899249538779258,1.1145416498184204
1629880834538,0.906818389892578,-0.0759154856204986,0.0899249538779258,1.1015112400054932
1629880834634,0.9054023623466492,-0.0342822186648845,0.0899249538779258,1.1015112400054932
1629880834743,0.8930341005325317,-0.0036601747851818,0.0899249538779258,1.1015112400054932
1629880834822,0.8805325627326965,0.0128901479765772,0.0899249538779258,1.1015112400054932
1629880834962,0.8455225229263306,0.0263896230608224,0.1032754033803939,1.0988144874572754
1629880835072,0.7981576919555664,0.0236715022474527,0.0966565907001495,1.0322918891906738
1629880835134,0.78209388256073,0.0082343546673655,0.0916724056005477,0.95673006772995
1629880835228,0.7696319818496704,0.0119100334122776,0.0880934298038482,0.8991003632545471
1629880835384,0.7596160173416138,0.0184958819299936,0.0851881876587867,0.9144951701164246
1629880835478,0.763460099697113,0.0062579945661127,0.0325777567923069,0.9636588096618652
1629880835587,0.8074317574501038,-0.0197965763509273,-0.057088479399681,1.0267316102981567
1629880835667,0.8612138032913208,-0.0127930389717221,-0.0879883840680122,1.1354646682739258
1629880835761,0.8449906706809998,0.0431624799966812,-0.0872985497117042,1.194194197654724
1629880835839,0.8028734922409058,0.0593884475529193,-0.0872985497117042,1.242401361465454
1629880835980,0.7654010057449341,0.0517069026827812,-0.0457660183310508,1.2598336935043335
1629880836011,0.7394244074821472,0.0482899583876132,0.0141021162271499,1.2617417573928833
1629880836183,0.7366748452186584,0.0467354543507099,0.037150852382183,1.2617417573928833
1629880836277,0.7366748452186584,0.0452549830079078,0.0416686460375785,1.2682300806045532
1629880836402,0.7366748452186584,0.0412186421453952,0.0495842844247818,1.2834672927856443
1629880836433,0.7366748452186584,0.0292891822755336,0.0663813427090644,1.2844914197921753
1629880836542,0.7366748452186584,0.0059491647407412,0.071714848279953,1.2844914197921753
1629880836653,0.754162073135376,0.005563442595303,0.0301734376698732,1.2844914197921753
1629880836781,0.771751344203949,0.005563442595303,0.0065563437528908,1.2844914197921753
1629880836890,0.7991015315055847,0.0071564209647476,0.0065563437528908,1.2844914197921753
1629880836952,0.8405365943908691,0.0218584090471267,0.0065563437528908,1.2844914197921753
1629880837077,0.904653787612915,0.0259473249316215,0.0065563437528908,1.2876591682434082
1629880837218,0.9694914221763612,0.0259473249316215,0.0065563437528908,1.2825783491134644
1629880837249,0.9950642585754396,0.0259473249316215,0.0064185704104602,1.2625298500061035
1629880837421,1.0014270544052124,-0.0027327672578394,0.0163496229797601,1.241466045379639
1629880837468,0.9958169460296632,-0.0129981450736522,0.039732314646244,1.218360424041748
1629880837577,0.9895545840263368,-0.0129981450736522,0.0511463172733783,1.1967095136642456
1629880837752,0.9855152368545532,-0.0064395163208246,0.0280738621950149,1.194855570793152
1629880837798,1.0031992197036743,-0.0026421539951115,-0.0137801403179764,1.1930832862854004
1629880837892,1.0183128118515017,0.0058173411525785,-0.0244909301400184,1.1772123575210571
1629880838002,1.0183128118515017,0.0089198173955082,-0.0283566080033779,1.1592655181884766
1629880838095,1.0183128118515017,0.0081599289551377,-0.0228404216468334,1.1598482131958008
1629880838220,1.0183128118515017,0.0105905681848526,-0.0254004914313554,1.1419384479522705
1629880838283,1.0183128118515017,0.0252303667366504,-0.0173698738217353,1.12375009059906
1629880838423,1.0479223728179932,0.1089038327336311,-0.0112961363047361,1.1228138208389282
1629880838504,1.1254465579986572,0.1728104799985885,-0.0043155523017048,1.159847617149353
1629880838644,1.1566907167434692,0.1837750077247619,0.0080777797847986,1.2052016258239746
1629880838691,1.1404531002044678,0.1843610554933548,0.0135051514953374,1.2456094026565552
1629880838832,1.1354557275772097,0.1911333352327346,0.0177386440336704,1.2847731113433838
1629880838894,1.1253759860992432,0.2039565593004226,0.0226831212639808,1.2886744737625122
1629880839004,1.1194833517074585,0.2335544824600219,0.0228761509060859,1.2886744737625122
1629880839066,1.1273759603500366,0.2400175333023071,0.0190035589039325,1.295116901397705
1629880839207,1.1295992136001587,0.2380440682172775,-0.0035505427513271,1.323122501373291
1629880839317,1.1295992136001587,0.2306815683841705,-0.024575937539339,1.3410788774490356
1629880839410,1.1258938312530518,0.2296115458011627,-0.0310344453901052,1.3394951820373535
1629880839520,1.1107014417648315,0.2296115458011627,-0.0211199894547462,1.3358075618743896
1629880839582,1.1101511716842651,0.232706606388092,-0.01406523399055,1.3185052871704102
1629880839723,1.1101511716842651,0.2458626627922058,-0.015744961798191,1.2864354848861694
1629880839879,1.1101511716842651,0.2495474070310592,-0.0115802977234125,1.274733304977417
1629880839941,1.11078941822052,0.2506052255630493,-0.0057506766170263,1.2866746187210083
1629880840004,1.1014533042907717,0.2444621920585632,-0.0057506766170263,1.2912440299987793
1629880840129,1.0806764364242554,0.2054530978202819,-0.0047849277034401,1.2912249565124512
1629880840238,1.0371047258377075,0.1070619001984596,-0.005761251784861,1.2912249565124512
1629880840348,0.9895731806755066,-0.0125747974961996,-0.006748950574547,1.274107813835144
1629880840488,0.9314269423484802,-0.1038321331143379,-0.0095572974532842,1.2307106256484983
1629880840519,0.9030157327651978,-0.1357573270797729,-0.0115523990243673,1.201350450515747
1629880840631,0.894972562789917,-0.120598167181015,-0.0201111584901809,1.1958214044570925
1629880840772,0.8769071102142334,-0.063919149339199,-0.0307274423539638,1.1906194686889648
1629880840866,0.8514788150787354,-0.0012103511253371,-0.0296581517904996,1.1787382364273071
1629880840913,0.8293932676315308,0.0558197051286697,-0.0006003283779136,1.1424955129623413
1629880841038,0.8122014403343201,0.0847436636686325,0.062877669930458,1.1453852653503418
1629880841178,0.8137344717979431,0.0847436636686325,0.1010608673095703,1.150936484336853
1629880841241,0.8133136630058289,0.0847436636686325,0.1061498597264289,1.1544759273529053
1629880841303,0.8081607222557068,0.0823626294732093,0.1048374772071838,1.1541035175323486
1629880841413,0.798686683177948,0.0772374868392944,0.0882563591003418,1.151173710823059
1629880841569,0.7968827486038208,0.0664553269743919,0.0636750012636184,1.1478432416915894
1629880841682,0.7968827486038208,0.06087102368474,0.0365791134536266,1.1454782485961914
1629880841776,0.7952239513397217,0.0602229312062263,0.0277928262948989,1.1459215879440308
1629880841885,0.7700423002243042,0.0598907954990863,0.027642548084259,1.1562925577163696
1629880841947,0.731829822063446,0.060968529433012,0.027642548084259,1.1779274940490725
1629880842026,0.7607337236404419,0.060968529433012,0.027642548084259,1.1722251176834106
1629880842135,0.7855838537216187,0.060968529433012,0.027642548084259,1.1794309616088867
1629880842260,0.7949451208114624,0.060968529433012,0.027642548084259,1.179535150527954
1629880842354,0.8059430718421936,0.0383938439190387,0.0200136955827474,1.178655028343201
1629880842447,0.8106696009635925,-0.0233217217028141,0.0037836090195924,1.1769088506698608
1629880842572,0.8066219687461853,-0.0692780166864395,-0.0095347575843334,1.1720820665359497
1629880842666,0.785574197769165,-0.1019897162914276,-0.0334243662655353,1.160083293914795
1629880842763,0.7514875531196594,-0.116175077855587,-0.1043686866760253,1.1374316215515137
1629880842872,0.7317153811454773,-0.1224028840661048,-0.1710419356822967,1.114796161651611
1629880843012,0.7285162210464478,-0.0937742739915847,-0.102084532380104,1.1140884160995483
1629880843059,0.7285162210464478,-0.0785390809178352,0.0219341218471527,1.1238268613815308
1629880843200,0.7285162210464478,-0.0785390809178352,0.1103055104613304,1.136403203010559
1629880843278,0.7393597960472107,-0.0789395198225975,0.1191896647214889,1.1556713581085205
1629880843403,0.7570337057113647,-0.0611939914524555,0.1189839318394661,1.1556713581085205
1629880843528,0.7715334892272949,-0.0559196546673774,0.1206114813685417,1.140823483467102
1629880843606,0.7787345051765442,-0.0439723283052444,0.1212205067276954,1.122079610824585
1629880843684,0.741989254951477,-0.0240383334457874,0.1212205067276954,1.0789097547531128
1629880843778,0.6842900514602661,-0.0205512382090091,0.1212205067276954,1.052838921546936
1629880843872,0.665527880191803,-0.0205512382090091,0.1212205067276954,1.0421327352523804
1629880843997,0.6403317451477051,-0.0205512382090091,0.1216401830315589,1.026415467262268
1629880844090,0.5870016813278198,-0.0198496710509061,0.1216401830315589,1.0211420059204102
1629880844215,0.5353614091873169,-0.0133950347080826,0.1216401830315589,1.014583706855774
1629880844309,0.5221357941627502,-0.0188069213181734,0.1155070215463638,1.0090388059616089
1629880844403,0.4773608446121216,-0.0245981439948081,0.1161976680159568,1.02516508102417
1629880844496,0.4363892674446106,-0.0286978483200073,0.121125191450119,1.0417574644088743
1629880844547,0.4300591647624969,-0.0548173636198043,0.1292850524187088,1.0503712892532349
1629880844687,0.4324036836624145,-0.1012221202254295,0.1217236071825027,1.0479930639266968
1629880844797,0.4571429193019867,-0.1012221202254295,0.039779145270586,1.0495620965957642
1629880844859,0.5087122321128845,-0.1012221202254295,-0.1012084409594535,1.0519180297851562
1629880844984,0.5445328950881958,-0.1154115423560142,-0.2427845150232315,1.0875885486602783
1629880845062,0.5397850275039673,-0.110764093697071,-0.3329009711742401,1.132550835609436
1629880845219,0.5323082208633423,-0.0654964372515678,-0.3112118542194366,1.1514796018600464
1629880845297,0.5332708358764648,-0.0305513236671686,-0.2764888107776642,1.153816819190979
1629880845390,0.5332708358764648,-0.0126102203503251,-0.2751722633838653,1.153816819190979
1629880845484,0.5411974191665649,0.0062454412691295,-0.2717835009098053,1.153816819190979
1629880845593,0.5770397782325745,0.053519781678915,-0.22235007584095,1.1521258354187012
1629880845707,0.6610552072525024,0.0608412846922874,-0.1591635942459106,1.1482208967208862
1629880845784,0.7668018341064453,0.0571915321052074,-0.1487762182950973,1.1465057134628296
1629880845925,0.9041264057159424,0.0390730090439319,-0.1035641729831695,1.1289165019989014
1629880846036,1.0023703575134275,0.0268153995275497,-0.0427580066025257,1.1372054815292358
1629880846153,1.0310240983963013,0.023346921429038,-0.0246458668261766,1.1492794752120972
1629880846238,1.0335336923599243,0.023346921429038,-0.0169709809124469,1.1498514413833618
1629880846300,1.0368996858596802,0.0247314367443323,-0.006289420183748,1.1498514413833618
1629880846410,1.0368996858596802,0.024909384548664,0.002327962545678,1.1533572673797607
1629880846564,1.0384202003479004,0.024909384548664,0.0046713496558368,1.1511403322219849
1629880846663,1.044186234474182,0.024909384548664,0.0046713496558368,1.131600856781006
1629880846726,1.0467315912246704,0.0254425555467605,0.0046713496558368,1.1071630716323853
1629880846835,1.0499825477600098,0.021252604201436,0.0049580098129808,1.0954753160476685
1629880846929,1.0512181520462036,0.007471629884094,0.0092146173119544,1.1266825199127195
1629880847053,1.0517547130584717,-0.0282922331243753,0.0220037307590246,1.1524171829223633
1629880847140,1.0537186861038208,-0.0945869237184524,0.0485526546835899,1.1808632612228394
1629880847249,1.0550620555877686,-0.2056760340929031,0.0766666829586029,1.1849513053894043
1629880847343,1.0550620555877686,-0.3023004531860351,0.0929876491427421,1.1849513053894043
1629880847436,1.071772813796997,-0.3276979625225067,0.1009369939565658,1.184088110923767
1629880847546,1.1397374868392944,-0.3276979625225067,0.1009369939565658,1.2269831895828247
1629880847608,1.1813451051712036,-0.3029273450374603,0.0691176950931549,1.2889705896377563
1629880847752,1.1796857118606567,-0.240415409207344,0.017363604158163,1.3258790969848633
1629880847892,1.17320716381073,-0.1837088018655777,0.0094511779025197,1.3258790969848633
1629880847939,1.1671019792556765,-0.1835982501506805,0.0044673243537545,1.3258790969848633
1629880848017,1.1654622554779053,-0.2197994291782379,-0.0112079204991459,1.3258790969848633
1629880848126,1.1654622554779053,-0.2451180219650268,-0.0028799681458622,1.3248584270477295
1629880848205,1.1654622554779053,-0.2030443549156189,0.0049997977912425,1.3248584270477295
1629880848408,1.1654622554779053,-0.1343217343091964,0.0091245900839567,1.3248584270477295
1629880848454,1.1660035848617554,-0.0436771549284458,0.0160817578434944,1.3248584270477295
1629880848582,1.1710463762283323,0.0583618581295013,0.0160817578434944,1.3248584270477295
1629880848664,1.170259714126587,0.1023022755980491,0.0109498025849461,1.3248584270477295
1629880848742,1.201712965965271,0.1023022755980491,-0.0182920917868614,1.3229721784591677
1629880848836,1.266024827957153,0.1023022755980491,-0.0551354326307773,1.348177433013916
1629880848961,1.3055561780929563,0.1023022755980491,-0.0645494610071182,1.3715415000915527
1629880849054,1.3243566751480105,0.1023022755980491,-0.081706628203392,1.3745367527008057
1629880849132,1.321523904800415,0.1023022755980491,-0.077755220234394,1.3684457540512085
1629880849273,1.3406193256378174,0.1023022755980491,-0.070230945944786,1.3369208574295044
1629880849351,1.3406193256378174,0.095546968281269,-0.0578887350857257,1.3100666999816897
1629880849460,1.3464971780776978,0.0699182152748107,-0.0566192381083965,1.3019418716430664
1629880849570,1.3662327527999878,0.0474656336009502,-0.0580576583743095,1.2939642667770386
1629880849665,1.375549554824829,0.0389114394783973,-0.055046621710062,1.2939599752426147
1629880849791,1.376425862312317,0.0741689652204513,-0.0366748161613941,1.2865551710128784
1629880849854,1.376425862312317,0.1141225397586822,-0.0259953401982784,1.306487202644348
1629880849947,1.376425862312317,0.1492870599031448,-0.0247893258929252,1.3493773937225342
1629880850072,1.3793249130249023,0.170898824930191,-0.0256187170743942,1.3968981504440308
1629880850211,1.3897383213043213,0.141795352101326,-0.007660555653274,1.4349453449249268
1629880850289,1.3961697816848757,0.0909011587500572,0.0308126714080572,1.44849693775177
1629880850430,1.398128867149353,0.1046624034643173,0.033400684595108,1.447196364402771
1629880850508,1.398128867149353,0.1321732401847839,0.0360910110175609,1.439667582511902
1629880850586,1.3875598907470703,0.153432622551918,0.0384987853467464,1.4086307287216189
1629880850696,1.341057062149048,0.153432622551918,0.0451146140694618,1.3551143407821655
1629880850811,1.245408296585083,0.153432622551918,0.0963595286011695,1.30502188205719
1629880850905,1.1561532020568848,0.1531361937522888,0.1229367554187774,1.300919771194458
1629880850983,1.1282672882080078,0.1484587043523788,0.130751296877861,1.2897592782974243
1629880851092,1.1238411664962769,0.1445667445659637,0.130751296877861,1.2865132093429563
1629880851186,1.1238411664962769,0.1445667445659637,0.130751296877861,1.285651683807373
1629880851295,1.1192082166671753,0.1445667445659637,0.130751296877861,1.2806912660598757
1629880851420,1.1015677452087402,0.1462279707193374,0.1182487979531288,1.2806912660598757
1629880851498,1.1015677452087402,0.1611987501382827,0.1024105474352836,1.2806912660598757
1629880851610,1.1015677452087402,0.2255396246910095,0.0986048057675361,1.2806912660598757
1629880851688,1.0892610549926758,0.2580152750015259,0.0986048057675361,1.271409273147583
1629880851798,1.0753878355026243,0.2408311516046524,0.0974234342575073,1.224595069885254
1629880851907,1.0358511209487915,0.2402494251728058,0.0853866562247276,1.1762076616287231
1629880852032,0.9907523989677428,0.2375378161668777,0.0824849009513855,1.1716928482055664
1629880852157,0.9300544261932372,0.2152533531188964,0.0836645513772964,1.212632417678833
1629880852235,0.8377671837806702,0.1981616020202636,0.0885934308171272,1.2662960290908811
1629880852313,0.7927291393280029,0.1920296102762222,0.0781446546316146,1.2949789762496948
1629880852454,0.8251823782920837,0.1889306604862213,0.0250387638807296,1.3004615306854248
1629880852532,0.8619550466537476,0.2046377658843994,-0.0613390021026134,1.3004615306854248
1629880852672,0.9324582815170288,0.2387724369764328,-0.110686756670475,1.2951716184616089
1629880852816,0.9610933661460876,0.2750971019268036,-0.110898271203041,1.2951716184616089
1629880852894,0.97905695438385,0.3103033304214477,-0.1076031029224395,1.2951716184616089
1629880852956,0.990651309490204,0.3324343264102936,-0.0971588343381881,1.2951716184616089
1629880853003,0.9902464747428894,0.344625324010849,-0.0848403722047805,1.2951716184616089
1629880853081,0.9904499650001526,0.3586645126342773,-0.0328333154320716,1.29512619972229
1629880853253,0.9891412258148192,0.351044088602066,-0.0017575008096173,1.2855689525604248
1629880853347,0.988372266292572,0.2987847328186035,0.0504365041851997,1.2962050437927246
1629880853409,0.9927624464035034,0.2670965790748596,0.1131924986839294,1.324394941329956
1629880853519,1.0040949583053589,0.2670965790748596,0.151434376835823,1.3503919839859009
1629880853646,1.0072461366653442,0.26090207695961,0.1656650900840759,1.3504674434661863
1629880853725,1.0037466287612915,0.2501898109912872,0.165067434310913,1.332882523536682
1629880853834,1.020995855331421,0.2176600396633148,0.165067434310913,1.3182936906814575
1629880853943,1.0238090753555298,0.1837510615587234,0.165067434310913,1.2833722829818726
1629880854053,1.0188512802124023,0.1828199923038482,0.165067434310913,1.24444842338562
1629880854131,1.0188512802124023,0.2063809037208557,0.165067434310913,1.2271026372909546
1629880854224,1.004624605178833,0.2350360453128814,0.165067434310913,1.2267522811889648
1629880854340,0.9794492721557616,0.2510723769664764,0.165067434310913,1.2267522811889648
1629880854449,0.957718014717102,0.2395208179950714,0.165067434310913,1.2267522811889648
1629880854590,0.9202799201011658,0.1886304020881652,0.165067434310913,1.2261409759521484
1629880854671,0.8822619915008545,0.1595510393381118,0.1594401597976684,1.2261409759521484
1629880854749,0.8696409463882446,0.1282364875078201,0.1376958191394806,1.2228243350982666
1629880854827,0.8695625066757202,0.1163313686847686,0.0682771876454353,1.2172510623931885
1629880854952,0.8695625066757202,0.1074609905481338,0.0446105897426605,1.1934398412704468
1629880855093,0.8698046803474426,0.1039923205971717,0.0332155488431453,1.1359912157058716
1629880855186,0.8770846128463745,0.1097602322697639,-0.0048355404287576,1.098026156425476
1629880855233,0.8868116140365601,0.1319693624973297,-0.0515317432582378,1.0801714658737185
1629880855421,0.8928950428962708,0.165654718875885,-0.0912493467330932,1.0910913944244385
1629880855467,0.8743912577629089,0.1780294328927993,-0.0971659719944,1.1150506734848022
1629880855546,0.8844788670539856,0.1699886471033096,-0.0668852254748344,1.122316598892212
1629880855670,1.001631259918213,0.1592154204845428,-0.020874410867691,1.1106396913528442
1629880855764,1.1200058460235596,0.1789200454950332,-0.020874410867691,1.1394684314727783
1629880855889,1.151942253112793,0.226262167096138,-0.0262550711631774,1.1696033477783203
1629880856014,1.151942253112793,0.2711688578128814,-0.0335406363010406,1.1916717290878296
1629880856045,1.151942253112793,0.2739485502243042,-0.0383145809173584,1.2014386653900146
1629880856170,1.151942253112793,0.271675169467926,-0.0393372066318988,1.2009124755859375
1629880856327,1.151942253112793,0.271675169467926,-0.0403550118207931,1.214941143989563
1629880856358,1.151942253112793,0.271675169467926,-0.0454303100705146,1.214941143989563
1629880856483,1.151942253112793,0.271675169467926,-0.0542543567717075,1.214941143989563
1629880856592,1.151942253112793,0.271675169467926,-0.0425542965531349,1.214941143989563
1629880856673,1.151942253112793,0.271675169467926,-0.0384935215115547,1.214941143989563
1629880856798,1.1489113569259644,0.271675169467926,-0.0151048088446259,1.2037687301635742
1629880856939,1.1444107294082642,0.271675169467926,0.0110088158398866,1.2003886699676514
1629880857017,1.138219118118286,0.252494215965271,-0.0011195237748324,1.199472188949585
1629880857095,1.1322555541992188,0.2117267251014709,-0.0012134205317124,1.1945934295654297
