timestamp,TP9,AF7,AF8,TP10
1629880721688,0.6918985843658447,0.2391586154699325,0.1024874895811081,0.8322784304618835
1629880721798,0.6918985843658447,0.2279732972383499,0.0877391919493675,0.8322784304618835
1629880721891,0.6918985843658447,0.2222881466150283,0.0707358419895172,0.8322784304618835
1629880722001,0.6918985843658447,0.2195406705141067,0.0581663586199283,0.8322784304618835
1629880722110,0.6918985843658447,0.2162505984306335,0.0507620349526405,0.8322784304618835
1629880722235,0.6918985843658447,0.2094945758581161,0.06210208684206,0.8896490931510925
1629880722344,0.4172397255897522,0.1526356786489486,0.0695219114422798,0.8721612691879272
1629880722407,0.4323952198028564,0.1012394577264785,0.0721249729394912,0.8621309995651245
1629880722501,0.4740733802318573,0.0698662251234054,0.0716245546936988,0.8592444062232971
1629880722579,0.5277926921844482,0.0582618117332458,0.0694180876016616,0.864486038684845
1629880722725,0.5793555378913879,0.056267213076353,0.0615597888827323,0.8740626573562622
1629880722819,0.6221444010734558,0.0571816153824329,0.0404736548662185,0.8795406818389893
1629880722897,0.651405930519104,0.0616260506212711,0.0032520343083888,0.881382405757904
1629880723022,0.6699696779251099,0.0736424773931503,-0.0418738797307014,0.8796918988227844
1629880723100,0.683189868927002,0.0928311198949813,-0.0745260789990425,0.875804603099823
1629880723241,0.688845694065094,0.1127239167690277,-0.0800703912973404,0.8713982105255127
1629880723319,0.685286283493042,0.1249017789959907,-0.0665759667754173,0.8627305626869202
1629880723428,0.6740238070487976,0.1251100748777389,-0.051755778491497,0.8471446633338928
1629880723522,0.6812801361083984,0.1173090860247612,-0.0446650832891464,0.8418233394622803
1629880723647,0.6970440745353699,0.109529010951519,-0.0432162247598171,0.8378328084945679
1629880723716,0.7180196046829224,0.1070992946624755,-0.0417358689010143,0.8373987674713135
1629880723810,0.739348828792572,0.1091151162981987,-0.0382125750184059,0.8411223888397217
1629880723904,0.7580124139785767,0.1106937676668167,-0.0326799266040325,0.8442832827568054
1629880724107,0.7695350050926208,0.1079201102256774,-0.0253625959157943,0.8445903062820435
1629880724154,0.7709853649139404,0.099080666899681,-0.0161033309996128,0.8372106552124023
1629880724294,0.7617484331130981,0.0844841971993446,-0.0062647704035043,0.819579541683197
1629880724372,0.7417998313903809,0.0658849328756332,0.0023471124004572,0.799009382724762
1629880724419,0.7160057425498962,0.0442751310765743,0.0075402781367301,0.7758170962333679
1629880724529,0.6849814057350159,0.0171169526875019,0.0077924402430653,0.7517410516738892
1629880724673,0.6849814057350159,-0.0169655047357082,0.001214581541717,0.7517410516738892
1629880724766,0.6849814057350159,-0.0547248721122741,-0.0119898729026317,0.7517410516738892
1629880724844,0.6849814057350159,-0.0889760181307792,-0.0264899395406246,0.7517410516738892
1629880724938,0.6849814057350159,-0.1158883646130561,-0.0356454439461231,0.7517410516738892
1629880725016,0.6849814057350159,-0.1400936245918274,-0.0376502685248851,0.687611997127533
1629880725141,0.3432553708553314,-0.1667376905679702,-0.0374632626771926,0.675173282623291
1629880725266,0.3611326515674591,-0.1931560486555099,-0.0414855554699897,0.6797246336936951
1629880725376,0.3742049038410187,-0.2126408666372299,-0.0524882078170776,0.6940757632255554
1629880725485,0.3742049038410187,-0.2203066647052765,-0.071344755589962,0.7064334154129028
1629880725563,0.3742049038410187,-0.2183903306722641,-0.0988002717494964,0.7078179121017456
1629880725657,0.3742049038410187,-0.2095710039138794,-0.1350766569375991,0.7019705772399902
1629880725768,0.3742049038410187,-0.1930452734231948,-0.175244927406311,0.6956114768981934
1629880725925,0.3742049038410187,-0.1690439283847808,-0.2091780602931976,0.6973881125450134
1629880725956,0.3742049038410187,-0.1439755856990814,-0.2285594642162323,0.7042107582092285
1629880726050,0.3742049038410187,-0.1256121098995208,-0.2349122315645218,0.7099551558494568
1629880726143,0.3742049038410187,-0.1174451559782028,-0.2358833402395248,0.7099551558494568
1629880726253,0.3742049038410187,-0.1149848401546478,-0.2370353639125824,0.7036113142967224
1629880726346,0.3806760609149933,-0.1072699204087257,-0.2404043227434158,0.7015498280525208
1629880726489,0.3974292874336242,-0.0872729793190956,-0.2467311024665832,0.7076783776283264
1629880726591,0.3974292874336242,-0.0601073279976844,-0.2522575855255127,0.7185801863670349
1629880726685,0.3974292874336242,-0.0371282026171684,-0.2483307719230651,0.72813880443573
1629880726813,0.3974292874336242,-0.0254010744392871,-0.2304884642362594,0.7313225269317627
1629880726904,0.3974292874336242,-0.0236642006784677,-0.2049079090356826,0.7252743244171143
1629880726952,0.3974292874336242,-0.0262368917465209,-0.1812765449285507,0.7146068215370178
1629880727122,0.3974292874336242,-0.0286644212901592,-0.1641333252191543,0.7137758731842041
1629880727200,0.3974292874336242,-0.0304216369986534,-0.1526941508054733,0.7292970418930054
1629880727281,0.3974292874336242,-0.0334626547992229,-0.1459207534790039,0.7292970418930054
1629880727420,0.3974292874336242,-0.0392731018364429,-0.1453355401754379,0.7292970418930054
1629880727466,0.3974292874336242,-0.0459612198173999,-0.1511676162481308,0.7292970418930054
1629880727545,0.3974292874336242,-0.0497757904231548,-0.1609417349100113,0.7292970418930054
1629880727758,0.3974292874336242,-0.0489773713052272,-0.171604499220848,0.7292970418930054
1629880727806,0.3974292874336242,-0.0468309484422206,-0.1819589287042617,0.7292970418930054
1629880727883,0.3974292874336242,-0.0508603453636169,-0.1922160238027572,0.7292970418930054
1629880727961,0.3974292874336242,-0.0658612996339798,-0.2025797069072723,0.7292970418930054
1629880728071,0.3974292874336242,-0.0878107696771621,-0.2163081616163253,0.7292970418930054
1629880728167,0.3709958493709564,-0.1050309017300605,-0.2390916645526886,0.6690619587898254
1629880728353,0.3794553279876709,-0.1078362241387367,-0.2717966437339782,0.6930059790611267
1629880728405,0.3691945970058441,-0.0975105836987495,-0.3035131692886352,0.7133817672729492
1629880728497,0.3555484712123871,-0.0830006971955299,-0.3189719021320343,0.7285020351409912
1629880728640,0.3500808179378509,-0.0716260224580764,-0.3127872943878174,0.7383747696876526
1629880728716,0.3576100170612335,-0.0658737272024154,-0.2962385714054107,0.7478080987930298
1629880728796,0.3735644221305847,-0.0657084882259368,-0.2836348712444305,0.756110668182373
1629880728941,0.3900205790996551,-0.0690336599946022,-0.2798919975757599,0.7580474615097046
1629880729003,0.3983261585235595,-0.0722089633345604,-0.2830268442630768,0.7523741126060486
1629880729097,0.3983261585235595,-0.0721068456768989,-0.2882692813873291,0.7523741126060486
1629880729191,0.3983261585235595,-0.0672062560915947,-0.2921445071697235,0.7523741126060486
1629880729302,0.3983261585235595,-0.0583236739039421,-0.2947087585926056,0.7523741126060486
1629880729382,0.413252979516983,-0.0478259064257144,-0.2957810461521148,0.759698748588562
1629880729542,0.4212632775306701,-0.0377432629466056,-0.2940835654735565,0.7716124057769775
1629880729655,0.4190080761909485,-0.0280803479254245,-0.287480741739273,0.7830104827880859
1629880729748,0.4113722741603851,-0.0192096028476953,-0.2774437069892883,0.788714587688446
1629880729812,0.411320298910141,-0.0134619185701012,-0.2687828540802002,0.7903035283088684
1629880729939,0.4256258606910705,-0.0136963166296482,-0.2671332657337188,0.7881521582603455
1629880730017,0.4519135653972626,-0.0196460131555795,-0.2754786014556885,0.7837331891059875
1629880730155,0.4812126457691192,-0.0268229786306619,-0.2942675054073334,0.7790876030921936
1629880730233,0.4812126457691192,-0.0294253155589103,-0.3188003003597259,0.7790876030921936
1629880730296,0.4812126457691192,-0.023547314107418,-0.3383760750293731,0.7790876030921936
1629880730436,0.4812126457691192,-0.0100262686610221,-0.3437132239341736,0.7790876030921936
1629880730514,0.4812126457691192,0.0046460307203233,-0.3347598910331726,0.7790876030921936
1629880730577,0.6727718710899353,0.0125021114945411,-0.3188892602920532,0.7790876030921936
1629880730751,0.6601839065551758,0.0088940849527716,-0.3019823133945465,0.676978588104248
1629880730845,0.6341168284416199,-0.004983726888895,-0.2822421491146087,0.6739658713340759
1629880730923,0.6050295233726501,-0.0239593517035245,-0.2573888003826141,0.6674505472183228
1629880731048,0.5777406096458435,-0.0423429869115352,-0.229642629623413,0.6670591831207275
1629880731126,0.5558578968048096,-0.0578311495482921,-0.2046912759542465,0.6856860518455505
1629880731204,0.5425715446472168,-0.0712093561887741,-0.1853271871805191,0.7143637537956238
1629880731376,0.5369397401809692,-0.0812279433012008,-0.1681845635175705,0.7411796450614929
1629880731439,0.5347436666488647,-0.0824214816093444,-0.146748885512352,0.7583968639373779
1629880731579,0.5320233702659607,-0.072858452796936,-0.1190737262368202,0.762658417224884
1629880731626,0.5274079442024231,-0.0597296245396137,-0.0898709148168563,0.7548573613166809
1629880731769,0.5217080116271973,-0.053522303700447,-0.0642296969890594,0.7430324554443359
1629880731863,0.5136551856994629,-0.0593092963099479,-0.0432803593575954,0.733066976070404
1629880731988,0.4996803402900696,-0.073129765689373,-0.0250020399689674,0.7385731935501099
1629880732097,0.4751810133457184,-0.0855439528822898,-0.007595878560096,0.7421714663505554
1629880732160,0.4483979046344757,-0.0896509513258934,0.0080601712688803,0.7460060715675354
1629880732241,0.4307956099510193,-0.0858817473053932,0.0206756629049778,0.7517911195755005
1629880732338,0.426295131444931,-0.0792480036616325,0.0308719091117382,0.7598517537117004
1629880732432,0.4319558441638946,-0.0725343152880668,0.040462102741003,0.7718797326087952
1629880732619,0.4519648253917694,-0.0659767240285873,0.050306499004364,0.7835923433303833
1629880732714,0.4698900878429413,-0.0611268915235996,0.0584751777350902,0.7815566658973694
1629880732778,0.4828004240989685,-0.0609469749033451,0.0618151053786277,0.7596930861473083
1629880732872,0.4921152889728546,-0.0678976774215698,0.0583108849823474,0.6970259547233582
1629880732982,0.5010195970535278,-0.0827006325125694,0.047723788768053,0.6266188621520996
1629880733075,0.5085240006446838,-0.1029183864593505,0.0315274521708488,0.5664294362068176
1629880733216,0.5139524936676025,-0.1222006753087043,0.0133526418358087,0.5480148792266846
1629880733278,0.5243900418281555,-0.1341985911130905,-0.003872905857861,0.5475149154663086
1629880733388,0.5389673709869385,-0.1386298984289169,-0.0201701540499925,0.5475149154663086
1629880733481,0.5389673709869385,-0.1417257338762283,-0.03787063062191,0.5475149154663086
1629880733560,0.5389673709869385,-0.1494176089763641,-0.057754561305046,0.5475149154663086
1629880733731,0.5389673709869385,-0.160898208618164,-0.0764033421874046,0.5475149154663086
1629880733812,0.5389673709869385,-0.1696408540010452,-0.0898300111293792,0.5475149154663086
1629880733875,0.5389673709869385,-0.1693120300769806,-0.1005320399999618,0.5475149154663086
1629880734015,0.5389673709869385,-0.1591258347034454,-0.1158255487680435,0.5475149154663086
1629880734078,0.5451158285140991,-0.1434127390384674,-0.1399695128202438,0.5475149154663086
1629880734203,0.5550658702850342,-0.1254140436649322,-0.1684649139642715,0.5475149154663086
1629880734265,0.5550658702850342,-0.1055306419730186,-0.1929528564214706,0.5475149154663086
1629880734421,0.5550658702850342,-0.0834606289863586,-0.2099168300628662,0.5475149154663086
1629880734548,0.5550658702850342,-0.0619428642094135,-0.2221637666225433,0.5475149154663086
1629880734642,0.5550658702850342,-0.0452491864562034,-0.2293972074985504,0.5475149154663086
1629880734720,0.5550658702850342,-0.03527058288455,-0.226282849907875,0.5475149154663086
1629880734798,0.4291020333766937,-0.0297862235456705,-0.2088755816221237,0.804065465927124
1629880734939,0.454131543636322,-0.0247736796736717,-0.1806957125663757,0.7734720706939697
1629880735017,0.471004843711853,-0.0200556721538305,-0.1503581553697586,0.7479645013809204
1629880735111,0.4774945974349975,-0.0182966757565736,-0.1254377961158752,0.7283806800842285
1629880735220,0.4768282473087311,-0.0207259636372327,-0.109671875834465,0.7088358998298645
1629880735314,0.4746476411819458,-0.0258639231324195,-0.1036375313997268,0.6849534511566162
1629880735408,0.4694049656391144,-0.0314626730978488,-0.1047426164150238,0.6582123637199402
1629880735486,0.4621008336544037,-0.0361237041652202,-0.1088177412748336,0.6336053609848022
1629880735680,0.4544158577919006,-0.0382777117192745,-0.1123806238174438,0.615152895450592
1629880735727,0.4480566084384918,-0.0376553945243358,-0.1139805987477302,0.6071947813034058
1629880735805,0.4457829594612121,-0.0370367318391799,-0.1131329536437988,0.614878237247467
1629880735915,0.4460036158561706,-0.0403855219483375,-0.1099968180060386,0.6317409873008728
1629880736008,0.4507089257240295,-0.0483359396457672,-0.1054660230875015,0.6284424662590027
1629880736110,0.4538244307041168,-0.0572899840772151,-0.1021570712327957,0.6267675161361694
1629880736243,0.4521718621253967,-0.063612513244152,-0.1042677536606788,0.6279899477958679
1629880736344,0.4439235031604767,-0.0672263875603675,-0.1140907853841781,0.6311215162277222
1629880736441,0.42962846159935,-0.0707687214016914,-0.129133328795433,0.636486291885376
1629880736494,0.4108823835849762,-0.0744913220405578,-0.1419290453195572,0.6404240727424622
1629880736639,0.3918011486530304,-0.0756884142756462,-0.1463697701692581,0.6449550986289978
1629880736693,0.3765551149845123,-0.0723467320203781,-0.1430493742227554,0.6534379720687866
1629880736842,0.364058256149292,-0.0660430490970611,-0.1382234841585159,0.6675029993057251
1629880736936,0.3561410903930664,-0.0606282986700534,-0.1373638808727264,0.6892752647399902
1629880737045,0.3551617264747619,-0.0599685125052928,-0.1420290023088455,0.719199001789093
1629880737123,0.3644801378250122,-0.0649526715278625,-0.1521227061748504,0.7525904774665833
1629880737224,0.3858716785907745,-0.0740337669849395,-0.1669640094041824,0.7810899615287781
1629880737324,0.4118433892726898,-0.0848055556416511,-0.1836224198341369,0.7974191308021545
1629880737495,0.433079719543457,-0.0969687700271606,-0.1975504010915756,0.8015215992927551
1629880737557,0.4458723664283752,-0.1093931496143341,-0.2065541744232177,0.7985472679138184
1629880737657,0.4508695900440216,-0.1182536408305168,-0.2136014699935913,0.7943941354751587
1629880737752,0.45040363073349,-0.1203952059149742,-0.2228792160749435,0.791561484336853
1629880737833,0.4472581148147583,-0.1188448965549469,-0.2365428507328033,0.7910364270210266
1629880737953,0.4433989822864532,-0.1196497902274131,-0.256114661693573,0.7919485569000244
1629880738077,0.4419625699520111,-0.1268795579671859,-0.2847453951835632,0.7944555282592773
1629880738236,0.4459405243396759,-0.1393167823553085,-0.3235713541507721,0.794255256652832
1629880738293,0.4537310302257538,-0.1536948382854461,-0.3686984777450561,0.7904869318008423
1629880738355,0.4619728326797485,-0.1675159186124801,-0.4103399813175201,0.7849544286727905
1629880738433,0.4668713510036468,-0.1807554364204406,-0.440188318490982,0.7755646109580994
1629880738556,0.4684231877326965,-0.1927734017372131,-0.454556405544281,0.7572308778762817
1629880738681,0.4699777662754059,-0.2019366025924682,-0.4516442120075226,0.7305821776390076
1629880738759,0.4702056050300598,-0.2061506509780883,-0.4305554032325744,0.7017269730567932
1629880738852,0.4660838544368744,-0.2047832757234573,-0.3964956104755401,0.6767123341560364
1629880739009,0.4573796987533569,-0.1980387270450592,-0.3595577180385589,0.6590756177902222
1629880739071,0.4481840431690216,-0.1880807280540466,-0.3268037736415863,0.6479126811027527
1629880739165,0.4414988458156585,-0.1785534173250198,-0.2982772588729858,0.6389085650444031
1629880739279,0.4393757283687591,-0.1713943630456924,-0.2703648805618286,0.6284764409065247
1629880739388,0.4408287107944488,-0.1648150235414505,-0.2424571365118026,0.6152317523956299
1629880739497,0.4449342787265777,-0.1558087468147277,-0.2177753448486328,0.5996800065040588
1629880739575,0.4486430287361145,-0.1428406983613968,-0.2002283632755279,0.5847115516662598
1629880739638,0.4496479332447052,-0.1264621764421463,-0.1889456957578659,0.5748820900917053
1629880739796,0.4486887454986572,-0.1079761609435081,-0.177932322025299,0.5740876197814941
1629880739953,0.4485940635204315,-0.0911838561296463,-0.1625949740409851,0.5787535905838013
1629880739999,0.4530229866504669,-0.0803570300340652,-0.144459530711174,0.5846591591835022
1629880740082,0.4589844942092895,-0.0781297236680984,-0.1297869086265564,0.5910310745239258
1629880740185,0.4577159583568573,-0.0839620754122734,-0.1232930943369865,0.5950224995613098
1629880740281,0.4444926381111145,-0.0951335504651069,-0.1263074576854705,0.5962769389152527
1629880740359,0.4213468730449676,-0.1083076447248458,-0.1372694075107574,0.5942317843437195
1629880740517,0.3984406888484955,-0.1201300024986267,-0.1516945511102676,0.5932386517524719
1629880740639,0.3831154406070709,-0.1271143853664398,-0.1631967574357986,0.5966153740882874
1629880740702,0.3769274353981018,-0.1273085623979568,-0.1684433221817016,0.6059672236442566
1629880740777,0.3780649900436401,-0.1235950738191604,-0.1709714978933334,0.6187463998794556
1629880740921,0.382932037115097,-0.1220902875065803,-0.1767024844884872,0.6282197833061218
1629880740968,0.3870711624622345,-0.1279194205999374,-0.1870757341384887,0.6344879865646362
1629880741140,0.3884918987751007,-0.1404596120119094,-0.197741761803627,0.6375348567962646
1629880741234,0.3864162862300873,-0.1555715203285217,-0.2065420895814895,0.6372594237327576
1629880741296,0.3832397758960724,-0.1701753437519073,-0.2178557962179184,0.6333451867103577
1629880741390,0.3835808038711548,-0.1824812889099121,-0.2364502549171447,0.6297746896743774
1629880741484,0.3873642385005951,-0.1899745911359787,-0.2592974603176117,0.6311979293823242
1629880741565,0.3897874057292938,-0.190794751048088,-0.276402086019516,0.6367488503456116
1629880741721,0.3870080411434173,-0.185874193906784,-0.2801249325275421,0.6447123289108276
1629880741830,0.3784343898296356,-0.1772344410419464,-0.2721554338932037,0.651656985282898
1629880741955,0.370087593793869,-0.1641646176576614,-0.2599067389965057,0.6578329801559448
1629880742002,0.3661360740661621,-0.1463786959648132,-0.2497332394123077,0.6612647771835327
1629880742143,0.3650487959384918,-0.1299715340137481,-0.2454738318920135,0.6582930088043213
1629880742221,0.3635247051715851,-0.1234402582049369,-0.2457426637411117,0.6518035531044006
1629880742377,0.3592148721218109,-0.128263384103775,-0.2428945451974868,0.6436364054679871
1629880742424,0.3523215651512146,-0.1354175060987472,-0.2305997610092163,0.6417655944824219
1629880742533,0.3475333750247955,-0.1322624385356903,-0.2113403081893921,0.657349705696106
1629880742583,0.3473490178585052,-0.1143426746129989,-0.1928893029689788,0.6761518120765686
1629880742692,0.3498781323432922,-0.0876843705773353,-0.178281083703041,0.6957768201828003
1629880742802,0.3497039377689361,-0.0619636438786983,-0.1650006920099258,0.7105299234390259
1629880742973,0.3429590761661529,-0.0434179455041885,-0.1501278281211853,0.7161734700202942
1629880743052,0.3324840068817138,-0.0322238206863403,-0.134757786989212,0.7112633585929871
1629880743145,0.3286276459693908,-0.0228645391762256,-0.1217069774866104,0.7035984992980957
1629880743223,0.337936669588089,-0.0113165825605392,-0.1139440461993217,0.7026761174201965
1629880743302,0.3624393343925476,-0.0006099615711718,-0.113335445523262,0.7124354839324951
1629880743427,0.3968099057674408,0.0023986981250345,-0.119558110833168,0.7333376407623291
1629880743551,0.433637797832489,-0.0046922187320888,-0.1307511627674102,0.759863555431366
1629880743664,0.4670340120792389,-0.0170862786471843,-0.1445067971944809,0.7897561192512512
1629880743758,0.4891542792320251,-0.0269694942981004,-0.1604297757148742,0.8117950558662415
1629880743820,0.4979306161403656,-0.0294900219887495,-0.1787919700145721,0.8129507303237915
1629880743976,0.4967492818832397,-0.0241856481879949,-0.1974618881940841,0.8052775263786316
1629880744023,0.4911732077598572,-0.0146437101066112,-0.2107570618391037,0.795220673084259
1629880744148,0.4869510233402252,-0.0068496176972985,-0.2143784165382385,0.782198965549469
1629880744257,0.4888206124305725,-0.0059105264954268,-0.2123039811849594,0.766503632068634
1629880744351,0.4964692592620849,-0.0109001016244292,-0.2130278944969177,0.7530083656311035
1629880744445,0.5049367547035217,-0.0155105059966444,-0.2223642170429229,0.744719922542572
1629880744539,0.5083000063896179,-0.01543824467808,-0.2399096935987472,0.7423686385154724
1629880744617,0.5033293962478638,-0.0140892080962657,-0.2622559070587158,0.7402428388595581
1629880744773,0.4915797710418701,-0.0165729522705078,-0.2830321788787842,0.7322683334350586
1629880744914,0.4723007678985595,-0.0215466916561126,-0.2903736531734466,0.7164772748947144
1629880744945,0.4448001980781555,-0.0231522470712661,-0.2759017944335937,0.6919421553611755
1629880745065,0.4088881611824035,-0.0176966991275548,-0.2432885915040969,0.663379967212677
1629880745143,0.369208425283432,-0.0051069324836134,-0.2060330212116241,0.6300183534622192
1629880745284,0.3393393158912658,0.0128266802057623,-0.1748065650463104,0.6005377173423767
1629880745378,0.3273404538631439,0.032474547624588,-0.1547313332557678,0.5837038159370422
1629880745503,0.330153226852417,0.0479182116687297,-0.1459406912326812,0.5820473432540894
1629880745594,0.3369994163513183,0.0552708208560943,-0.147847518324852,0.5910946130752563
1629880745687,0.3399430513381958,0.0555530153214931,-0.1586803644895553,0.6019254922866821
1629880745799,0.3358295261859894,0.0520798340439796,-0.1743288338184356,0.6117022633552551
1629880745846,0.3261975049972534,0.0456146784126758,-0.1890918463468551,0.6184786558151245
1629880746002,0.3158065378665924,0.0343606956303119,-0.1964909732341766,0.6229441165924072
1629880746066,0.3090893626213074,0.0176109820604324,-0.1921461075544357,0.6272144317626953
1629880746222,0.3056591749191284,-0.0022343744058161,-0.1771328598260879,0.6323953866958618
1629880746286,0.3023301661014557,-0.0222184639424085,-0.1590870916843414,0.6416781544685364
1629880746362,0.3062048256397247,-0.0403496846556663,-0.1497429460287094,0.655063271522522
1629880746439,0.329501211643219,-0.0550458021461963,-0.1568174809217453,0.6747111082077026
1629880746590,0.3756767511367798,-0.0657861679792404,-0.1807461082935333,0.6992853283882141
1629880746700,0.4316996932029724,-0.0744303688406944,-0.2140354663133621,0.7290053367614746
1629880746809,0.4819222390651703,-0.084350012242794,-0.2462351769208908,0.759903609752655
1629880746888,0.5164830088615417,-0.0966856777667999,-0.2699978649616241,0.7824360728263855
1629880747022,0.5365273356437683,-0.1102740094065666,-0.2850412726402282,0.7932857275009155
1629880747059,0.5462366342544556,-0.122688740491867,-0.2951779365539551,0.7952502965927124
1629880747169,0.5492057800292969,-0.1319730877876281,-0.3015599548816681,0.7963712811470032
1629880747296,0.5456131100654602,-0.1356589198112487,-0.3007365465164184,0.8007174730300903
1629880747386,0.5367352366447449,-0.1299179941415786,-0.2891112267971039,0.8055991530418396
1629880747466,0.5266805291175842,-0.1122739315032959,-0.2714114487171173,0.8098042011260986
1629880747563,0.5212963819503784,-0.085195742547512,-0.2575836181640625,0.8112227916717529
1629880747685,0.5241367220878601,-0.0558993890881538,-0.2531319558620453,0.8106703162193298
1629880747824,0.5339926481246948,-0.0310022439807653,-0.2536945044994354,0.8060865998268127
1629880747933,0.5418257117271423,-0.0132164871320128,-0.2512383460998535,0.7968053221702576
1629880747996,0.5382115840911865,-0.0022922519128769,-0.241660475730896,0.792414665222168
1629880748091,0.5184797048568726,0.0025940064806491,-0.2263413816690445,0.7776577472686768
1629880748170,0.4862202405929565,0.0013119590003043,-0.2078676223754882,0.7505435943603516
1629880748319,0.4500084817409515,-0.0065417974255979,-0.1877373158931732,0.7242627739906311
1629880748430,0.4222178757190704,-0.0206862278282642,-0.1661572754383087,0.7143294215202332
1629880748509,0.4077498912811279,-0.0371822752058506,-0.1441360861063003,0.7181748747825623
1629880748618,0.4065211415290832,-0.0501996427774429,-0.1231256052851677,0.7219991683959961
1629880748744,0.416574090719223,-0.0545674636960029,-0.1059653609991073,0.7165634632110596
1629880748836,0.4354263842105865,-0.0509471856057643,-0.0954594686627388,0.704058825969696
1629880748900,0.45899298787117,-0.0444219522178173,-0.0925247967243194,0.6949275732040405
1629880749070,0.4805125594139099,-0.0408040098845958,-0.09548369795084,0.6925119757652283
1629880749116,0.4952855408191681,-0.0427296683192253,-0.1021549180150032,0.6929885149002075
1629880749241,0.5006940960884094,-0.0486193299293518,-0.1115619242191314,0.6892505884170532
1629880749352,0.4980020225048065,-0.0542302764952182,-0.1245085150003433,0.6809303164482117
1629880749398,0.4919902980327606,-0.0564530082046985,-0.1398342102766037,0.6738969087600708
1629880749490,0.4859022498130798,-0.0549858286976814,-0.1539369523525238,0.6653486490249634
1629880749639,0.4814920425415039,-0.050966452807188,-0.1640814393758773,0.6656935214996338
1629880749780,0.4803636372089386,-0.0446033328771591,-0.1721923053264618,0.6702712774276733
1629880749826,0.4840650260448456,-0.0355601757764816,-0.1819715946912765,0.6590114831924438
1629880749951,0.4910853803157806,-0.0241550263017416,-0.1954644322395324,0.6370723247528076
1629880750061,0.4991105794906616,-0.0134976580739021,-0.2121866643428802,0.6105524301528931
1629880750139,0.5095686316490173,-0.007330235093832,-0.2308249473571777,0.5912793278694153
1629880750265,0.5213868021965027,-0.0079831751063466,-0.249610885977745,0.5878795981407166
1629880750358,0.5317333340644836,-0.0136435236781835,-0.2657344341278076,0.6023356914520264
1629880750421,0.5359940528869629,-0.0209238696843385,-0.2766214907169342,0.6233229041099548
1629880750530,0.5348997116088867,-0.0275785457342863,-0.2821457684040069,0.6399176120758057
1629880750642,0.531790018081665,-0.0304043777287006,-0.284291535615921,0.647787868976593
1629880750751,0.5314976572990417,-0.0255349949002265,-0.2848427593708038,0.6505650877952576
1629880750861,0.5363962650299072,-0.0117507940158247,-0.2837062776088714,0.6519560217857361
1629880750939,0.5448002219200134,0.0059088710695505,-0.2784987688064575,0.6500285863876343
1629880751064,0.5519307851791382,0.0202117189764976,-0.2662639617919922,0.6417222619056702
1629880751126,0.5520205497741699,0.0270466413348913,-0.244006872177124,0.6255995631217957
1629880751260,0.5420345067977905,0.027094392105937,-0.2098255008459091,0.6066234707832336
1629880751338,0.5243551135063171,0.0238878112286329,-0.1679489910602569,0.5912459492683411
1629880751463,0.5054755806922913,0.021261652931571,-0.1289113163948059,0.5812981128692627
1629880751574,0.4913643300533294,0.0216167476028203,-0.1016681119799614,0.5744462013244629
1629880751700,0.4801763594150543,0.0234181936830282,-0.0864313915371894,0.5687998533248901
1629880751809,0.4674096703529358,0.0233695395290851,-0.0771871581673622,0.5642984509468079
1629880751841,0.450303167104721,0.0195621903985738,-0.0685758739709854,0.5535478591918945
1629880751997,0.4382549524307251,0.0137515338137745,-0.0591834783554077,0.5396607518196106
1629880752106,0.4323409795761108,0.0128767201676964,-0.0488712228834629,0.5091901421546936
1629880752184,0.4293221533298492,0.0224459208548069,-0.0366693399846553,0.4843926429748535
1629880752247,0.4234398603439331,0.0403318740427494,-0.0237324405461549,0.4730996191501617
1629880752356,0.4102581739425659,0.0572200827300548,-0.0133837889879941,0.4739836752414703
1629880752465,0.3921427428722381,0.0656882226467132,-0.0091348802670836,0.48289754986763
1629880752558,0.3766408860683441,0.0664878487586975,-0.011827859096229,0.4951955378055572
1629880752685,0.3770366311073303,0.0666340142488479,-0.0216868817806243,0.5096070170402527
1629880752779,0.3990651965141296,0.0712052434682846,-0.0393740274012088,0.5204804539680481
1629880752888,0.4330505430698395,0.0790923163294792,-0.0639105141162872,0.5292686223983765
1629880753013,0.4637275636196136,0.0872340947389602,-0.0891693606972694,0.5411378741264343
1629880753091,0.4637275636196136,0.0946229845285415,-0.1065872386097908,0.56538325548172
1629880753169,0.4637275636196136,0.1035682782530784,-0.113489419221878,0.56538325548172
1629880753294,0.4637275636196136,0.1163078248500824,-0.1137605458498001,0.56538325548172
1629880753419,0.4637275636196136,0.1320360600948333,-0.1117201298475265,0.56538325548172
1629880753482,0.4637275636196136,0.1476204246282577,-0.1082364022731781,0.56538325548172
1629880753560,0.4637275636196136,0.1589530557394027,-0.1021662205457687,0.56538325548172
1629880753672,0.4637275636196136,0.162399873137474,-0.0947925895452499,0.56538325548172
1629880753765,0.4637275636196136,0.1576115936040878,-0.0887736678123474,0.56538325548172
1629880753906,0.4637275636196136,0.1480928808450698,-0.0863645151257515,0.56538325548172
1629880754047,0.4637275636196136,0.1391342878341674,-0.0879495367407798,0.56538325548172
1629880754094,0.4637275636196136,0.133081778883934,-0.0916796997189521,0.56538325548172
1629880754172,0.4637275636196136,0.1288777589797973,-0.0939937531948089,0.56538325548172
1629880754295,0.4637275636196136,0.1252969950437545,-0.0939135253429412,0.56538325548172
1629880754419,0.4637275636196136,0.1226544752717018,-0.0932779386639595,0.56538325548172
1629880754529,0.4637275636196136,0.1205977350473404,-0.0931214019656181,0.56538325548172
1629880754623,0.4637275636196136,0.1173677518963813,-0.0903217047452926,0.56538325548172
1629880754735,0.4637275636196136,0.1111766025424003,-0.0802884176373481,0.56538325548172
1629880754813,0.4637275636196136,0.1004543900489807,-0.0642646327614784,0.56538325548172
1629880754892,0.4637275636196136,0.0848772376775741,-0.0468300431966781,0.56538325548172
1629880754970,0.4637275636196136,0.0673577114939689,-0.0311532281339168,0.56538325548172
1629880755126,0.4637275636196136,0.0539076626300811,-0.0193296130746603,0.56538325548172
1629880755220,0.4637275636196136,0.0502697825431823,-0.0117792738601565,0.8472139239311218
1629880755298,0.4637275636196136,0.0561353527009487,-0.006146038416773,0.8949525356292725
1629880755407,0.4637275636196136,0.0664406642317771,0.0020113785285502,0.930450201034546
1629880755532,0.4637275636196136,0.0759699940681457,0.0144748426973819,0.9469484090805054
1629880755626,0.4637275636196136,0.082225851714611,0.0265231132507324,0.9437878727912904
1629880755722,0.4637275636196136,0.0839436873793602,0.0333970263600349,0.9322014451026917
1629880755862,0.4637275636196136,0.0801145881414413,0.0361451543867588,0.928361713886261
1629880755940,0.4637275636196136,0.0709317252039909,0.0391735546290874,0.9414759278297424
1629880756050,0.4637275636196136,0.0578443445265293,0.0425586737692356,0.9649628400802612
1629880756128,0.4637275636196136,0.0454856865108013,0.0423910282552242,0.9856772422790528
1629880756253,0.4637275636196136,0.0414852127432823,0.0377343371510505,0.996796727180481
1629880756378,0.4637275636196136,0.0520146004855632,0.0376835130155086,1.003694772720337
1629880756456,0.4637275636196136,0.0753620862960815,0.0546917468309402,1.0294318199157717
1629880756593,0.4637275636196136,0.1005246117711067,0.0887968987226486,1.0428643226623535
1629880756609,0.4637275636196136,0.1144714057445526,0.1263089627027511,1.0549890995025637
1629880756734,0.4637275636196136,0.1108489111065864,0.1534772217273712,1.0618956089019775
1629880756832,0.4637275636196136,0.093919813632965,0.1662092953920364,1.0633004903793335
1629880756973,0.4637275636196136,0.0755726620554924,0.1697559058666229,1.0621930360794067
1629880757035,0.4637275636196136,0.0671036690473556,0.1717156171798706,1.065152645111084
1629880757160,0.4637275636196136,0.071208581328392,0.1762269735336303,1.0802223682403564
1629880757254,0.4637275636196136,0.0828319191932678,0.1815074235200882,1.1068519353866575
1629880757316,0.4637275636196136,0.0961278527975082,0.1833211034536361,1.134201169013977
1629880757426,0.4637275636196136,0.1087866351008415,0.1795217841863632,1.1485146284103394
1629880757554,0.4637275636196136,0.1212603375315666,0.1732208877801895,1.144720196723938
1629880757679,0.4637275636196136,0.1329226195812225,0.1691507995128631,1.144720196723938
1629880757772,0.4637275636196136,0.1403203606605529,0.1677444875240326,1.144720196723938
1629880757882,0.4637275636196136,0.1402203887701034,0.1621298193931579,1.144720196723938
1629880757960,0.4637275636196136,0.1317013353109359,0.1419771313667297,1.144720196723938
1629880758038,0.4637275636196136,0.1173864528536796,0.1028191968798637,1.144720196723938
1629880758163,0.4637275636196136,0.1024362966418266,0.0525039620697498,1.144720196723938
1629880758304,0.4637275636196136,0.0903596729040145,0.0089630000293254,1.144720196723938
1629880758413,0.4637275636196136,0.0800439938902854,-0.0152291376143693,0.7426691651344299
1629880758475,0.4637275636196136,0.06667972356081,-0.0256569869816303,0.722196638584137
1629880758553,0.4637275636196136,0.0470845736563205,-0.0366301909089088,0.6988570690155029
1629880758678,0.4637275636196136,0.0241798982024192,-0.0536876134574413,0.6988570690155029
1629880758806,0.4637275636196136,0.0042816828936338,-0.0714379623532295,0.6988570690155029
1629880758884,0.4637275636196136,-0.0093625234439969,-0.0816333517432212,0.6988570690155029
1629880758978,0.4637275636196136,-0.0192597452551126,-0.0799771249294281,0.6988570690155029
1629880759103,0.4637275636196136,-0.0295154880732297,-0.069764643907547,0.6988570690155029
1629880759150,0.4637275636196136,-0.0431435294449329,-0.0584280788898468,0.6988570690155029
1629880759243,0.4637275636196136,-0.0613047964870929,-0.0518177784979343,0.6988570690155029
1629880759415,0.4637275636196136,-0.083018459379673,-0.0505922622978687,0.6988570690155029
1629880759478,0.4637275636196136,-0.1026933416724205,-0.0523225031793117,0.6988570690155029
1629880759589,0.4637275636196136,-0.1134426966309547,-0.0546993725001812,0.6802165508270264
1629880759714,0.4637275636196136,-0.1136838570237159,-0.0590357035398483,0.660816490650177
1629880759792,0.4637275636196136,-0.1076900586485862,-0.0690128803253173,0.6506717801094055
1629880759870,0.4637275636196136,-0.1006089299917221,-0.0848411470651626,0.6582390666007996
1629880760027,0.4637275636196136,-0.0944791585206985,-0.1041479259729385,0.6833916902542114
1629880760105,0.4637275636196136,-0.0889196991920471,-0.1222880482673645,0.7045655846595764
1629880760183,0.7508845925331116,-0.0841025486588478,-0.1359205991029739,0.7045655846595764
1629880760292,0.7107899188995361,-0.078519620001316,-0.1435301154851913,0.7045655846595764
1629880760370,0.7107899188995361,-0.0667060241103172,-0.1378139555454254,0.7045655846595764
1629880760480,0.7107899188995361,-0.0373571403324604,-0.1396437138319015,0.7045655846595764
1629880760622,0.7107899188995361,0.014172694645822,-0.1494216173887252,0.7045655846595764
1629880760685,0.7107899188995361,0.0779941976070404,-0.1676854938268661,0.7045655846595764
1629880760794,0.7107899188995361,0.1366372406482696,-0.1905915588140487,0.7045655846595764
1629880760935,0.7107899188995361,0.1778772473335266,-0.2136780172586441,0.7045655846595764
1629880760997,0.7107899188995361,0.1999056041240692,-0.2345650494098663,0.7045655846595764
1629880761122,0.7107899188995361,0.2083286643028259,-0.2565371990203857,0.7072229385375977
1629880761247,0.7107899188995361,0.2104791551828384,-0.2835087776184082,0.7072229385375977
1629880761310,0.7107899188995361,0.2104254215955734,-0.3122949600219726,0.7072229385375977
1629880761403,0.6899877190589905,0.2092315554618835,-0.3327803015708923,0.7072229385375977
1629880761497,0.6366207003593445,0.2073652148246765,-0.3275896310806274,0.7072229385375977
1629880761637,0.5722485184669495,0.2054894566535949,-0.132264494895935,0.7072229385375977
1629880761720,0.5275624990463257,0.2033959776163101,0.0078735332936048,0.7072229385375977
1629880761860,0.5150675177574158,0.1991853564977646,0.0960232019424438,0.7072229385375977
1629880761938,0.5061097741127014,0.1895671486854553,0.124125525355339,0.7072229385375977
1629880762063,0.4977318942546844,0.1679137945175171,0.0965653285384178,0.6677855253219604
1629880762110,0.4865224659442901,0.1270792186260223,0.0706513077020645,0.7171578407287598
1629880762204,0.4719849824905395,0.0645675882697105,0.0512945353984832,0.7383947968482971
1629880762298,0.4545511901378631,-0.0113002778962254,0.0395666621625423,0.737541913986206
1629880762423,0.4369649887084961,-0.081527791917324,0.0338803268969059,0.728661060333252
1629880762548,0.424119085073471,-0.1305428743362426,0.0323052257299423,0.726053774356842
1629880762626,0.419144332408905,-0.1602526307106018,0.0333048850297927,0.7320030927658081
1629880762723,0.4193345606327057,-0.1822700500488281,0.0349546633660793,0.7390549182891846
1629880762802,0.4214573204517364,-0.2012221962213516,0.0343763567507267,0.7405848503112793
1629880762942,0.3996610939502716,-0.2138847410678863,0.0296495985239744,0.7340071797370911
1629880763052,0.4012837409973144,-0.2166619598865509,0.0210907850414514,0.7228346467018127
1629880763161,0.4242864847183227,-0.210408866405487,0.0029984042048454,0.7149246335029602
1629880763270,0.4532080292701721,-0.1999248713254928,-0.0103883733972907,0.7269328832626343
1629880763333,0.4766258597373962,-0.1901460736989975,-0.0113398237153887,0.7395104765892029
1629880763411,0.491625428199768,-0.1825602948665619,-0.0007641736301593,0.7480199933052063
1629880763505,0.4994066953659057,-0.1754047125577926,0.0135231977328658,0.750174880027771
1629880763676,0.503267765045166,-0.1672569662332534,0.0244739446789026,0.7465478777885437
1629880763757,0.5094341039657593,-0.1593909114599228,0.0304510872811079,0.7418521642684937
1629880763851,0.5243896245956421,-0.1536637246608734,0.0340512096881866,0.740814208984375
1629880763960,0.5496054291725159,-0.149953082203865,0.0384273827075958,0.7462877631187439
1629880764023,0.579293966293335,-0.1462451964616775,0.0445424765348434,0.754876434803009
1629880764132,0.6075199842453003,-0.1392475366592407,0.0498337745666503,0.7618321180343628
1629880764320,0.6320711970329285,-0.1247929707169532,0.0510637387633323,0.765135645866394
1629880764367,0.6500383019447327,-0.1013449430465698,0.0477894768118858,0.76481032371521
1629880764445,0.6593881249427795,-0.0736436694860458,0.0428569316864013,0.7623957395553589
1629880764570,0.6588632464408875,-0.0501598119735717,0.0397464819252491,0.759011447429657
1629880764679,0.6498610973358154,-0.037422802299261,0.038478460162878,0.7517307996749878
1629880764757,0.636734664440155,-0.0356279090046882,0.0369987823069095,0.7408796548843384
1629880764886,0.6221916675567627,-0.0389056839048862,0.0332858338952064,0.7267674207687378
1629880764979,0.6082139611244202,-0.0398366264998912,0.0270955488085746,0.712504506111145
1629880765057,0.5968130230903625,-0.0317925289273262,0.0182866360992193,0.7029163241386414
1629880765167,0.5889596343040466,-0.0128374462947249,0.0074420645833015,0.7011381387710571
1629880765276,0.5833273530006409,0.0134397726505994,-0.0049335523508489,0.7048068642616272
1629880765354,0.5765275955200195,0.0408991798758506,-0.0191229749470949,0.7083169221878052
1629880765526,0.5667099356651306,0.0644669383764267,-0.0363444164395332,0.7057559490203857
1629880765588,0.5562535524368286,0.0826565325260162,-0.0575704127550125,0.6939352750778198
1629880765667,0.5483653545379639,0.0962641239166259,-0.0795740634202957,0.6748984456062317
1629880765807,0.5425848960876465,0.1054253652691841,-0.0947967320680618,0.6534461379051208
1629880765870,0.5371260643005371,0.1086278110742569,-0.0964004844427108,0.6370518803596497
1629880765979,0.529930055141449,0.1057315245270729,-0.0861093997955322,0.6313158273696899
1629880766104,0.5223348140716553,0.0997254624962806,-0.0733610615134239,0.6349749565124512
1629880766213,0.5146082043647766,0.0953883305191993,-0.0673026293516159,0.6432631015777588
1629880766291,0.5074594616889954,0.0940500348806381,-0.0726226568222045,0.6518704295158386
1629880766401,0.5027524828910828,0.091761514544487,-0.0883265882730484,0.6628338694572449
1629880766479,0.5034639239311218,0.0842367485165596,-0.1094605848193168,0.6730020642280579
1629880766638,0.5104655623435974,0.0692201033234596,-0.1284611821174621,0.6734113097190857
1629880766716,0.5208960771560669,0.0469831302762031,-0.1399399191141128,0.6628850102424622
1629880766779,0.5331485867500305,0.019830884411931,-0.1438808739185333,0.6497458219528198
1629880766872,0.5498508214950562,-0.0084387511014938,-0.143737256526947,0.6394858956336975
1629880767013,0.5793431997299194,-0.0317035354673862,-0.1355993747711181,0.6326553821563721
1629880767076,0.5758261680603027,-0.0438088178634643,-0.1109729409217834,0.628976047039032
1629880767169,0.5636981725692749,-0.0429607629776001,-0.068968616425991,0.6289986968040466
1629880767341,0.618191659450531,-0.0331534706056118,-0.0213772803544998,0.6362757086753845
1629880767419,0.6460475921630859,-0.0193795096129179,0.0184221807867288,0.650824785232544
1629880767513,0.6535432934761047,-0.0064896023832261,0.0457894504070282,0.6696133017539978
1629880767607,0.6506336331367493,0.0020015351474285,0.0646292716264724,0.6894583702087402
1629880767688,0.6446247696876526,0.0040696491487324,0.0794700607657432,0.7106656432151794
1629880767781,0.6379899978637695,0.0032112253829836,0.0917783230543136,0.7307915091514587
1629880767906,0.6331870555877686,0.0064739622175693,0.1014740094542503,0.7307915091514587
1629880768047,0.6315335631370544,0.0155385052785277,0.1085219159722328,0.7307915091514587
1629880768109,0.6325319409370422,0.0260628312826156,0.1128920242190361,0.7307915091514587
1629880768188,0.6353784203529358,0.0343660414218902,0.1145646274089813,0.7307915091514587
1629880768297,0.6358436942100525,0.0401477180421352,0.1148993819952011,0.7307915091514587
1629880768438,0.6264077425003052,0.0434674583375453,0.1151481866836547,0.7307915091514587
1629880768516,0.594689130783081,0.0414613783359527,0.1109866127371788,0.5997549891471863
1629880768609,0.5894075036048889,0.0309896115213632,0.0954913645982742,0.5996688008308411
1629880768721,0.5873565077781677,0.0119886863976717,0.0647751912474632,0.595262348651886
1629880768815,0.5224089622497559,-0.0120373228564858,0.0212290491908788,0.5870164036750793
1629880768940,0.4764507412910461,-0.0368605889379978,-0.0269629154354333,0.5767079591751099
1629880768987,0.4570747017860412,-0.0595656931400299,-0.0700795203447341,0.5644763708114624
1629880769143,0.4548017680644989,-0.0791091248393058,-0.1020540967583656,0.5542685985565186
1629880769221,0.4588022828102112,-0.0948723703622818,-0.1229618415236473,0.5479796528816223
1629880769315,0.4629120528697967,-0.1074327379465103,-0.1388651430606842,0.5455756783485413
1629880769424,0.461966335773468,-0.1180720403790474,-0.1557053923606872,0.5446303486824036
1629880769502,0.4528061151504516,-0.1232770085334777,-0.1729797571897506,0.5506719946861267
1629880769627,0.4352327883243561,-0.118683710694313,-0.1851212382316589,0.5676518082618713
1629880769739,0.4148350954055786,-0.1050788313150405,-0.1896701604127884,0.5879722237586975
1629880769817,0.3977155983448028,-0.087473876774311,-0.1920141875743866,0.617536723613739
1629880769958,0.3900983035564422,-0.0695721805095672,-0.1986177712678909,0.643896222114563
1629880770052,0.3917853236198425,-0.0505507141351699,-0.2093538343906402,0.6626941561698914
1629880770130,0.3971656560897827,-0.0302203726023435,-0.2186728417873382,0.6740865111351013
1629880770239,0.3988573253154754,-0.0108138034120202,-0.2207367122173309,0.6814683675765991
1629880770411,0.3952703177928924,0.0056877760216593,-0.2133731096982956,0.6872376203536987
1629880770458,0.3891964256763458,0.0218125563114881,-0.2000093609094619,0.6925138831138611
1629880770583,0.3841881155967712,0.0424897000193595,-0.187019944190979,0.6959689259529114
1629880770677,0.3822823166847229,0.0691239237785339,-0.1799011677503585,0.6959872245788574
1629880770742,0.3846161961555481,0.097874142229557,-0.1780470162630081,0.6928470134735107
1629880770835,0.3947335481643677,0.1237277016043663,-0.1737917512655258,0.6915555000305176
1629880770976,0.4127602577209472,0.1433935761451721,-0.1601613461971283,0.6965686082839966
1629880771054,0.4325113892555237,0.1547167301177978,-0.1377145648002624,0.703570544719696
1629880771164,0.4478474259376526,0.1573936492204666,-0.1128793209791183,0.7053903341293335
1629880771288,0.4543266892433166,0.1542809903621673,-0.0912018865346908,0.6973221302032471
1629880771398,0.4533147513866424,0.1506704092025756,-0.0726845413446426,0.6804282069206238
1629880771508,0.4466862380504608,0.1494007855653762,-0.0547060631215572,0.6621754765510559
1629880771572,0.434156060218811,0.1476792097091674,-0.0359220951795578,0.6455366015434265
1629880771666,0.4156735241413116,0.1409746408462524,-0.0188556108623743,0.6312783360481262
1629880771791,0.3958291709423065,0.1280604302883148,-0.0075167063623666,0.6189590096473694
1629880771885,0.3804457485675812,0.1113972514867782,-0.00229506730102,0.6104130148887634
1629880771963,0.3745751082897186,0.0918997600674629,-0.0005311063141562,0.6096009016036987
1629880772072,0.3777759373188019,0.0680740624666214,-0.0004531141894403,0.6186462044715881
1629880772213,0.3858076333999634,0.0397447422146797,-0.0009322380647063,0.6326839923858643
1629880772291,0.395223468542099,0.0119955670088529,0.0007767453207634,0.6484977602958679
1629880772369,0.4023727178573608,-0.0086357397958636,0.0075803333893418,0.6609144806861877
1629880772494,0.407111793756485,-0.0189443733543157,0.0193976499140262,0.6694915890693665
1629880772572,0.4105971753597259,-0.0205333922058343,0.0323797762393951,0.6710359454154968
1629880772666,0.4158973395824432,-0.0184060167521238,0.043138138949871,0.6671739816665649
1629880772807,0.4252417385578155,-0.0185307543724775,0.0511290244758129,0.6605375409126282
1629880772900,0.439700186252594,-0.024249305948615,0.0570673234760761,0.6531118154525757
1629880772978,0.4588999152183532,-0.0317715853452682,0.0609192550182342,0.6451705098152161
1629880773072,0.4830270707607269,-0.0309582129120826,0.0621340274810791,0.639478325843811
1629880773166,0.5092581510543823,-0.0157408341765403,0.0610904172062873,0.6357501745223999
1629880773259,0.5308851003646851,0.0085698552429676,0.0589473433792591,0.6333014965057373
1629880773416,0.5434626340866089,0.0324039459228515,0.0572298467159271,0.6325356960296631
1629880773494,0.5452932119369507,0.0513332299888134,0.0573495365679264,0.6312745809555054
1629880773605,0.5392005443572998,0.0658763796091079,0.0599143393337726,0.6306262612342834
1629880773684,0.5300480127334595,0.0767223536968231,0.0621650479733943,0.6310908794403076
1629880773794,0.521003007888794,0.081481784582138,0.0584537461400032,0.6304587721824646
1629880773856,0.5144933462142944,0.07745061814785,0.0450280234217643,0.6246617436408997
1629880774044,0.5129975080490112,0.0650715753436088,0.0244989246129989,0.612841784954071
1629880774106,0.5181409120559692,0.0478006899356842,0.0038872202858328,0.6020710468292236
1629880774231,0.5263118743896484,0.0304188746958971,-0.0131682800129055,0.5971192717552185
1629880774294,0.5297467708587646,0.016767106950283,-0.0286557357758283,0.5991811156272888
1629880774403,0.5223255157470703,0.0083776907995343,-0.0448031648993492,0.6053438782691956
1629880774512,0.5034483075141907,0.0046456106938421,-0.0588081032037735,0.6106064319610596
1629880774622,0.4757919907569885,0.0026050214655697,-0.0659957081079483,0.6138327717781067
1629880774731,0.4431789517402649,-0.0001891729916678,-0.0667362287640571,0.6183325052261353
1629880774809,0.4120921790599823,-0.0032642504666,-0.0658322349190712,0.6267303824424744
1629880774934,0.3886304795742035,-0.005461795721203,-0.0671376287937164,0.6358157396316528
1629880774997,0.3765888810157776,-0.00756048085168,-0.0710389018058776,0.6430773138999939
1629880775090,0.3734330236911773,-0.0119520314037799,-0.075173333287239,0.6488350033760071
1629880775231,0.3712010681629181,-0.0179485641419887,-0.0758760645985603,0.6569411158561707
1629880775309,0.3646319806575775,-0.0202809181064367,-0.0701139494776725,0.6691219210624695
1629880775434,0.3537572026252746,-0.0105309039354324,-0.0575398840010166,0.6858671307563782
1629880775528,0.3373074233531952,0.0135273318737745,-0.04425960034132,0.702309787273407
1629880775621,0.3151887357234955,0.0449232943356037,-0.0380173698067665,0.7134069204330444
1629880775718,0.2917395532131195,0.0725702345371246,-0.0407484918832778,0.715259313583374
1629880775874,0.2785261273384094,0.0893604904413223,-0.0469839908182621,0.7118498682975769
1629880775984,0.2817566692829132,0.0946764349937439,-0.0518338717520237,0.710182249546051
1629880776046,0.294189453125,0.0929320752620697,-0.0569353550672531,0.7166280746459961
1629880776124,0.3061138391494751,0.0897102206945419,-0.064915619790554,0.7279428839683533
1629880776233,0.3141733109951019,0.0893751308321952,-0.0716940388083458,0.7395025491714478
1629880776327,0.3182971179485321,0.0927604213356971,-0.0693374052643776,0.7484440207481384
1629880776483,0.3200441896915436,0.0969943031668663,-0.0592021346092224,0.7538805603981018
1629880776546,0.3200731873512268,0.0984951257705688,-0.051787331700325,0.753369152545929
1629880776655,0.3181374967098236,0.0969411805272102,-0.0556410476565361,0.7439961433410645
1629880776736,0.3173635303974151,0.0937927663326263,-0.0700468495488166,0.7259281277656555
1629880776845,0.3180370330810547,0.0893394649028778,-0.0887289345264434,0.7013723254203796
1629880776939,0.3155801594257355,0.0806688591837883,-0.1072992831468582,0.6738260984420776
1629880777064,0.3082342445850372,0.0658113211393356,-0.1246568635106086,0.6477192640304565
1629880777173,0.2995146214962005,0.0485831759870052,-0.1393901705741882,0.6323180198669434
1629880777252,0.2957013547420501,0.0368869751691818,-0.148545354604721,0.6323440670967102
1629880777361,0.2980246543884277,0.0363889224827289,-0.1517696976661682,0.6410123705863953
1629880777439,0.3015375733375549,0.0447017028927803,-0.1517201662063598,0.6451160311698914
1629880777535,0.3022679388523102,0.0527402088046073,-0.1515195965766906,0.636550784111023
1629880777676,0.2984789609909057,0.0530097149312496,-0.1540719121694564,0.6190122365951538
1629880777785,0.2908864617347717,0.0439145565032959,-0.1631188094615936,0.5995609760284424
1629880777879,0.2823736071586609,0.0299891270697116,-0.1836260706186294,0.5832200050354004
1629880777973,0.2774442434310913,0.0184192880988121,-0.2143106013536453,0.5733675956726074
1629880778035,0.2796175479888916,0.0137520479038357,-0.2438653856515884,0.5736085176467896
1629880778191,0.2912974059581756,0.0144366407766938,-0.2573379874229431,0.5820714235305786
1629880778270,0.3082081377506256,0.0173180103302001,-0.2524046897888183,0.5929890871047974
1629880778348,0.3274002969264984,0.0207243971526622,-0.2401127517223358,0.6026979684829712
1629880778504,0.34635990858078,0.0230922847986221,-0.232509508728981,0.6102153658866882
1629880778551,0.3615390062332153,0.0217218175530433,-0.2323989868164062,0.6138314604759216
1629880778676,0.3693040013313293,0.0132473716512322,-0.2356732785701751,0.6099818348884583
1629880778754,0.3669101297855377,-0.0016192685579881,-0.2384286820888519,0.5983884334564209
1629880778894,0.3556443154811859,-0.0196638274937868,-0.238405704498291,0.5833359956741333
1629880778988,0.3403450846672058,-0.0387724116444587,-0.233694851398468,0.5725376605987549
1629880779113,0.3258881866931915,-0.0593446679413318,-0.2224176824092865,0.5674853324890137
1629880779160,0.3179284632205963,-0.0818960070610046,-0.206411138176918,0.5679107904434204
1629880779285,0.3174500465393066,-0.1040121242403984,-0.1907414197921753,0.5709545612335205
1629880779363,0.3219402432441711,-0.1220244839787483,-0.1788664311170578,0.572947084903717
1629880779504,0.3259904682636261,-0.1329701542854309,-0.1706338822841644,0.5694066286087036
1629880779582,0.3258196115493774,-0.1347484141588211,-0.1645345240831375,0.5587748289108276
1629880779725,0.3206531703472137,-0.1240258812904357,-0.1600874364376068,0.543814480304718
1629880779756,0.3122973144054413,-0.1018738746643066,-0.1558353751897812,0.5288019180297852
1629880779897,0.300410121679306,-0.0762836337089538,-0.1479295790195465,0.5155544281005859
1629880779960,0.2843437790870666,-0.0565369576215744,-0.1318487077951431,0.5062687397003174
1629880780116,0.2711926102638244,-0.046143639832735,-0.1078657433390617,0.5051687359809875
1629880780194,0.2712638974189758,-0.0421945713460445,-0.0810455456376075,0.5091097950935364
1629880780303,0.2859832048416137,-0.0397846475243568,-0.0573287457227706,0.5122283697128296
1629880780397,0.3054013550281524,-0.0365704596042633,-0.0406864993274211,0.5137075781822205
1629880780475,0.3206887245178222,-0.0318946242332458,-0.0329604893922805,0.5162968635559082
1629880780616,0.3331650197505951,-0.0250894725322723,-0.0341210328042507,0.5261713266372681
1629880780759,0.3471454679965973,-0.0161213129758834,-0.0415609665215015,0.5411531329154968
1629880780837,0.3649195730686188,-0.0075702876783907,-0.0502366907894611,0.5525844097137451
1629880780931,0.3839636445045471,-0.0028468510136008,-0.0547438450157642,0.5567820072174072
1629880781009,0.401570975780487,-0.0046120304614305,-0.0535542666912078,0.5585420727729797
1629880781103,0.4161079823970794,-0.0126262223348021,-0.0494310446083545,0.5644936561584473
1629880781181,0.4268095195293426,-0.0262097269296646,-0.0464747138321399,0.5812050104141235
1629880781321,0.4337584972381592,-0.0443699695169925,-0.0451833717525005,0.6055737137794495
1629880781431,0.4376629292964935,-0.0626925826072692,-0.0461042039096355,0.6290709972381592
1629880781509,0.4416112899780273,-0.0747999772429466,-0.0522249229252338,0.6419506669044495
1629880781602,0.4439963102340698,-0.0784707367420196,-0.0671718046069145,0.6416479349136353
1629880781715,0.4415453970432281,-0.0785017311573028,-0.0909387320280075,0.6324498653411865
1629880781808,0.4327276945114136,-0.0815699324011802,-0.1178949624300003,0.6225993037223816
1629880781949,0.4217564165592193,-0.0879579111933708,-0.1388110071420669,0.6159356832504272
1629880782043,0.417096883058548,-0.0912638530135154,-0.1464337110519409,0.6109176874160767
1629880782137,0.4225410521030426,-0.0850648432970047,-0.1395412683486938,0.6037725210189819
1629880782262,0.4340977668762207,-0.0697870999574661,-0.1220523938536644,0.5934577584266663
1629880782324,0.4442517459392547,-0.0509105175733566,-0.0997853949666023,0.5849082469940186
1629880782418,0.4497787058353424,-0.0341089852154254,-0.0772372186183929,0.5839806199073792
1629880782574,0.4515932202339172,-0.0205797459930181,-0.0563927367329597,0.5910896062850952
1629880782668,0.4541473686695099,-0.0087537765502929,-0.0387746915221214,0.6017978191375732
1629880782749,0.4614379107952118,0.0035014108289033,-0.0253477785736322,0.6067682504653931
1629880782827,0.4757627248764038,0.0165804605931043,-0.0183424297720193,0.605699360370636
1629880782952,0.4951741993427276,0.0290637947618961,-0.0191536508500576,0.6041073203086853
1629880783014,0.5172619819641113,0.0395158864557743,-0.0257514603435993,0.6100424528121948
1629880783217,0.5431853532791138,0.0492100976407527,-0.0316906720399856,0.6230279207229614
1629880783248,0.5732885599136353,0.0623619146645069,-0.0304747708141803,0.6349188685417175
1629880783342,0.6037923097610474,0.0823997184634208,-0.0215224139392375,0.6409396529197693
1629880783499,0.6296520829200745,0.1080354899168014,-0.0117359831929206,0.6382397413253784
1629880783565,0.6473667621612549,0.1337759643793106,-0.0087246866896748,0.6312262415885925
1629880783659,0.6560564041137695,0.154480829834938,-0.0142755825072526,0.626733660697937
1629880783815,0.6575932502746582,0.1693730354309082,-0.0247514136135578,0.6271364688873291
1629880783862,0.6563385725021362,0.1809740215539932,-0.0355888493359088,0.6325491666793823
1629880783971,0.6554819941520691,0.1919686794281005,-0.0451442897319793,0.639972448348999
1629880784065,0.6559633612632751,0.2020704746246338,-0.0546511635184288,0.645556628704071
1629880784143,0.6572157144546509,0.2080786526203155,-0.0644581317901611,0.6470422744750977
1629880784253,0.6585353016853333,0.2068528980016708,-0.0730944201350212,0.6448363661766052
1629880784409,0.6609349846839905,0.1986947953701019,-0.0776368901133537,0.6391860842704773
1629880784456,0.6656601428985596,0.1878174841403961,-0.0752645879983902,0.630180835723877
1629880784566,0.6700192093849182,0.1797295361757278,-0.0663956850767135,0.6200656890869141
1629880784677,0.6672446727752686,0.1765182167291641,-0.0564075633883476,0.6123200058937073
1629880784739,0.6517277359962463,0.1752062886953354,-0.0522055737674236,0.613882839679718
1629880784864,0.6263123750686646,0.1697900295257568,-0.0563942976295948,0.6245562434196472
1629880785020,0.5982010364532471,0.155373603105545,-0.0661461949348449,0.6421592235565186
1629880785098,0.5735192894935608,0.1306689083576202,-0.0758727118372917,0.6593297123908997
1629880785208,0.5574772953987122,0.0983776599168777,-0.0828331634402275,0.6703566312789917
1629880785286,0.5547865033149719,0.0629991888999939,-0.0887607634067535,0.6745702028274536
1629880785348,0.5671007037162781,0.0282798279076814,-0.097356766462326,0.6722858548164368
1629880785426,0.5883910655975342,-0.0038662203587591,-0.1108052060008049,0.6627386808395386
1629880785603,0.6086337566375732,-0.0325841978192329,-0.1281080543994903,0.6478251218795776
1629880785728,0.6206218004226685,-0.055202305316925,-0.1466884911060333,0.6335700750350952
1629880785775,0.6225292086601257,-0.066205196082592,-0.1639670580625534,0.624636173248291
1629880785915,0.6136552095413208,-0.0634703487157821,-0.17975814640522,0.6236819624900818
1629880785994,0.5948508977890015,-0.0535246133804321,-0.1958578377962112,0.6284874677658081
1629880786087,0.5692291259765625,-0.045771986246109,-0.2138637155294418,0.6326674222946167
1629880786228,0.5441589951515198,-0.0432655401527881,-0.2326723337173462,0.6334470510482788
1629880786306,0.5273111462593079,-0.0426656231284141,-0.2482200860977172,0.6324895024299622
1629880786368,0.5205895304679871,-0.0385394468903541,-0.2554925978183746,0.6349167823791504
1629880786478,0.5208454728126526,-0.0269408840686082,-0.2517890632152557,0.6428161263465881
1629880786635,0.5234262347221375,-0.0071918335743248,-0.2387257814407348,0.6550807952880859
1629880786684,0.521406888961792,0.0173424836248159,-0.2214622795581817,0.6632363200187683
1629880786809,0.5073733925819397,0.0394881032407283,-0.2055536061525344,0.6620525121688843
1629880786918,0.4768207669258117,0.0532198846340179,-0.1933392584323883,0.6541756987571716
1629880787043,0.4336870908737182,0.0575258657336235,-0.1850767731666565,0.6480297446250916
1629880787121,0.3900512754917145,0.0562930926680564,-0.1798422932624817,0.6476351022720337
1629880787184,0.3608921766281128,0.0531586371362209,-0.1746001839637756,0.6528406739234924
1629880787262,0.3534437119960785,0.0474964529275894,-0.1667634695768356,0.6554821133613586
1629880787449,0.3603268265724182,0.0374593511223793,-0.1578721702098846,0.6545695066452026
1629880787543,0.3704379498958587,0.0252976827323436,-0.1518920958042144,0.6549673676490784
1629880787605,0.3796039223670959,0.0156694091856479,-0.1513702571392059,0.6493819355964661
1629880787764,0.3880747854709625,0.0098753105849027,-0.154186725616455,0.6373467445373535
1629880787811,0.3969258964061737,0.0048076575621962,-0.1572927236557006,0.6203258037567139
1629880787889,0.4048193395137787,-0.0025264110881835,-0.1609469801187515,0.6021872758865356
1629880788061,0.4076419472694397,-0.0133833223953843,-0.1670543104410171,0.5903420448303223
1629880788139,0.4057359397411346,-0.028173403814435,-0.1750718206167221,0.5903581380844116
1629880788264,0.4041298329830169,-0.0472483821213245,-0.1824574321508407,0.6116999387741089
1629880788373,0.4060938060283661,-0.0686206296086311,-0.1878971010446548,0.6558569669723511
1629880788420,0.4095694124698639,-0.0880420878529548,-0.1922325640916824,0.7056576609611511
1629880788498,0.4121100306510925,-0.1005795001983642,-0.1931424736976623,0.7421507239341736
1629880788639,0.4130041599273681,-0.1036291047930717,-0.1862219274044037,0.7618657946586609
1629880788733,0.4105552434921264,-0.0975670516490936,-0.1732258051633834,0.7590056657791138
1629880788826,0.401596188545227,-0.0847832411527633,-0.1634828895330429,0.756202757358551
1629880788920,0.3893179893493652,-0.0670730620622634,-0.1633348912000656,0.7549877762794495
1629880789029,0.3813778162002563,-0.0485006608068943,-0.1701056212186813,0.7595463991165161
1629880789108,0.3795788884162903,-0.0343592353165149,-0.1757262945175171,0.7690004110336304
1629880789248,0.3801725506782532,-0.0286657810211181,-0.1765725314617157,0.7813918590545654
1629880789326,0.3776801526546478,-0.0301967319101095,-0.1749680936336517,0.7896955609321594
1629880789467,0.3719777166843414,-0.0339225269854068,-0.1729925721883773,0.7887139320373535
1629880789563,0.3746630847454071,-0.03550586104393,-0.170627623796463,0.7768769860267639
1629880789641,0.3929116427898407,-0.0338905602693557,-0.1690338402986526,0.755740761756897
1629880789735,0.4236572980880737,-0.0280594713985919,-0.1707883477210998,0.7267209887504578
1629880789844,0.4622752070426941,-0.0163533817976713,-0.175620287656784,0.6908214092254639
1629880789954,0.5082740187644958,0.000247048883466,-0.1785758286714553,0.6559922099113464
1629880790079,0.5597582459449768,0.0165278632193803,-0.1764906644821167,0.6336042881011963
1629880790141,0.6079727411270142,0.0268654953688383,-0.1727497279644012,0.6249345541000366
1629880790266,0.6431944966316223,0.0302485525608062,-0.1724771857261657,0.6219793558120728
1629880790360,0.6647419333457947,0.0290458500385284,-0.1742748022079467,0.6163150668144226
1629880790469,0.6776266694068909,0.0240070857107639,-0.1707632690668106,0.6064552068710327
1629880790552,0.686585545539856,0.0141104822978377,-0.1587224900722503,0.5946258902549744
1629880790677,0.692640483379364,0.0010626373114064,-0.1431272625923156,0.5825962424278259
1629880790755,0.6949698328971863,-0.0088450219482183,-0.1301657110452652,0.5732731223106384
1629880790883,0.6945702433586121,-0.0097328582778573,-0.1211404055356979,0.5718180537223816
1629880790945,0.693702757358551,-0.002560097258538,-0.1160569712519645,0.5788823366165161
1629880791101,0.6897220015525818,0.0064759477972984,-0.1162228882312774,0.5903235673904419
1629880791195,0.6784916520118713,0.0125480648130178,-0.1233888193964958,0.6011202335357666
1629880791257,0.6586385369300842,0.0141250984743237,-0.1354164183139801,0.6095982789993286
1629880791367,0.630736231803894,0.0124026332050561,-0.1457320302724838,0.614266037940979
1629880791445,0.5948720574378967,0.0092107392847538,-0.1481750756502151,0.6140073537826538
1629880791554,0.5509365797042847,0.0065506934188306,-0.1420370191335678,0.6096971035003662
1629880791697,0.5036264061927795,0.0051813800819218,-0.1336244493722915,0.6028304100036621
1629880791775,0.4662853479385376,0.0044433758594095,-0.1308371424674987,0.593817949295044
1629880791853,0.4508346021175384,0.0034604265820235,-0.1372909992933273,0.5828863382339478
1629880791962,0.4620762467384338,0.0027431182097643,-0.151604413986206,0.5713199377059937
1629880792103,0.4939838647842407,0.0040903547778725,-0.1685843914747238,0.5659060478210449
1629880792197,0.5358906984329224,0.0061174095608294,-0.184158444404602,0.57321697473526
1629880792306,0.5762824416160583,0.0040336055681109,-0.197232112288475,0.5909937620162964
1629880792431,0.6116908192634583,-0.0070163216441869,-0.2085268348455429,0.611525297164917
1629880792493,0.6484350562095642,-0.0265517327934503,-0.214896947145462,0.6259063482284546
1629880792556,0.6908847093582153,-0.0484831184148788,-0.2089695036411285,0.6338897943496704
1629880792665,0.7339699864387512,-0.065857708454132,-0.1864045113325119,0.639375627040863
1629880792790,0.7659527659416199,-0.0776195600628852,-0.1520932018756866,0.644801139831543
1629880792931,0.7872841954231262,-0.088636927306652,-0.1192153692245483,0.648642897605896
1629880793009,0.808402419090271,-0.1040017381310463,-0.099635973572731,0.6528224349021912
1629880793149,0.8284714221954346,-0.1260671913623809,-0.0984598323702812,0.6558706760406494
1629880793212,0.8479850888252258,-0.1527788043022155,-0.1114614307880401,0.6588711142539978
1629880793312,0.8674531579017639,-0.1805649101734161,-0.1278093159198761,0.6677005290985107
1629880793421,0.8859045505523682,-0.2057924717664718,-0.1372727155685424,0.6850416660308838
1629880793499,0.898714005947113,-0.2272277921438217,-0.1379000097513198,0.7098525762557983
1629880793609,0.9018610715866088,-0.2460540831089019,-0.1347286999225616,0.7318757772445679
1629880793705,0.8978018164634705,-0.2612576186656952,-0.1316596567630767,0.7408600449562073
1629880793830,0.8978622555732727,-0.2683324813842773,-0.1290672570466995,0.7322875261306763
1629880793892,0.9116749167442322,-0.2632331252098083,-0.1263149827718734,0.7091821432113647
1629880794018,0.8410058617591858,-0.2473098188638687,-0.1252444982528686,0.7091821432113647
1629880794157,0.7322217226028442,-0.2254538238048553,-0.1284754127264022,0.7091821432113647
1629880794235,0.5577211976051331,-0.2041800916194915,-0.1378742754459381,0.7091821432113647
1629880794330,0.3191249668598175,-0.1877564787864685,-0.1553142368793487,0.7091821432113647
1629880794393,0.2883462905883789,-0.1779990345239639,-0.1806881725788116,0.7091821432113647
1629880794531,0.2713993489742279,-0.172685906291008,-0.210667610168457,0.7333402633666992
1629880794609,0.2763071060180664,-0.1670774966478347,-0.2381324917078018,0.7070159912109375
1629880794773,0.2982106804847717,-0.158565953373909,-0.2537629306316376,0.7074384689331055
1629880794899,0.3284774422645569,-0.1486855149269104,-0.2536253929138183,0.7218987941741943
1629880794930,0.3632474541664123,-0.1416229605674743,-0.2415690571069717,0.7395204901695251
1629880795007,0.3957087695598602,-0.1400765925645828,-0.2250117659568786,0.7513718605041504
1629880795144,0.4174108505249023,-0.1433476358652115,-0.2097914218902588,0.7561073899269104
1629880795270,0.4236890971660614,-0.1484932899475097,-0.1975943744182586,0.7552558779716492
1629880795396,0.4166768193244934,-0.1531888246536255,-0.1852699369192123,0.7494503855705261
1629880795440,0.405331939458847,-0.1555863618850708,-0.1695956587791443,0.7415049076080322
1629880795534,0.4037225544452667,-0.1540561914443969,-0.1518719792366027,0.7332112789154053
1629880795614,0.4133225381374359,-0.1492268443107605,-0.1375741213560104,0.7255162000656128
1629880795755,0.4342472851276397,-0.1432981342077255,-0.1298328340053558,0.7046936750411987
1629880795818,0.4565244019031524,-0.1369950473308563,-0.1247882544994354,0.6888989210128784
1629880795946,0.4692489504814148,-0.1283179670572281,-0.1155110597610473,0.682644248008728
1629880796102,0.4685356616973877,-0.1159337535500526,-0.0995645299553871,0.6832500100135803
1629880796165,0.4567636847496032,-0.1013243272900581,-0.0805961042642593,0.683524489402771
1629880796238,0.4376783370971679,-0.0876722559332847,-0.065469853579998,0.6813869476318359
1629880796354,0.4129126667976379,-0.0759232342243194,-0.0589428059756755,0.6824154257774353
1629880796448,0.3833177089691162,-0.0649563744664192,-0.0619099549949169,0.6884592771530151
1629880796605,0.3521772623062134,-0.0535780452191829,-0.0714611783623695,0.695689857006073
1629880796643,0.3312730491161346,-0.0405878685414791,-0.0820089057087898,0.6991129517555237
1629880796786,0.3333826661109924,-0.0252238754183053,-0.0896477252244949,0.7001126408576965
1629880796864,0.3562983274459839,-0.0085551124066114,-0.0957516431808471,0.7045670747756958
1629880796942,0.3823376893997192,0.0047218357212841,-0.1049379035830497,0.7126777768135071
1629880797036,0.3942887187004089,0.0085337599739432,-0.1189886182546615,0.7209199666976929
1629880797208,0.3852328062057495,0.0009768835734575,-0.1348028033971786,0.7278475761413574
1629880797277,0.359859436750412,-0.0139285316690802,-0.1482289731502533,0.7363502383232117
1629880797356,0.3318883180618286,-0.0312808640301227,-0.1587483882904052,0.747699499130249
1629880797466,0.3165847063064575,-0.0494150109589099,-0.1693913042545318,0.7616058588027954
1629880797530,0.3185636103153229,-0.0687941238284111,-0.1822750568389892,0.7780577540397644
1629880797657,0.3289999663829803,-0.0875687226653099,-0.1974608451128006,0.7966172099113464
1629880797807,0.3411997556686401,-0.1003472805023193,-0.2129431515932083,0.8101409077644348
1629880797869,0.3573070466518402,-0.1015272587537765,-0.2245204299688339,0.8107653260231018
1629880797947,0.3808502852916717,-0.0877736508846283,-0.2285914868116378,0.7981733679771423
1629880798088,0.4101700186729431,-0.0613191947340965,-0.226135641336441,0.7808396220207214
1629880798187,0.4353591501712799,-0.0314077325165271,-0.2231653034687042,0.7669956684112549
1629880798298,0.4477583169937134,-0.0076030031777918,-0.2247929126024246,0.7599065899848938
1629880798420,0.4494887590408325,0.0068082124926149,-0.23216612637043,0.7615984678268433
1629880798530,0.4491961300373077,0.0150302983820438,-0.2406309396028518,0.7722859382629395
1629880798624,0.4535449743270874,0.0222708713263273,-0.242502212524414,0.787746787071228
1629880798717,0.4626079201698303,0.0306163467466831,-0.2320476472377777,0.7989904880523682
1629880798825,0.4711490273475647,0.0386728085577487,-0.2103716731071472,0.7990504503250122
1629880798871,0.4772863090038299,0.0454254187643528,-0.1852268278598785,0.7894479036331177
1629880799044,0.4806489944458008,0.0517535544931888,-0.1643126010894775,0.7768968343734741
1629880799094,0.4818825721740722,0.0597819313406944,-0.1509993225336074,0.7625243663787842
1629880799219,0.4831384420394897,0.0692529901862144,-0.1445143073797226,0.7448960542678833
1629880799313,0.4855173528194427,0.0773909837007522,-0.1414057314395904,0.7268505692481995
1629880799391,0.4870895147323608,0.0808665603399276,-0.1368363797664642,0.7126872539520264
1629880799476,0.4867142140865326,0.0769490525126457,-0.1254470497369766,0.7035704255104065
1629880799650,0.4858044981956482,0.0635906904935836,-0.105551391839981,0.6975920796394348
1629880799759,0.4860980212688446,0.0415081344544887,-0.0806837677955627,0.6946573853492737
1629880799822,0.486644983291626,0.014329926110804,-0.0567386262118816,0.6963312029838562
1629880799936,0.4827373921871185,-0.0132552972063422,-0.0364249125123024,0.6990511417388916
1629880800015,0.4746533036231994,-0.0384127311408519,-0.019584197551012,0.6971361637115479
1629880800062,0.4657873213291168,-0.0609764046967029,-0.0063096997328102,0.6932093501091003
1629880800218,0.4603331089019775,-0.0811467543244361,0.0012118836166337,0.6920514702796936
1629880800327,0.4604170024394989,-0.0986818224191665,0.0026683176402002,0.6972730159759521
1629880800436,0.4646230340003967,-0.1140976026654243,0.0006447297055274,0.7053530812263489
1629880800530,0.4705360233783722,-0.1296952217817306,-0.0010819962481036,0.709385097026825
1629880800597,0.4793329238891601,-0.148437887430191,0.000266224349616,0.7130469679832458
1629880800675,0.4912659227848053,-0.1710893809795379,0.0055694649927318,0.7210556268692017
1629880800847,0.5045515298843384,-0.1950341761112213,0.012772612273693,0.7345210313796997
1629880800956,0.5150663256645203,-0.219624176621437,0.0168530419468879,0.7504591941833496
1629880801018,0.5153836607933044,-0.2452031224966049,0.0117602199316024,0.7642406821250916
1629880801112,0.4998552203178406,-0.2676548659801483,-0.0038232780061662,0.7703860998153687
1629880801222,0.4706045687198639,-0.2745070457458496,-0.0248673968017101,0.7675891518592834
1629880801315,0.4370795786380768,-0.2573320865631103,-0.0431248284876346,0.7549095749855042
1629880801472,0.4129160046577453,-0.2241429835557937,-0.054639283567667,0.7354704141616821
1629880801534,0.4068378508090973,-0.1905522644519806,-0.0617399550974369,0.7197027206420898
1629880801662,0.421684205532074,-0.164404422044754,-0.0678765848278999,0.7165533900260925
1629880801709,0.4497192800045013,-0.1450305581092834,-0.0732856392860412,0.7264363169670105
1629880801834,0.4778226912021637,-0.1301280558109283,-0.0780690982937812,0.7404916882514954
1629880801943,0.49697145819664,-0.1185540109872818,-0.0829861089587211,0.7510743141174316
1629880802068,0.5068390965461731,-0.1092932894825935,-0.0886775404214859,0.7574688792228699
1629880802146,0.5100631713867188,-0.1014777347445488,-0.095265008509159,0.7605852484703064
1629880802240,0.5093584060668945,-0.0963727459311485,-0.1039598584175109,0.7614225149154663
1629880802334,0.5051887035369873,-0.0961394384503364,-0.11650350689888,0.7602233290672302
1629880802474,0.4976057112216949,-0.0982226356863975,-0.1320682764053344,0.7564698457717896
1629880802506,0.4888980984687805,-0.0972013995051384,-0.1461595594882965,0.7525509595870972
1629880802680,0.4814387857913971,-0.0905908122658729,-0.155633270740509,0.7502438426017761
1629880802789,0.4771590530872345,-0.0852253958582878,-0.162271112203598,0.7512063384056091
1629880802898,0.4763673841953277,-0.0899510830640792,-0.1693100482225418,0.7560907006263733
1629880802992,0.477400004863739,-0.1065001562237739,-0.1782901287078857,0.7624033689498901
1629880803023,0.4761547148227691,-0.1281314194202423,-0.1907098144292831,0.7638887166976929
1629880803133,0.4700570404529571,-0.1466962248086929,-0.2096520662307739,0.7539901733398438
1629880803305,0.4633659720420837,-0.1581968963146209,-0.2363490611314773,0.7344787120819092
1629880803351,0.4634192287921905,-0.1623011529445648,-0.2636641561985016,0.7128714919090271
1629880803476,0.4702766835689544,-0.159693643450737,-0.2745020687580108,0.6966293454170227
1629880803570,0.4792179763317108,-0.1525820940732956,-0.2573814988136291,0.6868646740913391
1629880803668,0.4862385094165802,-0.1443286836147308,-0.2206088900566101,0.6839327812194824
1629880803760,0.4912236332893371,-0.1357503980398178,-0.1821817606687545,0.6761153936386108
1629880803891,0.4939785599708557,-0.125422716140747,-0.1527543663978576,0.6617844700813293
1629880803969,0.4935229122638702,-0.114679992198944,-0.1326621025800705,0.6463678479194641
1629880804063,0.4909391105175018,-0.1075351387262344,-0.1185252815485,0.6136102676391602
1629880804172,0.4900084137916565,-0.1066180616617202,-0.1091806814074516,0.5990244150161743
1629880804250,0.4926252365112304,-0.1096911802887916,-0.1045787334442138,0.6020722985267639
1629880804359,0.4967727959156036,-0.1116070225834846,-0.104352094233036,0.6161997318267822
1629880804484,0.4991469979286194,-0.1099978387355804,-0.1061771810054779,0.631873369216919
1629880804578,0.497649222612381,-0.1064580306410789,-0.105018638074398,0.6429327130317688
1629880804672,0.4882544875144958,-0.1041199788451194,-0.0969349220395088,0.646651566028595
1629880804750,0.4662268757820129,-0.1053915321826934,-0.0836677774786949,0.6431825757026672
1629880804859,0.4316146373748779,-0.1084046438336372,-0.0729107707738876,0.638818085193634
1629880805000,0.3936820328235626,-0.1071454510092735,-0.0748937427997589,0.6378213167190552
1629880805125,0.3626634180545807,-0.0965602919459343,-0.0947037413716316,0.6389069557189941
1629880805172,0.3439055979251861,-0.0792832523584365,-0.128554955124855,0.6354959011077881
1629880805312,0.3356215357780456,-0.0636268332600593,-0.1632362008094787,0.6342210173606873
1629880805422,0.3347674310207367,-0.0566122718155384,-0.1833017468452453,0.6341261267662048
1629880805519,0.3416521549224853,-0.0586143769323825,-0.1843178868293762,0.6351221799850464
1629880805565,0.352761834859848,-0.0652188509702682,-0.17555733025074,0.6512671709060669
1629880805753,0.3629972338676452,-0.0708300396800041,-0.1675381362438202,0.6649255752563477
1629880805815,0.3684603869915008,-0.0730550736188888,-0.1631782501935959,0.675264835357666
1629880805925,0.3720833361148834,-0.0742546543478965,-0.1588369309902191,0.6787945032119751
1629880806003,0.3829171061515808,-0.0772132202982902,-0.1518248468637466,0.6753475069999695
1629880806081,0.4065257310867309,-0.081871286034584,-0.1434915661811828,0.6656961441040039
1629880806190,0.4396077394485473,-0.084434688091278,-0.1361058056354522,0.6529257297515869
1629880806362,0.4762083292007446,-0.0790096595883369,-0.1295894980430603,0.6407018899917603
1629880806424,0.5111801028251648,-0.0618094392120838,-0.1212925538420677,0.6358996033668518
1629880806487,0.542211651802063,-0.0362085774540901,-0.1096298918128013,0.6454352736473083
1629880806581,0.5674301385879517,-0.0098283858969807,-0.0948314145207405,0.6757541298866272
1629880806724,0.5849186182022095,0.0112004000693559,-0.0776315331459045,0.7219724655151367
1629880806833,0.5967046618461609,0.0250380672514438,-0.059360209852457,0.7692500948905945
1629880806911,0.6107849478721619,0.0334645472466945,-0.0423705987632274,0.8079270124435425
1629880807036,0.6307486295700073,0.037726167589426,-0.0289688482880592,0.8340322375297546
1629880807114,0.6548753380775452,0.0379191040992736,-0.0193512011319398,0.8507490754127502
1629880807239,0.6789695024490356,0.0329695120453834,-0.0107612023130059,0.8609846830368042
1629880807317,0.699957549571991,0.0239782053977251,-0.0012147987727075,0.8664413690567017
1629880807442,0.715894877910614,0.0149099519476294,0.0074134743772447,0.8688238263130188
1629880807536,0.7230960130691528,0.0091443313285708,0.011144820600748,0.8681731224060059
1629880807664,0.7189251780509949,0.0068994835019111,0.0079440297558903,0.8661563396453857
1629880807757,0.70390385389328,0.0054098195396363,-0.0004890219424851,0.8653477430343628
1629880807804,0.6819045543670654,0.0023963490966707,-0.0103682018816471,0.8669221997261047
1629880807913,0.6586792469024658,-0.0057622697204351,-0.0192073080688714,0.8685307502746582
1629880808085,0.6378743648529053,-0.0244595110416412,-0.0267150029540061,0.8652331233024597
1629880808132,0.6327910423278809,-0.056695282459259,-0.0351363308727741,0.8529322147369385
1629880808257,0.6310798525810242,-0.0982953459024429,-0.0453006327152252,0.8323896527290344
1629880808366,0.6300220489501953,-0.1381821185350418,-0.0543265901505947,0.8134278059005737
1629880808460,0.6217332482337952,-0.1666543781757354,-0.0580884963274002,0.8048896193504333
1629880808507,0.6013709902763367,-0.1804769784212112,-0.0561871789395809,0.8049782514572144
1629880808632,0.5693368911743164,-0.1822074353694915,-0.0518865883350372,0.8055617809295654
1629880808757,0.5423719882965088,-0.1749513745307922,-0.0465866960585117,0.8004421591758728
1629880808866,0.5151875615119934,-0.1646979004144668,-0.0378918834030628,0.7928589582443237
1629880808929,0.4867962300777435,-0.1580641865730285,-0.0248044338077306,0.7854447960853577
1629880809069,0.4543007612228393,-0.1571834981441497,-0.0105483597144484,0.7822180986404419
1629880809132,0.4201303422451019,-0.15950608253479,0.0014555009547621,0.7850306630134583
1629880809226,0.3925650119781494,-0.1624446809291839,0.0120185725390911,0.7920715808868408
1629880809351,0.3721621632575989,-0.1699398905038833,0.0240671355277299,0.799803614616394
1629880809510,0.3508195579051971,-0.18781478703022,0.0374994948506355,0.8029389381408691
1629880809557,0.3211414217948913,-0.21559838950634,0.0500043891370296,0.8003177046775818
1629880809635,0.2970487177371979,-0.2441279888153076,0.0595217756927013,0.7904886603355408
1629880809760,0.2797750830650329,-0.2621088325977325,0.0651862695813179,0.7740042805671692
1629880809853,0.2734916806221008,-0.2648710906505584,0.0665046125650405,0.7482233047485352
1629880809994,0.2769064009189605,-0.2554404139518738,0.0636592283844947,0.71656334400177
1629880810103,0.2834333181381225,-0.2405595332384109,0.0586808919906616,0.6896265745162964
1629880810181,0.2875786423683166,-0.2264254093170166,0.0537250228226184,0.6772330403327942
1629880810275,0.2545397579669952,-0.2143540829420089,0.0472243130207061,0.6853639483451843
1629880810353,0.2293900102376938,-0.2006202340126037,0.0349136777222156,0.7063520550727844
1629880810494,0.2177079021930694,-0.1838563531637191,0.0154739068821072,0.7347084283828735
1629880810622,0.222968116402626,-0.1692522168159485,-0.0051629939116537,0.7603704333305359
1629880810669,0.2371661365032196,-0.1635790914297104,-0.0191323813050985,0.7765109539031982
1629880810809,0.2504521608352661,-0.1682143956422805,-0.0248033199459314,0.7842158079147339
1629880810903,0.2617862224578857,-0.1785867512226104,-0.0277347769588232,0.7900084257125854
1629880810965,0.2776451706886291,-0.1886768788099289,-0.0333065763115882,0.7976210713386536
1629880811075,0.3029513657093048,-0.1949389576911926,-0.0420513227581977,0.8072214722633362
1629880811200,0.33741295337677,-0.1984267085790634,-0.0502458773553371,0.8205280900001526
1629880811340,0.3725142478942871,-0.2030873894691467,-0.057139154523611,0.8363643288612366
1629880811387,0.3987641930580139,-0.2125544846057891,-0.0670104622840881,0.8518845438957214
1629880811512,0.4119606018066406,-0.2284528017044067,-0.0846027806401252,0.8595209121704102
1629880811559,0.4150683283805847,-0.2481827586889267,-0.1088708266615867,0.85711270570755
1629880811703,0.4135483503341675,-0.2675361633300781,-0.1336557865142822,0.8453809022903442
1629880811796,0.410813570022583,-0.2870617806911468,-0.1538921594619751,0.8264028429985046
1629880811890,0.4103137254714966,-0.3111847043037414,-0.169531762599945,0.8036255240440369
1629880811984,0.4148988127708435,-0.3394546806812286,-0.1815632283687591,0.7805271148681641
1629880812078,0.4255494773387909,-0.3601727485656738,-0.1903473287820816,0.7632868885993958
1629880812203,0.4396635591983795,-0.3586068451404571,-0.1971579790115356,0.7536845803260803
1629880812327,0.4510433375835418,-0.3329304158687591,-0.206539437174797,0.7469276189804077
1629880812437,0.454312115907669,-0.2952765226364136,-0.2215017080307006,0.7353805303573608
1629880812515,0.4468634128570556,-0.2587557435035705,-0.239339679479599,0.7185186743736267
1629880812609,0.4283359944820404,-0.2301862388849258,-0.2552066743373871,0.6980944275856018
1629880812721,0.3996146321296692,-0.2117527574300766,-0.2672891616821289,0.6730915307998657
1629880812799,0.3650832772254944,-0.2007625848054886,-0.2757587134838104,0.6445721387863159
1629880812861,0.3333359062671661,-0.1922634690999984,-0.2796599864959717,0.6166189908981323
1629880813033,0.3129500448703766,-0.1825565844774246,-0.2755466401576996,0.5989171862602234
1629880813111,0.3085566163063049,-0.1725843399763107,-0.2640182971954345,0.5974392294883728
1629880813221,0.3197759985923767,-0.164727047085762,-0.2507261633872986,0.6110294461250305
1629880813314,0.3392675817012787,-0.158099964261055,-0.2407006472349167,0.6311657428741455
1629880813392,0.3566537797451019,-0.1495628803968429,-0.235365405678749,0.6476970911026001
1629880813471,0.3642856180667877,-0.1375891119241714,-0.233056828379631,0.6548047661781311
1629880813647,0.3609602153301239,-0.1235001534223556,-0.2310840785503387,0.6501685380935669
1629880813741,0.3522142469882965,-0.1092620640993118,-0.2263753861188888,0.6364880204200745
1629880813819,0.3454464375972748,-0.0956626385450363,-0.2171228677034378,0.6205402612686157
1629880813944,0.3455339968204498,-0.0831001177430152,-0.2053158581256866,0.6078948974609375
1629880814022,0.3526284396648407,-0.0711236745119094,-0.1958546489477157,0.6008539199829102
1629880814116,0.3626126945018768,-0.0584614910185337,-0.1928034573793411,0.5969753265380859
1629880814225,0.3711951673030853,-0.0421471819281578,-0.1965192407369613,0.5965723991394043
1629880814350,0.3754236102104187,-0.0219581220299005,-0.2037121951580047,0.5982986092567444
1629880814428,0.3766436576843261,-0.000908997375518,-0.2098417431116104,0.6006324887275696
1629880814506,0.3770780563354492,0.0167286824434995,-0.2137618511915207,0.6008357405662537
1629880814647,0.3745920062065124,0.0276328492909669,-0.2179977595806121,0.594114363193512
1629880814776,0.3661766946315765,0.030344707891345,-0.2241023629903793,0.578976035118103
1629880814916,0.353547602891922,0.0255238004028797,-0.2288349419832229,0.555313766002655
1629880814948,0.3426790535449981,0.0162749551236629,-0.225960835814476,0.5296465754508972
1629880815088,0.3380188643932342,0.0063092447817325,-0.2149422317743301,0.5054189562797546
1629880815182,0.3368829786777496,-0.0030724639073014,-0.203376904129982,0.4867843389511108
1629880815229,0.3339148461818695,-0.0135675249621272,-0.1999199837446212,0.4772512316703796
1629880815323,0.3276519775390625,-0.0272378008812665,-0.2063247561454773,0.4746732413768768
1629880815447,0.3214572370052337,-0.0435413680970668,-0.2162559479475021,0.4818488657474518
1629880815572,0.3186689019203186,-0.0596943162381649,-0.2194960415363311,0.4978978931903839
1629880815666,0.3199782371520996,-0.0732292160391807,-0.2093667089939117,0.5192952752113342
1629880815809,0.3236598670482635,-0.0837294533848762,-0.1867496818304062,0.5398056507110596
1629880815872,0.3271345496177673,-0.0890271365642547,-0.1578686088323593,0.5532656311988831
1629880815950,0.3282704353332519,-0.0848938003182411,-0.132780835032463,0.5581793785095215
1629880816044,0.3258515000343323,-0.0692816600203514,-0.1187855973839759,0.560031533241272
1629880816138,0.3212111294269562,-0.0450001209974288,-0.1160496026277542,0.5653784275054932
1629880816294,0.3149409890174866,-0.0179924611002206,-0.1186373233795166,0.5778818726539612
1629880816356,0.3081621527671814,0.0060886242426931,-0.1198056787252426,0.598259687423706
1629880816450,0.3023244142532348,0.0234249159693717,-0.1186639666557312,0.6201326847076416
1629880816544,0.2974574863910675,0.0320088826119899,-0.1184591501951217,0.6385621428489685
1629880816669,0.2933140397071838,0.03246396407485,-0.1216749176383018,0.6502882242202759
1629880816797,0.2899117469787597,0.0283159259706735,-0.1278374344110489,0.6555008292198181
1629880816890,0.2903862595558166,0.0240123607218265,-0.1349436044692993,0.6596527695655823
1629880816953,0.2935077846050262,0.0228489022701978,-0.1425425857305526,0.6642961502075195
1629880817062,0.295622318983078,0.0248222034424543,-0.1522753238677978,0.6679342985153198
1629880817156,0.2958067953586578,0.0276309568434953,-0.1665063649415969,0.6722463965415955
1629880817312,0.3039942979812622,0.0272241588681936,-0.1869460642337799,0.6775954961776733
1629880817390,0.3103306889533996,0.0193152725696563,-0.2123758792877197,0.6785898804664612
1629880817484,0.3189223408699035,0.0027855825610458,-0.2365829199552536,0.6818335056304932
1629880817549,0.3271582722663879,-0.0156586021184921,-0.2554697692394256,0.6850775480270386
1629880817689,0.3346187472343445,-0.0231593418866395,-0.2643215954303741,0.6862214207649231
1629880817783,0.343252032995224,-0.0122677851468324,-0.2655902802944183,0.6831555962562561
1629880817931,0.3514888882637024,0.0109765958040952,-0.2677418291568756,0.6743319034576416
1629880818021,0.3544257879257202,0.0349167324602603,-0.2762213349342346,0.6621571779251099
1629880818066,0.3486869037151336,0.0536628402769565,-0.2897678911685943,0.6514939069747925
1629880818163,0.3381712436676025,0.0688934102654457,-0.2997446358203888,0.6491223573684692
1629880818300,0.3313809335231781,0.0829810947179794,-0.297118067741394,0.6622292399406433
1629880818362,0.3292133212089538,0.0954041481018066,-0.2821879684925079,0.6855772733688354
1629880818520,0.3292133212089538,0.1044864803552627,-0.262853056192398,0.6855772733688354
1629880818614,0.3292133212089538,0.1103977710008621,-0.262853056192398,0.6855772733688354
1629880818711,0.3292133212089538,0.1151026412844657,-0.262853056192398,0.6855772733688354
1629880818772,0.3292133212089538,0.1207303553819656,-0.262853056192398,0.6855772733688354
1629880818843,0.3292133212089538,0.1294240057468414,-0.262853056192398,0.6855772733688354
1629880818999,0.3292133212089538,0.1488388329744339,-0.1726886332035064,0.6855772733688354
1629880819141,0.3292133212089538,0.1947718113660812,0.0590090081095695,0.6855772733688354
1629880819223,0.3292133212089538,0.2675133049488067,0.0590090081095695,0.6855772733688354
1629880819285,0.3292133212089538,0.3431157767772674,0.0590090081095695,0.6855772733688354
1629880819434,0.5379706025123596,0.3975456357002258,0.0590090081095695,0.6855772733688354
1629880819497,0.5863122940063477,0.4234564006328583,0.0590090081095695,0.6855772733688354
1629880819609,0.5863122940063477,0.4289313554763794,0.0590090081095695,0.6855772733688354
1629880819718,0.5863122940063477,0.4266185164451599,0.0590090081095695,0.6855772733688354
1629880819843,0.5863122940063477,0.4236473441123962,0.0590090081095695,0.6855772733688354
1629880819922,0.5863122940063477,0.4209804832935333,0.0519587509334087,0.6855772733688354
1629880820062,0.5863122940063477,0.4179592132568359,0.0200535859912633,0.6855772733688354
1629880820109,0.5498748421669006,0.414404422044754,-0.0135654713958501,0.6855772733688354
1629880820171,0.5527140498161316,0.4108920693397522,-0.008743155747652,0.6855772733688354
1629880820328,0.5496839880943298,0.4084185659885406,0.0014990115305408,0.6855772733688354
1629880820421,0.5325111746788025,0.4061353206634521,0.004472654312849,0.6048920154571533
1629880820546,0.5091943144798279,0.3978290557861328,-0.0335947163403034,0.6157940626144409
1629880820578,0.4960602223873138,0.3696117103099823,-0.2120918780565261,0.6122493743896484
1629880820706,0.4895026087760925,0.3096829950809479,-0.2227416336536407,0.594269871711731
1629880820831,0.4856674075126648,0.2207994014024734,-0.2347348779439926,0.5715606212615967
1629880820940,0.402359664440155,0.127096027135849,-0.2454688400030136,0.5560311079025269
1629880821034,0.3420351445674896,0.0627932921051979,-0.2538903951644897,0.5546693801879883
1629880821159,0.335454910993576,0.0365804657340049,-0.2598437368869781,0.5633590221405029
1629880821221,0.3319004476070404,0.0270422454923391,-0.2618076205253601,0.5780443549156189
1629880821315,0.3394204080104828,0.0180485434830188,-0.2578421235084533,0.5971433520317078
1629880821424,0.3546660840511322,0.0081745395436882,-0.2736632525920868,0.6158239841461182
1629880821549,0.368373155593872,0.0013917991891503,-0.2619744539260864,0.6293871402740479
1629880821708,0.3792048692703247,0.0009633684530854,-0.2446231096982956,0.6404030919075012
1629880821755,0.3863782584667206,0.008173769339919,-0.233665719628334,0.6481266021728516
1629880821895,0.3899252414703369,0.0215879548341035,-0.2291957139968872,0.6482164859771729
1629880821926,0.3879721462726593,0.0387279018759727,-0.2261929512023925,0.6406954526901245
1629880822004,0.3786248564720154,0.0563694275915622,-0.2198244780302047,0.6284930109977722
1629880822145,0.3628908097743988,0.070368081331253,-0.207184225320816,0.6201940178871155
1629880822270,0.3421288728713989,0.0762644782662391,-0.18870909512043,0.6221588850021362
1629880822360,0.319408506155014,0.0747349634766578,-0.1681484282016754,0.6330008506774902
1629880822438,0.3006522059440613,0.071610540151596,-0.1461395770311355,0.6483853459358215
1629880822516,0.2953439950942993,0.0723371803760528,-0.1200627535581588,0.6669806241989136
1629880822641,0.3031850457191467,0.0763569474220275,-0.0903327390551567,0.684651255607605
1629880822784,0.3099689781665802,0.0793374180793762,-0.0636430829763412,0.6935710906982422
1629880822862,0.3020201623439789,0.0795813053846359,-0.0456190221011638,0.6903522610664368
1629880822987,0.2774687111377716,0.0794007703661918,-0.0352633595466613,0.678019642829895
1629880823050,0.2513312101364136,0.0801619440317154,-0.0271245297044515,0.6683414578437805
1629880823128,0.2410048544406891,0.0802120417356491,-0.0183898452669382,0.6656824350357056
1629880823268,0.2511709332466125,0.0762668028473854,-0.0107100820168852,0.6682634353637695
1629880823425,0.2706603109836578,0.0675148665904998,-0.0050885425880551,0.6719312071800232
1629880823472,0.2909318804740906,0.0566034354269504,-0.0001737003913149,0.6760150790214539
1629880823581,0.3124786019325256,0.0480988137423992,0.0052494038827717,0.6819230318069458
1629880823675,0.3383353054523468,0.0457244962453842,0.0099858017638325,0.688939094543457
1629880823786,0.3675544559955597,0.0492792725563049,0.0128675624728202,0.6933727860450745
1629880823864,0.3974445462226867,0.0535166263580322,0.0145464148372411,0.6913384795188904
1629880824004,0.4271347522735595,0.0525430478155612,0.0139328325167298,0.6821379065513611
1629880824083,0.4545440673828125,0.0450606495141983,0.0076862256973981,0.6641653180122375
1629880824192,0.4762956202030182,0.0369005762040615,-0.0062004746869206,0.6429510116577148
1629880824317,0.4907822906970978,0.0361711010336875,-0.0249156299978494,0.6278520822525024
1629880824348,0.4989271461963653,0.0454031080007553,-0.044396199285984,0.6243653297424316
1629880824473,0.5023967623710632,0.0612299107015132,-0.0636225193738937,0.6293488144874573
1629880824582,0.5016180872917175,0.0786762535572052,-0.0842873975634574,0.6324539184570312
1629880824692,0.4957995414733886,0.0936700701713562,-0.1049084290862083,0.6322298645973206
1629880824787,0.4864260256290436,0.1037483364343643,-0.120409220457077,0.6330068707466125
1629880824898,0.4767588376998901,0.1082872375845909,-0.1274406611919403,0.63849937915802
1629880824960,0.4685702323913574,0.1098547577857971,-0.1285799443721771,0.645056426525116
1629880825070,0.4596352577209472,0.1112846955657005,-0.1300608217716217,0.6466909050941467
1629880825242,0.4460297226905823,0.1105464473366737,-0.1356337070465088,0.6428777575492859
1629880825304,0.428259015083313,0.1021889597177505,-0.1451480686664581,0.639300525188446
1629880825382,0.4093545079231262,0.0837831944227218,-0.156807541847229,0.6408525705337524
1629880825496,0.3920791745185852,0.0608135499060153,-0.170019581913948,0.6482481360435486
1629880825575,0.3767703771591186,0.0431197620928287,-0.1848303079605102,0.6570956110954285
1629880825683,0.3660884201526642,0.034682672470808,-0.1997029334306717,0.6614509224891663
1629880825838,0.3636938333511352,0.0305038690567016,-0.2120971232652664,0.6600556373596191
1629880825902,0.369595855474472,0.0236913915723562,-0.2205861359834671,0.6503137946128845
1629880826011,0.3822447955608368,0.0114550637081265,-0.2244224399328231,0.6362461447715759
1629880826119,0.3979332745075226,-0.0048683551140129,-0.222522035241127,0.6230247616767883
1629880826181,0.4148390293121338,-0.0223248768597841,-0.2164592295885086,0.6132640838623047
1629880826309,0.4309520125389099,-0.0390904955565929,-0.2101024538278579,0.6064147353172302
1629880826434,0.4456014931201935,-0.0551473796367645,-0.2050712257623672,0.6013520359992981
1629880826526,0.4568930268287658,-0.0734841674566268,-0.1999676376581192,0.5977535247802734
1629880826619,0.4653499722480774,-0.0974928066134452,-0.1936430931091308,0.5976046919822693
1629880826712,0.4729372859001159,-0.1234525442123413,-0.1886789053678512,0.6000248789787292
1629880826814,0.4803957343101501,-0.1402991563081741,-0.188419908285141,0.6027772426605225
1629880826924,0.4854859709739685,-0.1413482874631881,-0.1917474865913391,0.6041864156723022
1629880827051,0.4844337999820709,-0.1318559795618057,-0.193422645330429,0.6013838648796082
1629880827128,0.4759038686752319,-0.1208810433745384,-0.1903969347476959,0.5933961868286133
1629880827237,0.4624091386795044,-0.1115193292498588,-0.184293046593666,0.5893861651420593
1629880827347,0.4494761228561401,-0.1031143367290496,-0.1788114011287689,0.5966281294822693
1629880827440,0.4404676556587219,-0.0958803594112396,-0.1754523068666458,0.6175823211669922
1629880827503,0.4334083199501037,-0.090226836502552,-0.175151914358139,0.6418772339820862
1629880827693,0.4238827526569366,-0.0834938138723373,-0.1786889880895614,0.6613617539405823
1629880827740,0.4098577797412872,-0.0708952993154525,-0.1857142299413681,0.6749106049537659
1629880827818,0.3938393890857696,-0.0479602329432964,-0.1948589533567428,0.6820548176765442
1629880827960,0.3780214786529541,-0.0157934371381998,-0.2075055688619613,0.6821824312210083
1629880828024,0.3660098910331726,0.0178764201700687,-0.2256630808115005,0.6787381172180176
1629880828135,0.3602412343025207,0.0453121550381183,-0.2469673901796341,0.6747600436210632
1629880828274,0.3609272837638855,0.0635926127433776,-0.263537734746933,0.6706256866455078
1629880828325,0.366043746471405,0.073693998157978,-0.2692994773387909,0.6662057042121887
1629880828450,0.3738249838352203,0.0777763724327087,-0.2661971747875213,0.6617467403411865
1629880828528,0.3823560774326324,0.0776144415140152,-0.2588140070438385,0.659831166267395
1629880828643,0.3895811736583709,0.0744097307324409,-0.2471370100975036,0.6639733910560608
1629880828721,0.3929621279239654,0.069740355014801,-0.2285889387130737,0.6659027934074402
1629880828862,0.391767680644989,0.0653866976499557,-0.2024906873703003,0.6568031907081604
1629880828940,0.3907811939716339,0.0627244263887405,-0.1727316081523895,0.6350933909416199
1629880829049,0.397029310464859,0.0617803484201431,-0.1449083834886551,0.6124643087387085
1629880829160,0.412116527557373,0.0592206381261348,-0.1235710233449935,0.5975421071052551
1629880829253,0.4319812059402466,0.0511685647070407,-0.1097879037261009,0.5895301103591919
1629880829378,0.4488634467124939,0.0347201637923717,-0.101474143564701,0.5826953649520874
1629880829456,0.4599030911922455,0.0101507939398288,-0.0963056534528732,0.5754748582839966
1629880829566,0.4665983021259308,-0.0162372440099716,-0.0937222763895988,0.5693864226341248
1629880829675,0.469790369272232,-0.0343440286815166,-0.0950709283351898,0.5647754073143005
1629880829753,0.4712208807468414,-0.0396475456655025,-0.09961698949337,0.5636972784996033
1629880829894,0.4724175631999969,-0.035477690398693,-0.1043989136815071,0.5678596496582031
1629880829972,0.4762824475765228,-0.0268713198602199,-0.1067570596933364,0.5712695717811584
1629880830098,0.4832384586334228,-0.0141259720548987,-0.1079072803258895,0.5934745073318481
1629880830190,0.4902889728546142,0.0050720176659524,-0.1113633513450622,0.616618275642395
1629880830253,0.494001179933548,0.0295309033244848,-0.119747407734394,0.6352450847625732
1629880830362,0.4928718507289886,0.0538233034312725,-0.1335954219102859,0.6501230597496033
1629880830472,0.4858869612216949,0.0716469660401344,-0.1520491242408752,0.666259229183197
1629880830612,0.4740985631942749,0.0789418071508407,-0.171796515583992,0.6820630431175232
1629880830709,0.4594320654869079,0.0770555958151817,-0.1870036721229553,0.6943527460098267
1629880830802,0.4440592527389526,0.0701547265052795,-0.1938967406749725,0.7020825147628784
1629880830881,0.4280102252960205,0.0615497082471847,-0.1947341859340667,0.7065805792808533
1629880830974,0.410244345664978,0.0512900687754154,-0.1952400058507919,0.7100248336791992
1629880831099,0.390189528465271,0.0379322580993175,-0.1983077377080917,0.7138060927391052
1629880831162,0.3702926933765411,0.0216413997113704,-0.2005762010812759,0.7215901017189026
1629880831349,0.3519575893878937,0.0073689753189682,-0.1958422064781189,0.7350074052810669
1629880831380,0.3354943096637726,0.0014511011540889,-0.1812282353639602,0.7487244009971619
1629880831524,0.3194673955440521,0.0042970795184373,-0.1611144244670868,0.7504699230194092
1629880831587,0.3049086630344391,0.0075066513381898,-0.1433205604553222,0.7430707216262817
1629880831680,0.29539355635643,0.000541066925507,-0.133193165063858,0.7254340052604675
1629880831880,0.2920017838478088,-0.0194505788385868,-0.1311309933662414,0.7062466144561768
1629880831927,0.2920901775360107,-0.044228971004486,-0.1348744034767151,0.6927120685577393
1629880832036,0.2916874885559082,-0.0618414655327796,-0.1418432295322418,0.6825955510139465
1629880832114,0.2888336479663849,-0.0678669363260269,-0.1507191509008407,0.6749679446220398
1629880832208,0.2866881191730499,-0.0679756924510002,-0.1610033065080642,0.6726922988891602
1629880832286,0.2871495187282562,-0.0694954767823219,-0.1719449013471603,0.67989182472229
1629880832411,0.2909839749336242,-0.0734207853674888,-0.1819706708192825,0.6972571611404419
1629880832569,0.296075165271759,-0.0742775574326515,-0.1891004294157028,0.7167151570320129
1629880832663,0.3007740974426269,-0.0677018463611602,-0.193134605884552,0.7289078831672668
1629880832772,0.304902046918869,-0.0536361448466777,-0.1956399530172348,0.7274599075317383
1629880832835,0.3086662888526916,-0.0382644794881343,-0.2003685384988784,0.7127538919448853
1629880832913,0.3117589056491852,-0.0295354705303907,-0.2107021361589431,0.692820131778717
1629880832975,0.3110679984092712,-0.029880890622735,-0.2264740616083145,0.6764858961105347
1629880833132,0.3025072515010834,-0.0333048216998577,-0.2428275346755981,0.6661946177482605
1629880833210,0.284675270318985,-0.028919979929924,-0.25281822681427,0.66168612241745
1629880833335,0.2630615234375,-0.0092295026406645,-0.2530058324337005,0.659595251083374
1629880833413,0.2475602477788925,0.0217633433640003,-0.2441644370555877,0.6573895812034607
1629880833507,0.2495085895061493,0.052980825304985,-0.229071632027626,0.6561445593833923
1629880833663,0.2693430781364441,0.0773572772741317,-0.2124422043561935,0.6539885997772217
1629880833772,0.2941997349262237,0.0955740436911583,-0.19889797270298,0.6483700275421143
1629880833819,0.3106875419616699,0.113274410367012,-0.1902482062578201,0.634273886680603
1629880833928,0.3161781430244446,0.1330962032079696,-0.1849030554294586,0.6125513315200806
1629880834053,0.3179484903812408,0.1508372575044632,-0.1800156980752945,0.5940847396850586
1629880834116,0.3255602717399597,0.1612666398286819,-0.1746992319822311,0.5913625955581665
1629880834210,0.3398948609828949,0.1626101732254028,-0.1710011065006256,0.6057907938957214
1629880834397,0.3541097939014435,0.1573089957237243,-0.1715039163827896,0.6237928867340088
1629880834460,0.3613608777523041,0.1500135064125061,-0.177363783121109,0.6350040435791016
1629880834538,0.3610371053218841,0.1455844938755035,-0.1865735054016113,0.6362975835800171
1629880834650,0.3562039732933044,0.1460001021623611,-0.1935471147298813,0.6330267190933228
1629880834743,0.3525796234607696,0.1481214463710785,-0.1954158395528793,0.6301593780517578
1629880834822,0.3547878563404083,0.1438338309526443,-0.1959623545408249,0.6341320276260376
1629880834978,0.3607049882411957,0.1293621957302093,-0.2020246237516403,0.6458976864814758
1629880835072,0.3607482016086578,0.1126668229699134,-0.2144909650087356,0.6598454117774963
1629880835134,0.3464186489582062,0.1060825139284133,-0.2273953557014465,0.6685588359832764
1629880835228,0.3177054226398468,0.1119019910693168,-0.2353399842977523,0.667271077632904
1629880835384,0.2851284444332123,0.1197022348642349,-0.2394721955060959,0.6577900052070618
1629880835478,0.2617151737213135,0.1201236248016357,-0.2433915883302688,0.6446037292480469
1629880835587,0.2531350553035736,0.1145143285393714,-0.2488811016082763,0.6330435872077942
1629880835667,0.2540015578269958,0.1092792451381683,-0.2547451257705688,0.6289030909538269
1629880835746,0.2554657161235809,0.1070007979869842,-0.2601450979709625,0.6338822245597839
1629880835839,0.2496338486671447,0.1063427925109863,-0.2655880749225616,0.6439908742904663
1629880835980,0.2390427738428115,0.1048470288515091,-0.2720679938793182,0.65444415807724
1629880836027,0.2307532727718353,0.1005620434880256,-0.2795066237449646,0.6628029942512512
1629880836183,0.234740749001503,0.0936949253082275,-0.2884301841259002,0.6709709167480469
1629880836277,0.2541605234146118,0.0868934243917465,-0.2992709577083587,0.6794994473457336
1629880836402,0.2830968797206878,0.0836987793445587,-0.3091947734355926,0.6841394901275635
1629880836433,0.3131448328495025,0.0836042389273643,-0.3126321732997894,0.6844890713691711
1629880836542,0.3368940651416778,0.0802806690335273,-0.3087542653083801,0.6816070675849915
1629880836653,0.350280612707138,0.0686755552887916,-0.302898496389389,0.6772276163101196
1629880836781,0.3562975227832794,0.0512005053460598,-0.3015653789043426,0.6750156879425049
1629880836890,0.3601211011409759,0.0351138971745967,-0.306841105222702,0.6764258146286011
1629880836952,0.364141434431076,0.0244549363851547,-0.3163118362426758,0.6787899136543274
1629880837062,0.3640870153903961,0.0164809115231037,-0.326187402009964,0.675740122795105
1629880837218,0.3561899960041046,0.0066609578207135,-0.3331948220729828,0.6604470014572144
1629880837249,0.3436930775642395,-0.0060524474829435,-0.3329767882823944,0.6358945369720459
1629880837405,0.3375211060047149,-0.0210674293339252,-0.3208632469177246,0.616157054901123
1629880837468,0.3416308164596557,-0.0375744514167308,-0.2969166338443756,0.6104735732078552
1629880837562,0.3525494933128357,-0.0551161132752895,-0.2684588134288788,0.6193104386329651
1629880837752,0.3629516065120697,-0.0741983279585838,-0.2432346194982528,0.6341473460197449
1629880837798,0.3671835660934448,-0.096314899623394,-0.2224932014942169,0.6478135585784912
1629880837876,0.3615270853042602,-0.1220217198133468,-0.2024420648813247,0.6565610766410828
1629880838002,0.345774233341217,-0.1504217237234115,-0.1829064339399337,0.6582465171813965
1629880838111,0.3270805776119232,-0.1795454174280166,-0.1682713478803634,0.6549173593521118
1629880838220,0.3165475726127624,-0.2078478187322616,-0.1597492694854736,0.6508045196533203
1629880838283,0.3230150938034057,-0.2334707826375961,-0.1527124792337417,0.6476745009422302
1629880838423,0.3464430272579193,-0.250636875629425,-0.1407781243324279,0.647814154624939
1629880838504,0.3833009898662567,-0.2499436736106872,-0.1235212534666061,0.65555340051651
1629880838629,0.4276579022407532,-0.2282866686582565,-0.1047656014561653,0.6756231784820557
1629880838691,0.4707131087779999,-0.19388248026371,-0.0881268233060836,0.7069391012191772
1629880838816,0.5040788054466248,-0.1584233343601226,-0.0758190900087356,0.7386000156402588
1629880838894,0.5248273611068726,-0.1266226768493652,-0.0707904249429702,0.7590036392211914
1629880839004,0.5364210605621338,-0.0970676690340042,-0.0750241205096244,0.7657225131988525
1629880839066,0.5424851179122925,-0.0684161037206649,-0.0863250941038131,0.7617413997650146
1629880839207,0.545927882194519,-0.0417927242815494,-0.0999595746397972,0.7538864016532898
1629880839317,0.547381579875946,-0.0176826603710651,-0.1138344854116439,0.7467314600944519
1629880839410,0.5476986765861511,0.005713827908039,-0.1299186944961547,0.7422050833702087
1629880839520,0.5489682555198669,0.0290867127478122,-0.1487228870391845,0.7386304140090942
1629880839582,0.5538196563720703,0.0493124164640903,-0.1656171083450317,0.7356925010681152
1629880839723,0.5646596550941467,0.0636963471770286,-0.1757072955369949,0.7364927530288696
1629880839863,0.5767693519592285,0.0722959786653518,-0.179468959569931,0.7422066926956177
1629880839941,0.5822309255599976,0.0761488303542137,-0.1832853853702545,0.749912679195404
1629880840004,0.5743308067321777,0.0751100108027458,-0.1935195922851562,0.7540816068649292
1629880840129,0.5534361600875854,0.0690626725554466,-0.2119818925857544,0.7502523064613342
1629880840238,0.5271778106689453,0.0617827028036117,-0.2362485826015472,0.7370855808258057
1629880840348,0.5038400292396545,0.0593754351139068,-0.2601359486579895,0.717620849609375
1629880840488,0.4876759350299835,0.0634881779551506,-0.273386150598526,0.6994031071662903
1629880840519,0.4775542020797729,0.0702859312295913,-0.268437385559082,0.688711404800415
1629880840616,0.4697031676769256,0.07672630995512,-0.2500478327274322,0.6866151690483093
1629880840772,0.458129346370697,0.0832824483513832,-0.2310656309127807,0.683553159236908
1629880840866,0.4399158656597137,0.0915879160165786,-0.2184809446334839,0.6744494438171387
1629880840928,0.4179809391498565,0.1001548469066619,-0.2098610401153564,0.6621038913726807
1629880841038,0.399148017168045,0.1060570329427719,-0.2015026658773422,0.6515620350837708
1629880841178,0.3859968185424804,0.1088673025369644,-0.1962630152702331,0.6448957920074463
1629880841241,0.3731017112731933,0.1094322726130485,-0.1996576339006424,0.6362138986587524
1629880841319,0.3563050627708435,0.1078879237174987,-0.2121268659830093,0.6231896281242371
1629880841413,0.3384332358837127,0.104433499276638,-0.2274928241968155,0.6068594455718994
1629880841569,0.3227542638778686,0.0999554470181465,-0.2379163205623626,0.5888512134552002
1629880841682,0.3089485466480255,0.0947574004530906,-0.2392189353704452,0.5701456665992737
1629880841776,0.2952552735805511,0.0864227265119552,-0.2322149723768234,0.5518404245376587
1629880841869,0.284659206867218,0.0713011547923088,-0.2225198000669479,0.5377244353294373
1629880841947,0.2790480256080627,0.0490450337529182,-0.2183767408132553,0.5291489958763123
1629880842026,0.2753308713436126,0.0243493746966123,-0.2260468900203704,0.5259966254234314
1629880842135,0.269767552614212,0.002092205453664,-0.245077982544899,0.5237775444984436
1629880842275,0.2651985287666321,-0.0172915384173393,-0.2679170072078705,0.5227445363998413
1629880842354,0.2715694308280945,-0.0388234592974185,-0.2865819334983825,0.5237867832183838
1629880842447,0.290983647108078,-0.0665368139743805,-0.2989121973514557,0.5280933976173401
1629880842557,0.3135774433612823,-0.0974574908614158,-0.3044078052043915,0.5362746119499207
1629880842666,0.3272525668144226,-0.1212474703788757,-0.2991851568222046,0.5445475578308105
1629880842778,0.3307195901870727,-0.127145916223526,-0.2809522449970245,0.5516435503959656
1629880842887,0.3289635181427002,-0.1135198473930358,-0.2556051313877105,0.5526815056800842
1629880843012,0.3264254927635193,-0.0901293829083442,-0.2323838174343109,0.5514398813247681
1629880843075,0.3263408541679382,-0.0697584301233291,-0.2146238535642624,0.5529823899269104
1629880843200,0.3297282755374908,-0.0584715157747268,-0.2007542997598648,0.5580604076385498
1629880843294,0.3367736935615539,-0.0548430271446704,-0.1895697563886642,0.5640889406204224
1629880843403,0.3476669788360595,-0.0534759759902954,-0.1818941235542297,0.5679386258125305
1629880843528,0.3618764579296112,-0.0499531142413616,-0.1775506883859634,0.5687843561172485
1629880843606,0.3768487572669983,-0.0433931834995746,-0.1730657219886779,0.5665159821510315
1629880843684,0.3897944092750549,-0.0357827916741371,-0.1658570319414138,0.5641860365867615
1629880843778,0.3979004323482513,-0.031334925442934,-0.1583546102046966,0.5648193955421448
1629880843872,0.3979792594909668,-0.0329214259982109,-0.1560409516096115,0.5662844181060791
1629880843997,0.3904875814914703,-0.0390558131039142,-0.1613224446773529,0.5631937980651855
1629880844106,0.3790825605392456,-0.0446583330631256,-0.1711040437221527,0.5542517900466919
1629880844215,0.3711473345756531,-0.0439236499369144,-0.1795883923768997,0.5467884540557861
1629880844309,0.3680989742279053,-0.0369194783270359,-0.1843675076961517,0.5494216680526733
1629880844403,0.367291122674942,-0.0301788281649351,-0.1875824034214019,0.565750241279602
1629880844496,0.3659798204898834,-0.0305356048047542,-0.1918026357889175,0.5851972103118896
1629880844547,0.3641141057014465,-0.0384795777499675,-0.19800965487957,0.5974658727645874
1629880844687,0.3645219206809997,-0.0490448474884033,-0.2050472050905227,0.599986732006073
1629880844797,0.3681361675262451,-0.0564072243869304,-0.2087411880493164,0.59555584192276
1629880844859,0.3727487623691559,-0.0589854568243026,-0.2040847092866897,0.5869841575622559
1629880844984,0.3750779926776886,-0.0588638484477996,-0.1911899745464325,0.5762901902198792
1629880845062,0.3738289773464203,-0.0600415058434009,-0.1780843138694763,0.5623867511749268
1629880845203,0.3748363554477691,-0.065499223768711,-0.1728727668523788,0.5484822988510132
1629880845297,0.3851590454578399,-0.0731462612748146,-0.1756958216428756,0.5414883494377136
1629880845390,0.4026158154010772,-0.0766418650746345,-0.1800355315208435,0.5441625118255615
1629880845484,0.4179934561252594,-0.0723098516464233,-0.180644541978836,0.5533092617988586
1629880845612,0.4260639548301697,-0.0641011744737625,-0.1797717958688736,0.5613245964050293
1629880845706,0.4268372654914856,-0.0627118274569511,-0.1835623085498809,0.5612395405769348
1629880845785,0.4238915741443634,-0.0756058469414711,-0.1943892985582351,0.5512375235557556
1629880845925,0.4200395941734314,-0.1000136658549308,-0.2085446864366531,0.5338174104690552
1629880846036,0.4178256690502167,-0.1215845197439193,-0.2201489508152008,0.5177282691001892
1629880846153,0.4190753102302551,-0.123173601925373,-0.2263014614582061,0.5106555223464966
1629880846238,0.4219960868358612,-0.1001892834901809,-0.229755014181137,0.5117366313934326
1629880846319,0.4224590957164764,-0.0661977231502533,-0.2377700209617614,0.5180448293685913
1629880846425,0.4184814095497131,-0.0375678092241287,-0.2566526234149933,0.5254021286964417
1629880846553,0.4129669070243835,-0.0216442570090293,-0.2873407304286957,0.5334540605545044
1629880846663,0.4102553725242615,-0.0145483259111642,-0.321155697107315,0.5425592064857483
1629880846726,0.4085606336593628,-0.0069695874117314,-0.343001514673233,0.5519248247146606
1629880846820,0.4027997255325317,0.0082098096609115,-0.3412006497383117,0.5616066455841064
1629880846929,0.3920352160930633,0.0308475475758314,-0.3158111274242401,0.5755987167358398
1629880847053,0.3802633881568908,0.0550810173153877,-0.2792932391166687,0.5942198038101196
1629880847140,0.3702921271324157,0.073947474360466,-0.2443386763334274,0.6108434796333313
1629880847249,0.3653235137462616,0.0842730998992919,-0.2175046801567077,0.6212745904922485
1629880847343,0.3677133321762085,0.0879576876759529,-0.1992986500263214,0.6250090599060059
1629880847436,0.3769353926181793,0.0893131345510482,-0.187654823064804,0.6249881386756897
1629880847530,0.3861385583877563,0.0895698294043541,-0.18048956990242,0.62195885181427
1629880847608,0.388605386018753,0.0857584029436111,-0.1760295182466507,0.6185166239738464
1629880847752,0.3841363191604614,0.0755922496318817,-0.1728930622339248,0.6192342638969421
1629880847892,0.3758057951927185,0.0628674328327179,-0.1702926307916641,0.6263514757156372
1629880847939,0.3651724755764007,0.0541560463607311,-0.1689208000898361,0.6381504535675049
1629880848017,0.3504855036735534,0.0515222884714603,-0.1697967201471328,0.6474242210388184
1629880848126,0.3312867879867553,0.0500428900122642,-0.1748457252979278,0.6506474018096924
1629880848205,0.3122243285179138,0.0439859852194786,-0.186335951089859,0.647330105304718
1629880848408,0.2988051176071167,0.0311530362814664,-0.206353485584259,0.635424017906189
1629880848454,0.2943106293678283,0.0144544104114174,-0.234737828373909,0.6124908924102783
1629880848582,0.3005397915840149,0.0002587601775303,-0.2659946382045746,0.5832357406616211
1629880848647,0.321069985628128,-0.005629994906485,-0.2915818393230438,0.5616034865379333
1629880848742,0.3497520983219147,-0.0026085081044584,-0.3000043928623199,0.5566667914390564
1629880848836,0.3753020167350769,0.0055723013356328,-0.2842343151569366,0.5667606592178345
1629880848961,0.3912779986858368,0.0168926231563091,-0.2507401704788208,0.582081139087677
1629880849054,0.4007453918457031,0.03334316983819,-0.216424286365509,0.5929645299911499
1629880849132,0.4095634818077087,0.0556150116026401,-0.1936260312795639,0.5953530669212341
1629880849273,0.4188906252384186,0.0791648775339126,-0.1813076138496399,0.5920929908752441
1629880849351,0.4286825656890869,0.0970092937350273,-0.1708793193101883,0.5881742238998413
1629880849460,0.4399632215499878,0.1049386709928512,-0.1563121527433395,0.5884230732917786
1629880849570,0.4550730288028717,0.1040509343147277,-0.136782556772232,0.5941087007522583
1629880849665,0.4749376773834228,0.0985803306102752,-0.1107778027653694,0.6025134921073914
1629880849776,0.4967949688434601,0.0918666273355484,-0.0778905227780342,0.6086968183517456
1629880849854,0.5152081251144409,0.0852862894535064,-0.0440694391727447,0.6102195978164673
1629880849947,0.5305593013763428,0.0778021216392517,-0.0178569536656141,0.6136512756347656
1629880850072,0.5431876182556152,0.0676604285836219,-0.0034422948956489,0.6223210692405701
1629880850211,0.5496287941932678,0.0560745559632778,0.0010109457653015,0.6327909827232361
1629880850289,0.5470386147499084,0.0483756773173809,-0.0020971028134226,0.6400351524353027
1629880850414,0.5361455678939819,0.0478480756282806,-0.0126511892303824,0.6416195034980774
1629880850508,0.5213660001754761,0.0498394593596458,-0.0300859306007623,0.6371577978134155
1629880850586,0.5073351263999939,0.0456730984151363,-0.0493149794638156,0.6302825212478638
1629880850696,0.4955925643444061,0.0323051624000072,-0.0649324133992195,0.6215686798095703
1629880850826,0.4864410161972046,0.0135274287313222,-0.0768369883298873,0.6106493473052979
1629880850905,0.4777842164039612,-0.0050269695930182,-0.0884041935205459,0.5948401689529419
1629880850983,0.4666217565536499,-0.0200379714369773,-0.1001839637756347,0.5720171332359314
1629880851092,0.4494320750236511,-0.0306018181145191,-0.1104372292757034,0.5441142916679382
1629880851186,0.4255174994468689,-0.0362790934741497,-0.121714562177658,0.5148853659629822
1629880851295,0.4016513228416443,-0.0364752411842346,-0.1395897418260574,0.492929607629776
1629880851404,0.3886875212192535,-0.0310792922973632,-0.1642461717128753,0.4872211217880249
1629880851498,0.3845833837985992,-0.0213893484324216,-0.1887755692005157,0.49252650141716
1629880851610,0.3798892498016357,-0.0104408198967576,-0.205668568611145,0.4985641241073608
1629880851688,0.3677084445953369,-0.0029905687551945,-0.2139442265033722,0.495813637971878
1629880851798,0.3498456478118896,-0.0041194367222487,-0.2190351039171219,0.484759122133255
1629880851907,0.3331492841243744,-0.0148791773244738,-0.2236377596855163,0.4697357714176178
1629880852032,0.3204802870750427,-0.0304971821606159,-0.2261098176240921,0.4631038308143616
1629880852141,0.3097045421600342,-0.0435747392475605,-0.225852757692337,0.474481463432312
1629880852235,0.2996597290039062,-0.0502895265817642,-0.2251027077436447,0.5039550065994263
1629880852297,0.2898235917091369,-0.0504486747086048,-0.2276601195335388,0.533941388130188
1629880852454,0.2853596210479736,-0.0444281734526157,-0.2351139783859253,0.5543111562728882
1629880852532,0.2905455529689789,-0.0330840311944484,-0.2469876557588577,0.5678350925445557
1629880852672,0.3067892789840698,-0.0200803596526384,-0.2622127830982208,0.5806652903556824
1629880852816,0.3271190226078033,-0.0098252119496464,-0.2792586982250213,0.5968214273452759
1629880852894,0.3395452499389648,-0.0042866002768278,-0.2926017940044403,0.6137638688087463
1629880852956,0.3371139168739319,-0.0057153678499162,-0.2947213351726532,0.6287542581558228
1629880853003,0.3229667842388153,-0.0164018087089061,-0.2828157246112823,0.6400730013847351
1629880853081,0.3059715628623962,-0.0370822288095951,-0.2628253400325775,0.6455708146095276
1629880853269,0.2969017922878265,-0.0641927197575569,-0.242690622806549,0.6493903398513794
1629880853362,0.3018202185630798,-0.0895196571946144,-0.2244903147220611,0.6563007831573486
1629880853394,0.3189506232738495,-0.1054882779717445,-0.2059488296508789,0.6696497797966003
1629880853519,0.3400125205516815,-0.1105811595916748,-0.1842725276947021,0.6829318404197693
1629880853646,0.3567514419555664,-0.1076029613614082,-0.1593304276466369,0.6897051334381104
1629880853740,0.3675116598606109,-0.1001570373773574,-0.1339738517999649,0.6883823275566101
1629880853834,0.3759095966815948,-0.0932166501879692,-0.1124946847558021,0.684579074382782
1629880853943,0.3817343711853027,-0.0910312756896019,-0.0967007353901863,0.6843440532684326
1629880854053,0.3820444643497467,-0.0909252762794494,-0.0819792747497558,0.687755823135376
1629880854131,0.3736803233623504,-0.0841737315058708,-0.0603246837854385,0.6925773024559021
1629880854224,0.3594322204589844,-0.0657217353582382,-0.0292645823210477,0.6973541975021362
1629880854340,0.3450604975223541,-0.0413694977760314,0.0026750152464956,0.7000952363014221
1629880854449,0.3344752788543701,-0.0187892392277717,0.0233695842325687,0.6996172666549683
1629880854590,0.3279434740543365,0.0001568760781083,0.0268715228885412,0.6986308693885803
1629880854671,0.324111133813858,0.0180024988949298,0.0167661644518375,0.7007406949996948
1629880854733,0.3210951387882232,0.0374815836548805,0.0018418581457808,0.7070802450180054
1629880854827,0.3138958811759949,0.0580848790705204,-0.0113443341106176,0.7136900424957275
1629880854952,0.2993853092193603,0.0767498686909675,-0.0227088537067174,0.7147511839866638
1629880855093,0.2814534306526184,0.0891678258776664,-0.0353636145591735,0.7093464732170105
1629880855202,0.2700473666191101,0.0925690978765487,-0.049026321619749,0.6999117136001587
1629880855249,0.2703933119773865,0.0884159356355667,-0.0583638176321983,0.6938170790672302
1629880855436,0.279850423336029,0.0834720134735107,-0.0579900071024894,0.6999990344047546
1629880855467,0.2934801578521728,0.08401720225811,-0.0496917814016342,0.7190225124359131
