timestamp,TP9,AF7,AF8,TP10
1629880721626,0.2428076267242431,0.1146759018301963,0.0198762156069278,0.2395924776792526
1629880721673,0.2428076267242431,0.0876801609992981,0.0072918212972581,0.2395924776792526
1629880721798,0.2428076267242431,0.0613280683755874,-0.012357760220766,0.2395924776792526
1629880721907,0.2428076267242431,0.0369052924215793,-0.0317627638578414,0.2395924776792526
1629880722001,0.2428076267242431,0.0154970679432153,-0.0500508621335029,0.2395924776792526
1629880722110,0.2428076267242431,-0.0025758282281458,-0.0678726583719253,0.2395924776792526
1629880722219,0.2428076267242431,-0.0175081063061952,-0.064697615802288,0.7758113145828247
1629880722344,0.6170116066932678,-0.0571678131818771,-0.0621998533606529,0.7554925680160522
1629880722407,0.6142393946647644,-0.0853709876537323,-0.0623152032494545,0.7549261450767517
1629880722501,0.613167405128479,-0.1078049018979072,-0.0670019164681434,0.7667325735092163
1629880722594,0.6206909418106079,-0.1342370361089706,-0.0815618187189102,0.7965804934501648
1629880722725,0.6196209788322449,-0.1716385036706924,-0.1147201061248779,0.8175104260444641
1629880722819,0.6117967367172241,-0.2199487388134002,-0.1710850745439529,0.831150472164154
1629880722897,0.6028211712837219,-0.2683119177818298,-0.2450088560581207,0.8343335390090942
1629880723038,0.5925915241241455,-0.3088870048522949,-0.3156889379024505,0.8335191011428833
1629880723100,0.5896613001823425,-0.3369005620479584,-0.359397292137146,0.8397541046142578
1629880723241,0.586330771446228,-0.3538086712360382,-0.3736351728439331,0.843974769115448
1629880723303,0.5863983631134033,-0.363627016544342,-0.3718165755271911,0.8461576700210571
1629880723413,0.5846487879753113,-0.3673125803470611,-0.3657735586166382,0.8414174914360046
1629880723537,0.5760437250137329,-0.3672678470611572,-0.3566626012325287,0.8428467512130737
1629880723647,0.5677508115768433,-0.3590046763420105,-0.3425349593162536,0.8457916975021362
1629880723716,0.5697731375694275,-0.3280374407768249,-0.3218811154365539,0.8603488206863403
1629880723826,0.5722557306289673,-0.2699075043201446,-0.2955587804317474,0.8745254278182983
1629880723904,0.5690613389015198,-0.2007439583539962,-0.2686954140663147,0.8850660920143127
1629880724091,0.5645397901535034,-0.1402124017477035,-0.2491870820522308,0.8906264901161194
1629880724154,0.55045485496521,-0.0967512130737304,-0.2405744045972824,0.8807599544525146
1629880724294,0.5408954620361328,-0.0653939694166183,-0.2402426153421402,0.8688179850578308
1629880724372,0.5404527187347412,-0.041816059499979,-0.2441560924053192,0.8561805486679077
1629880724419,0.5458502769470215,-0.0252192039042711,-0.2493250072002411,0.8544065356254578
1629880724529,0.5620261430740356,-0.0157748069614171,-0.2575768232345581,0.8615818619728088
1629880724673,0.5620261430740356,-0.0112402709200978,-0.2684513628482818,0.8615818619728088
1629880724766,0.5620261430740356,-0.0083782346919178,-0.2817035019397735,0.8615818619728088
1629880724829,0.5620261430740356,-0.0056281322613358,-0.2978984117507934,0.8615818619728088
1629880724938,0.5620261430740356,-0.0037123435176908,-0.3165045082569122,0.8615818619728088
1629880725016,0.5620261430740356,-0.0034450399689376,-0.3368916809558868,0.3701501488685608
1629880725141,-0.0104976035654544,-0.0073973997496068,-0.3598146140575409,0.3590531349182129
1629880725266,-0.0283119324594736,-0.0225371569395065,-0.3904229998588562,0.3522650301456451
1629880725376,-0.0405688695609569,-0.0555193535983562,-0.4349000453948974,0.3556957542896271
1629880725500,-0.0405688695609569,-0.1069098860025405,-0.4914306998252868,0.3573355078697204
1629880725547,-0.0405688695609569,-0.1658600866794586,-0.5471184849739075,0.3588116466999054
1629880725657,-0.0405688695609569,-0.2199481129646301,-0.5902959704399109,0.3551104962825775
1629880725768,-0.0405688695609569,-0.2632309198379516,-0.6211383938789368,0.3459480106830597
1629880725909,-0.0405688695609569,-0.2920187711715698,-0.6430392265319824,0.3369984030723572
1629880725956,-0.0405688695609569,-0.302460253238678,-0.6545897722244263,0.330071210861206
1629880726065,-0.0405688695609569,-0.2921216487884521,-0.652117133140564,0.3289637863636017
1629880726128,-0.0405688695609569,-0.2707236409187317,-0.6423065662384033,0.3289637863636017
1629880726253,-0.0405688695609569,-0.2485159039497375,-0.6286126971244812,0.3261143267154693
1629880726362,-0.058820717036724,-0.231463685631752,-0.6072189211845398,0.3202642500400543
1629880726488,-0.0801597610116005,-0.2224062234163284,-0.5764347314834595,0.3131654262542724
1629880726576,-0.0801597610116005,-0.2220045030117035,-0.54472416639328,0.311329573392868
1629880726701,-0.0801597610116005,-0.2282102108001709,-0.5217379927635193,0.3113004565238952
1629880726797,-0.0801597610116005,-0.2360699474811554,-0.5077791810035706,0.3106289207935333
1629880726889,-0.0801597610116005,-0.2406975775957107,-0.4975786507129669,0.3004778623580932
1629880726952,-0.0801597610116005,-0.2407781332731247,-0.4879613816738128,0.2879992127418518
1629880727107,-0.0801597610116005,-0.2397593110799789,-0.4797556400299072,0.269450843334198
1629880727201,-0.0801597610116005,-0.2418596297502517,-0.4733864367008209,0.255750834941864
1629880727282,-0.0801597610116005,-0.2491809427738189,-0.4685072004795074,0.255750834941864
1629880727405,-0.0801597610116005,-0.2618915736675262,-0.4678418338298797,0.255750834941864
1629880727483,-0.0801597610116005,-0.2796727418899536,-0.4757249057292938,0.255750834941864
1629880727545,-0.0801597610116005,-0.3025299310684204,-0.4924474656581878,0.255750834941864
1629880727758,-0.0801597610116005,-0.3307316303253174,-0.5111998915672302,0.255750834941864
1629880727805,-0.0801597610116005,-0.3632406890392303,-0.5261389017105103,0.255750834941864
1629880727866,-0.0801597610116005,-0.3961907923221588,-0.5379999279975891,0.255750834941864
1629880727960,-0.0801597610116005,-0.42112597823143,-0.5467429757118225,0.255750834941864
1629880728071,-0.0801597610116005,-0.4304952025413513,-0.5438117980957031,0.255750834941864
1629880728186,0.0521938540041446,-0.4247940182685852,-0.5205952525138855,0.6276938319206238
1629880728353,0.0244188737124204,-0.4142386019229889,-0.4838398694992065,0.6055994629859924
1629880728404,0.0061601139605045,-0.4091718196868896,-0.4499567151069641,0.5854006409645081
1629880728482,0.0018326612189412,-0.4124611616134643,-0.4287489652633667,0.561075747013092
1629880728624,0.0170732233673334,-0.4191721379756927,-0.4183346927165985,0.5541151165962219
1629880728717,0.0421055629849433,-0.424076646566391,-0.4124481678009033,0.5593481659889221
1629880728795,0.0595509260892868,-0.4273883700370788,-0.4074459373950958,0.5693568587303162
1629880728941,0.0677358582615852,-0.4329144060611725,-0.4022091925144195,0.5771425366401672
1629880729003,0.0677369832992553,-0.4411583542823791,-0.3946397304534912,0.5771543383598328
1629880729097,0.0677369832992553,-0.4459235668182373,-0.3832736015319824,0.5771543383598328
1629880729207,0.0677369832992553,-0.4396069645881653,-0.3708568513393402,0.5771543383598328
1629880729301,0.0677369832992553,-0.4188630282878876,-0.3623893857002258,0.5771543383598328
1629880729399,0.0724103301763534,-0.3842701017856598,-0.3613710403442383,0.5732738971710205
1629880729542,0.0721295773983001,-0.3410878479480743,-0.369888573884964,0.5650092959403992
1629880729655,0.070646084845066,-0.2986757159233093,-0.3889449536800384,0.5548200607299805
1629880729748,0.0753047987818718,-0.2675036787986755,-0.4180410802364349,0.5494930148124695
1629880729813,0.0962299704551696,-0.2512489259243011,-0.4508209526538849,0.5556315779685974
1629880729939,0.1216574609279632,-0.2444876879453659,-0.4758464694023132,0.5687483549118042
1629880730017,0.1458732485771179,-0.2398649603128433,-0.4842232167720794,0.5987088680267334
1629880730155,0.1541752368211746,-0.235012486577034,-0.4784237742424011,0.6198614239692688
1629880730233,0.1541752368211746,-0.2302384674549102,-0.4682097733020782,0.6198614239692688
1629880730296,0.1541752368211746,-0.2231454402208328,-0.4599239826202392,0.6198614239692688
1629880730436,0.1541752368211746,-0.2111849635839462,-0.4530524909496307,0.6198614239692688
1629880730514,0.1541752368211746,-0.1969162672758102,-0.447121649980545,0.6198614239692688
1629880730577,0.1054595038294792,-0.1864229291677475,-0.4442200660705566,0.6198614239692688
1629880730751,0.0796636566519737,-0.1834548413753509,-0.4455879032611847,0.4582260251045227
1629880730845,0.0564280524849891,-0.18608058989048,-0.4485097229480743,0.4538013637065887
1629880730923,0.0362663641571998,-0.1924883127212524,-0.4497577548027038,0.4412417411804199
1629880731048,0.0143380155786871,-0.2032056599855423,-0.4491468071937561,0.4283787906169891
1629880731126,-0.0045105367898941,-0.2188993543386459,-0.4500777721405029,0.4180307388305664
1629880731204,-0.0195883065462112,-0.2352780848741531,-0.4544077217578888,0.4135642647743225
1629880731376,-0.0284986756742,-0.2449539601802826,-0.4612472653388977,0.4162095189094543
1629880731439,-0.0262428727000951,-0.2434959709644317,-0.4686900079250335,0.417611300945282
1629880731579,-0.013237371109426,-0.2317898571491241,-0.4767177402973175,0.4174904823303222
1629880731642,0.0064370040781795,-0.2140661478042602,-0.4875561892986297,0.4134769141674042
1629880731754,0.0278080888092517,-0.1948366612195968,-0.5022022724151611,0.4063165187835693
1629880731863,0.042961623519659,-0.1765619665384292,-0.5194280743598938,0.4039768874645233
1629880731988,0.0342188104987144,-0.1562889367341995,-0.5386150479316711,0.3976674377918243
1629880732082,0.0271885823458433,-0.1287026554346084,-0.5591420531272888,0.3938001692295074
1629880732160,0.025354353711009,-0.094800665974617,-0.5788254141807556,0.3861825466156006
1629880732260,0.0310100391507148,-0.0617408193647861,-0.5935276746749878,0.3824395835399627
1629880732353,0.0409317091107368,-0.0371357984840869,-0.6001836061477661,0.3767430484294891
1629880732432,0.054833423346281,-0.0225787609815597,-0.5999119281768799,0.377229630947113
1629880732635,0.0848782435059547,-0.0146063743159174,-0.596686601638794,0.3814391791820526
1629880732714,0.119694784283638,-0.0100298458710312,-0.5898504853248596,0.3873379230499267
1629880732778,0.1448105573654174,-0.0085589801892638,-0.5760006904602051,0.3891868889331817
1629880732857,0.1617337167263031,-0.0122000761330127,-0.5575280785560608,0.3936905264854431
1629880732966,0.161456897854805,-0.0231880079954862,-0.5442618131637573,0.3905921280384063
1629880733060,0.1450090855360031,-0.0416902899742126,-0.5448226928710938,0.4005081057548523
1629880733200,0.1370479017496109,-0.0650571063160896,-0.5574042201042175,0.40778449177742
1629880733278,0.1180019378662109,-0.0893352255225181,-0.5714548826217651,0.4309091567993164
1629880733372,0.0885193198919296,-0.1136049777269363,-0.5781068801879883,0.4309091567993164
1629880733497,0.0885193198919296,-0.1424132734537124,-0.5728930234909058,0.4309091567993164
1629880733575,0.0885193198919296,-0.1816413104534149,-0.5541432499885559,0.4309091567993164
1629880733731,0.0885193198919296,-0.2298522144556045,-0.526086151599884,0.4309091567993164
1629880733812,0.0885193198919296,-0.2765833437442779,-0.4988351762294769,0.4309091567993164
1629880733859,0.0885193198919296,-0.3117949068546295,-0.48200324177742,0.4309091567993164
1629880733999,0.0885193198919296,-0.3368771374225616,-0.4761180579662323,0.4309091567993164
1629880734078,0.0767266228795051,-0.3616383671760559,-0.4755403399467468,0.4309091567993164
1629880734187,0.0428045652806758,-0.3877604305744171,-0.4759872853755951,0.4309091567993164
1629880734265,0.0428045652806758,-0.4062867164611816,-0.4779176414012909,0.4309091567993164
1629880734406,0.0428045652806758,-0.4089441895484924,-0.4813922345638275,0.4309091567993164
1629880734548,0.0428045652806758,-0.3974060118198395,-0.4819754362106323,0.4309091567993164
1629880734642,0.0428045652806758,-0.3783881366252899,-0.4728775322437286,0.4309091567993164
1629880734720,0.0428045652806758,-0.3544271290302276,-0.451599657535553,0.4309091567993164
1629880734798,0.0985597521066665,-0.3268851637840271,-0.424156904220581,0.6326902508735657
1629880734954,0.0991196185350418,-0.2990046441555023,-0.400202065706253,0.6326529383659363
1629880735017,0.0859710425138473,-0.2767978310585022,-0.3875640630722046,0.6175074577331543
1629880735111,0.0676260516047477,-0.2646275162696838,-0.3900823295116424,0.5968413352966309
1629880735220,0.0527027361094951,-0.2620468735694885,-0.4041608572006225,0.5874828696250916
1629880735298,0.0428196713328361,-0.2666560411453247,-0.4219724535942077,0.5823218822479248
1629880735392,0.0376160591840744,-0.2719051539897918,-0.4361145794391632,0.5799400210380554
1629880735470,0.0348554402589798,-0.2705298662185669,-0.4450153112411499,0.5758501887321472
1629880735680,0.0379247106611728,-0.2616521418094635,-0.4522593915462494,0.5688756704330444
1629880735727,0.0439328141510486,-0.2505107820034027,-0.4614085555076599,0.5637199282646179
1629880735805,0.0452151633799076,-0.2432378083467483,-0.4733581244945526,0.5608275532722473
1629880735915,0.0428197123110294,-0.2401217222213745,-0.4870297908782959,0.560857892036438
1629880736008,0.033414039760828,-0.2391924709081649,-0.5010149478912354,0.5613889694213867
1629880736110,0.0128158843144774,-0.2406181246042251,-0.5143074989318848,0.54842209815979
1629880736242,-0.0118293687701225,-0.2464212030172348,-0.5279080271720886,0.5251032710075378
1629880736343,-0.0359996333718299,-0.2563588321208954,-0.5420722365379333,0.5019235014915466
1629880736441,-0.051864817738533,-0.2680614292621612,-0.55214923620224,0.485931247472763
1629880736509,-0.0551213175058364,-0.2785021662712097,-0.5500038266181946,0.4843446612358093
1629880736639,-0.0519102849066257,-0.2861756086349487,-0.5318341255187988,0.4903314709663391
1629880736693,-0.0521948635578155,-0.2923513352870941,-0.5061015486717224,0.4912441074848175
1629880736858,-0.0556904263794422,-0.2980869710445404,-0.4859920144081116,0.4863908290863037
1629880736952,-0.0597571693360805,-0.3070671558380127,-0.4774468243122101,0.4766924381256103
1629880737045,-0.0556652322411537,-0.321958065032959,-0.477505624294281,0.4679648876190185
1629880737123,-0.0534200705587863,-0.3396426439285278,-0.4787724316120147,0.4609231352806091
1629880737224,-0.0556740276515483,-0.3525608479976654,-0.4784728586673736,0.455038458108902
1629880737324,-0.0620910003781318,-0.3554076254367828,-0.4797287285327911,0.4458285570144653
1629880737495,-0.0722283571958541,-0.3515979349613189,-0.4867091476917267,0.4345491528511047
1629880737542,-0.0696350932121276,-0.3470969498157501,-0.4993771910667419,0.4268280565738678
1629880737672,-0.059650681912899,-0.3457732200622558,-0.5145460963249207,0.4269490242004394
1629880737768,-0.0409103333950042,-0.3494805097579956,-0.5293156504631042,0.4330969750881195
1629880737832,-0.0241338480263948,-0.3605721294879913,-0.5427888035774231,0.4377051889896393
1629880737953,-0.0141419796273112,-0.3791812062263489,-0.5566250681877136,0.4368075132369995
1629880738077,-0.0060140802524983,-0.3996711671352386,-0.5740469098091125,0.4253317415714264
1629880738236,0.0005372331943362,-0.4135928452014923,-0.5946841239929199,0.4059878885746002
1629880738293,0.0130893690511584,-0.4175985753536224,-0.6093311309814453,0.389871597290039
1629880738355,0.0243225172162055,-0.4169639647006988,-0.6056522130966187,0.3782478272914886
1629880738449,0.0293380264192819,-0.418667584657669,-0.5843108892440796,0.3720586001873016
1629880738556,0.0254706498235464,-0.4248608946800232,-0.5593019127845764,0.3625581562519073
1629880738696,0.0145747810602188,-0.4329273104667663,-0.541488766670227,0.3541571497917175
1629880738759,0.0035523402038961,-0.4393577575683594,-0.5291422605514526,0.3487379550933838
1629880738868,-0.0004655686207115,-0.4422285556793213,-0.5143489837646484,0.3536642491817474
1629880739009,0.0006704900297336,-0.4421575665473938,-0.4919873774051666,0.3661077916622162
1629880739055,-3.682182796183042e-05,-0.4412820637226105,-0.4643536806106567,0.3809018731117248
1629880739149,-0.0025217365473508,-0.4406189918518066,-0.438218206167221,0.3917449414730072
1629880739279,-0.0063562081195414,-0.439267635345459,-0.4198543727397918,0.3963235914707184
1629880739388,-0.0067526451312005,-0.4347200095653534,-0.4122670292854309,0.3962984383106231
1629880739497,0.0023052268661558,-0.4256328344345093,-0.4134890735149383,0.3979902565479278
1629880739575,0.0111302444711327,-0.4142097234725952,-0.4190942049026489,0.4087137281894684
1629880739638,0.0139675382524728,-0.4046036303043365,-0.4277430772781372,0.4210480451583862
1629880739796,0.0148675516247749,-0.4005025327205658,-0.4408460855484009,0.4308864176273346
1629880739968,0.0128215737640857,-0.4011879861354828,-0.4565278887748718,0.433941900730133
1629880739999,0.0128022534772753,-0.4009577631950378,-0.4661519229412079,0.4319563210010528
1629880740082,0.0116232559084892,-0.3956792056560516,-0.4625331461429596,0.4348371624946594
1629880740171,0.009728736244142,-0.3875274062156677,-0.450286716222763,0.4386986494064331
1629880740295,0.0066745500080287,-0.3847297728061676,-0.4418565928936004,0.443004846572876
1629880740359,-0.0012558652088046,-0.3933635950088501,-0.4449907839298248,0.4380888640880584
1629880740516,-0.010153530165553,-0.4104836583137512,-0.4596386849880218,0.4230007827281952
1629880740639,-0.0176608357578516,-0.4259493947029114,-0.4808098375797272,0.4009606540203094
1629880740686,-0.0235037822276353,-0.4305587708950043,-0.5018267631530762,0.3751457929611206
1629880740777,-0.030661154538393,-0.4234889149665832,-0.5167625546455383,0.3586243689060211
1629880740906,-0.0396041311323642,-0.4101378917694092,-0.5213690996170044,0.3514070212841034
1629880740968,-0.057633239775896,-0.396523654460907,-0.5168742537498474,0.3461723327636719
1629880741140,-0.0807668641209602,-0.3850321471691131,-0.5077762007713318,0.3349803984165191
1629880741234,-0.099334105849266,-0.376005083322525,-0.4973111152648926,0.3227355480194092
1629880741296,-0.1182818189263343,-0.3682858645915985,-0.4874298870563507,0.3120978772640228
1629880741406,-0.1327392160892486,-0.3615798652172088,-0.4806994497776031,0.3102634847164154
1629880741484,-0.1407535076141357,-0.358193427324295,-0.4820161163806915,0.3211660385131836
1629880741580,-0.1492515206336975,-0.3607320487499237,-0.4935566782951355,0.3320788741111755
1629880741705,-0.1525701582431793,-0.3678749203681946,-0.5102695226669312,0.3391081988811493
1629880741846,-0.1526760756969452,-0.371876984834671,-0.5229830741882324,0.3394704759120941
1629880741940,-0.1483409702777862,-0.3641714453697204,-0.525176465511322,0.3338222205638885
1629880742002,-0.1330903321504593,-0.3457693457603454,-0.5174403786659241,0.3380287289619446
1629880742127,-0.1174838319420814,-0.3281204402446747,-0.5049480199813843,0.3527550399303436
1629880742221,-0.1019160598516464,-0.3213766813278198,-0.4935995936393738,0.3841877579689026
1629880742377,-0.0894894376397132,-0.3282397091388702,-0.487011581659317,0.3916607201099396
1629880742424,-0.0850615799427032,-0.3438250720500946,-0.4842000603675842,0.3978249430656433
1629880742533,-0.0812478885054588,-0.3599305152893066,-0.4814328849315643,0.4269352257251739
1629880742583,-0.0771554857492446,-0.3724415004253387,-0.4766199886798858,0.4433727562427521
1629880742708,-0.0741199105978012,-0.3813644647598266,-0.47086101770401,0.4603331387042999
1629880742817,-0.0747194290161132,-0.3887582123279571,-0.467824786901474,0.4711169004440307
1629880742958,-0.0739411413669586,-0.3963962197303772,-0.4704293608665466,0.4769419729709625
1629880743052,-0.079312764108181,-0.4039016366004944,-0.4793395102024078,0.473031610250473
1629880743145,-0.0834156274795532,-0.4096850156784057,-0.4926052689552307,0.4630487263202667
1629880743239,-0.0834361612796783,-0.4136688709259033,-0.506778359413147,0.4589062929153442
1629880743317,-0.0827879533171653,-0.4193837344646454,-0.5180758833885193,0.464410126209259
1629880743442,-0.0785893052816391,-0.4318472445011139,-0.524203360080719,0.4846094250679016
1629880743551,-0.0782218649983406,-0.451931357383728,-0.5246559381484985,0.5013355016708374
1629880743664,-0.0831463783979415,-0.4708491861820221,-0.5204340815544128,0.503881573677063
1629880743742,-0.0941450744867324,-0.4759988188743591,-0.5123807787895203,0.4867490530014038
1629880743820,-0.1091665849089622,-0.4614701271057129,-0.5012056231498718,0.4750185310840606
1629880743976,-0.1187644228339195,-0.4349530637264251,-0.4900538027286529,0.46333909034729
1629880744007,-0.1241141483187675,-0.4089705646038055,-0.4816343188285827,0.4413738548755646
1629880744148,-0.1240925043821334,-0.389206975698471,-0.4771973192691803,0.4264756143093109
1629880744242,-0.1201645955443382,-0.3740960955619812,-0.4770648181438446,0.410914808511734
1629880744336,-0.110497385263443,-0.3594581186771393,-0.4802546501159668,0.3973329365253448
1629880744461,-0.0932784005999565,-0.3420588672161102,-0.4853768944740295,0.3857982456684112
1629880744539,-0.0691116079688072,-0.3223480582237243,-0.4904175698757171,0.3834581077098846
1629880744601,-0.0476930141448974,-0.3029837310314178,-0.4934639036655426,0.3876144886016845
1629880744789,-0.0341963991522789,-0.2865676283836365,-0.4949722588062286,0.3915702998638153
1629880744914,-0.0291128493845462,-0.2743465602397918,-0.4959618747234344,0.3868322372436523
1629880744945,-0.029940377920866,-0.2658990621566772,-0.4974725842475891,0.3717367351055145
1629880745081,-0.035736795514822,-0.2589150369167328,-0.5019374489784241,0.3512676656246185
1629880745143,-0.037800807505846,-0.2493117600679397,-0.5121074914932251,0.3381969928741455
1629880745284,-0.0287775117903947,-0.2357865869998932,-0.5289976596832275,0.3415675163269043
1629880745362,-0.0153179680928587,-0.2213956266641616,-0.5474643111228943,0.3524655699729919
1629880745503,0.0076598641462624,-0.2103559970855713,-0.5597766637802124,0.3774217367172241
1629880745594,0.0296870172023773,-0.2047408819198608,-0.5640701055526733,0.402280330657959
1629880745672,0.0454535074532032,-0.2032410502433776,-0.5642409920692444,0.4278474748134613
1629880745799,0.0583924166858196,-0.2042858749628067,-0.5636544227600098,0.4537090063095093
1629880745862,0.0612603835761547,-0.2064562886953354,-0.5621090531349182,0.4740604758262634
1629880746002,0.0602414682507514,-0.2084518074989318,-0.5585846900939941,0.4965238571166992
1629880746066,0.0590589344501495,-0.2096785604953766,-0.5524781346321106,0.5150691270828247
1629880746221,0.0606729574501514,-0.2088979333639145,-0.5439682006835938,0.5263976454734802
1629880746284,0.0667210891842842,-0.2038944512605667,-0.5329476594924927,0.5348700284957886
1629880746376,0.0750702396035194,-0.1943162977695465,-0.5214676856994629,0.5371402502059937
1629880746455,0.0853400975465774,-0.1838317215442657,-0.5136116147041321,0.5383501052856445
1629880746575,0.1000992804765701,-0.1784076541662216,-0.5098169445991516,0.5406625866889954
1629880746715,0.1148797050118446,-0.1822125762701034,-0.5077431201934814,0.5382715463638306
1629880746809,0.1262624114751815,-0.1937667429447174,-0.505422830581665,0.5342759490013123
1629880746889,0.13496994972229,-0.2080399394035339,-0.5056772232055664,0.5239235758781433
1629880747006,0.1389193832874298,-0.2208703458309173,-0.512633204460144,0.5066407918930054
1629880747059,0.1421200037002563,-0.230533093214035,-0.5259841680526733,0.4853518009185791
1629880747184,0.1476868540048599,-0.2370063811540603,-0.5401502847671509,0.4635087847709656
1629880747296,0.1552586257457733,-0.2394289076328277,-0.5484040975570679,0.4462325274944305
1629880747402,0.1629746109247207,-0.2379670590162277,-0.5488758087158203,0.4279277920722961
1629880747467,0.1689324676990509,-0.2347558140754699,-0.5449115633964539,0.4086150228977203
1629880747562,0.1690406799316406,-0.2313550859689712,-0.5413675904273987,0.3899951577186584
1629880747685,0.1644153296947479,-0.2293658256530761,-0.5388351678848267,0.379791647195816
1629880747824,0.1580530107021331,-0.2314384132623672,-0.533970057964325,0.3743356764316559
1629880747949,0.1496223360300064,-0.2384659945964813,-0.5230819582939148,0.3736045956611633
1629880748014,0.1453826129436493,-0.2472144365310669,-0.5051326751708984,0.3703198730945587
1629880748090,0.1442515850067138,-0.2523199021816253,-0.4843225181102752,0.3656512796878814
1629880748170,0.150745004415512,-0.2528110146522522,-0.4646985232830047,0.3715379238128662
1629880748319,0.1643341928720474,-0.2516112327575683,-0.446964293718338,0.4063727557659149
1629880748430,0.1779093146324157,-0.2503118515014648,-0.429752379655838,0.4516442716121673
1629880748509,0.188229814171791,-0.2458729296922683,-0.4132358729839325,0.5007475018501282
1629880748634,0.1928294003009796,-0.2350422441959381,-0.3998782336711883,0.5287848114967346
1629880748744,0.1870811730623245,-0.2211624979972839,-0.391349732875824,0.5382838845252991
1629880748835,0.1770379841327667,-0.2111315578222274,-0.3862296044826507,0.5452344417572021
1629880748900,0.171145424246788,-0.2096254229545593,-0.3826484382152557,0.5546924471855164
1629880749070,0.1695144027471542,-0.2149437963962555,-0.3804358541965484,0.5728358030319214
1629880749116,0.1749630719423294,-0.2237469404935836,-0.3800384402275085,0.5861021876335144
1629880749242,0.181589737534523,-0.2343471646308899,-0.3792724907398224,0.5870389342308044
1629880749351,0.1854990124702453,-0.2461169511079788,-0.3725425899028778,0.5807024836540222
1629880749398,0.1909832209348678,-0.2573448717594147,-0.3566098809242248,0.5720857381820679
1629880749489,0.2026525288820266,-0.2651914656162262,-0.3353111147880554,0.5732240676879883
1629880749639,0.2208688706159591,-0.2679056227207184,-0.3146651089191437,0.5923499464988708
1629880749780,0.2352643609046936,-0.2663221657276153,-0.2985283434391022,0.6114658117294312
1629880749826,0.2406575679779052,-0.2626729905605316,-0.287586361169815,0.6302328109741211
1629880749951,0.2311436980962753,-0.2606586515903473,-0.2823387384414673,0.6295319199562073
1629880750045,0.2148660570383072,-0.2648634910583496,-0.283616155385971,0.61772620677948
1629880750139,0.2004707008600235,-0.2779513895511627,-0.2904364466667175,0.6089046001434326
1629880750265,0.1990323215723037,-0.2964376509189605,-0.3003445863723755,0.6083465218544006
1629880750358,0.202281966805458,-0.3117928206920624,-0.3111506998538971,0.6060435175895691
1629880750421,0.2039973139762878,-0.3180398643016815,-0.3203534483909607,0.6017664670944214
1629880750530,0.199147418141365,-0.3190179467201233,-0.3247439861297607,0.5905265808105469
1629880750642,0.1874957829713821,-0.321370780467987,-0.3224398493766784,0.5747107863426208
1629880750751,0.1821332722902298,-0.3260703682899475,-0.3177955746650696,0.5701637864112854
1629880750861,0.1867633461952209,-0.3266749382019043,-0.3200952708721161,0.5733464956283569
1629880750939,0.1943957805633545,-0.3183375298976898,-0.3370593190193176,0.5787904858589172
1629880751064,0.1907678246498108,-0.3039247989654541,-0.3699904680252075,0.5706654787063599
1629880751126,0.1722848266363144,-0.2902993857860565,-0.4137908518314361,0.5380923748016357
1629880751260,0.1513968110084533,-0.2833636999130249,-0.4610357284545898,0.5019463896751404
1629880751338,0.1397106796503067,-0.2842406928539276,-0.5066912174224854,0.4637318849563598
1629880751463,0.157692939043045,-0.2888358831405639,-0.5451881289482117,0.4600680470466614
1629880751573,0.1881119757890701,-0.2922905683517456,-0.5655604004859924,0.4727838039398193
1629880751700,0.2131705433130264,-0.2928948998451233,-0.5585653781890869,0.4862572848796844
1629880751809,0.2278293073177337,-0.2919416427612304,-0.5266651511192322,0.4959174692630768
1629880751841,0.2316614687442779,-0.2922184765338897,-0.4865883290767669,0.4956813156604767
1629880751997,0.2383468747138977,-0.2930726706981659,-0.4546152651309967,0.4975544214248657
1629880752106,0.2493047565221786,-0.2919075191020965,-0.4374465942382812,0.5029864311218262
1629880752184,0.2652627527713775,-0.2868086993694305,-0.4333249628543854,0.5164461135864258
1629880752262,0.2795521020889282,-0.2771201729774475,-0.4365193843841553,0.5277298092842102
1629880752356,0.2886702716350555,-0.2652216255664825,-0.4414366483688354,0.5340818762779236
1629880752465,0.2988564670085907,-0.255242258310318,-0.4422991871833801,0.5435387492179871
1629880752573,0.314572811126709,-0.2504980266094208,-0.4355597794055938,0.5529494881629944
1629880752685,0.3371800184249878,-0.2511371672153473,-0.4222082197666168,0.5752113461494446
1629880752779,0.3610998392105102,-0.2525640428066253,-0.4047914445400238,0.5968353152275085
1629880752888,0.3767348825931549,-0.2513221800327301,-0.3850461840629577,0.6124961376190186
1629880752997,0.3716643154621124,-0.2480752170085907,-0.3648084104061126,0.6051345467567444
1629880753091,0.3716643154621124,-0.2443922758102417,-0.3487375974655151,0.5642958283424377
1629880753169,0.3716643154621124,-0.2394946217536926,-0.3407624959945678,0.5642958283424377
1629880753294,0.3716643154621124,-0.2335519939661026,-0.3421494364738464,0.5642958283424377
1629880753419,0.3716643154621124,-0.2284609526395797,-0.3496168553829193,0.5642958283424377
1629880753497,0.3716643154621124,-0.2244753688573837,-0.3592386543750763,0.5642958283424377
1629880753544,0.3716643154621124,-0.2166185528039932,-0.3691798746585846,0.5642958283424377
1629880753687,0.3716643154621124,-0.1997913718223571,-0.3782761394977569,0.5642958283424377
1629880753765,0.3716643154621124,-0.1766795367002487,-0.3852384984493255,0.5642958283424377
1629880753906,0.3716643154621124,-0.1535634845495224,-0.3886034190654754,0.5642958283424377
1629880754031,0.3716643154621124,-0.1322690695524215,-0.3893589377403259,0.5642958283424377
1629880754109,0.3716643154621124,-0.1118261665105819,-0.388435423374176,0.5642958283424377
1629880754187,0.3716643154621124,-0.0948879420757293,-0.3854956924915313,0.5642958283424377
1629880754295,0.3716643154621124,-0.0858852639794349,-0.3809275925159454,0.5642958283424377
1629880754404,0.3716643154621124,-0.0854730978608131,-0.3771356642246246,0.5642958283424377
1629880754529,0.3716643154621124,-0.0859254822134971,-0.3770588636398315,0.5642958283424377
1629880754607,0.3716643154621124,-0.078765258193016,-0.3811358213424682,0.5642958283424377
1629880754735,0.3716643154621124,-0.0634930878877639,-0.3888660967350006,0.5642958283424377
1629880754813,0.3716643154621124,-0.0464662872254848,-0.4011040329933166,0.5642958283424377
1629880754892,0.3716643154621124,-0.0340241268277168,-0.4188577532768249,0.5642958283424377
1629880754970,0.3716643154621124,-0.0284785535186529,-0.4344737231731415,0.5642958283424377
1629880755126,0.3716643154621124,-0.0293689873069524,-0.4316955208778381,0.5642958283424377
1629880755220,0.3716643154621124,-0.0349289402365684,-0.4014665782451629,0.6986908912658691
1629880755313,0.3716643154621124,-0.0414857380092144,-0.3513858318328857,0.7918204069137573
1629880755423,0.3716643154621124,-0.0468883775174617,-0.299666553735733,0.8471500873565674
1629880755532,0.3716643154621124,-0.0537255033850669,-0.2588724792003631,0.8733397126197815
1629880755626,0.3716643154621124,-0.0642499327659607,-0.232040524482727,0.8698276877403259
1629880755722,0.3716643154621124,-0.0744347423315048,-0.216376706957817,0.8543893694877625
1629880755862,0.3716643154621124,-0.0778640136122703,-0.2060444355010986,0.8416129946708679
1629880755940,0.3716643154621124,-0.0740938559174537,-0.196364089846611,0.8410890102386475
1629880756050,0.3716643154621124,-0.0722694545984268,-0.184166818857193,0.8621790409088135
1629880756128,0.3716643154621124,-0.0807605236768722,-0.1668503582477569,0.897909939289093
1629880756253,0.3716643154621124,-0.09848103672266,-0.1440554559230804,0.9359726905822754
1629880756378,0.3716643154621124,-0.1147183701395988,-0.1164308562874794,0.9715710878372192
1629880756456,0.3716643154621124,-0.1191610842943191,-0.0849488973617553,1.0208851099014282
1629880756567,0.3716643154621124,-0.11184923350811,-0.0546359308063983,1.0406056642532349
1629880756609,0.3716643154621124,-0.1014592573046684,-0.0337672382593154,1.0568113327026367
1629880756734,0.3716643154621124,-0.0954175889492034,-0.0293112825602293,1.0669989585876465
1629880756832,0.3716643154621124,-0.0964869186282157,-0.042325310409069,1.0693475008010864
1629880756973,0.3716643154621124,-0.1048037409782409,-0.0651769638061523,1.0711638927459717
1629880757035,0.3716643154621124,-0.1175071373581886,-0.0864631831645965,1.0780202150344849
1629880757176,0.3716643154621124,-0.1301503777503967,-0.0994747802615165,1.1000372171401978
1629880757254,0.3716643154621124,-0.1376670151948928,-0.1016721501946449,1.1355488300323486
1629880757316,0.3716643154621124,-0.1326569467782974,-0.0934263542294502,1.178801655769348
1629880757426,0.3716643154621124,-0.1090166792273521,-0.077694222331047,1.2238150835037231
1629880757538,0.3716643154621124,-0.0713847279548645,-0.0617205761373043,1.2590821981430054
1629880757679,0.3716643154621124,-0.034215573221445,-0.0546222664415836,1.2590821981430054
1629880757772,0.3716643154621124,-0.0110349021852016,-0.0592298954725265,1.2590821981430054
1629880757882,0.3716643154621124,-0.0061788158491253,-0.0728528797626495,1.2590821981430054
1629880757960,0.3716643154621124,-0.0144245289266109,-0.0906608402729034,1.2590821981430054
1629880758054,0.3716643154621124,-0.0251381956040859,-0.1069027185440063,1.2590821981430054
1629880758163,0.3716643154621124,-0.0302077382802963,-0.1154711842536926,1.2590821981430054
1629880758304,0.3716643154621124,-0.0276726856827735,-0.1127392873167991,1.2590821981430054
1629880758413,0.3716643154621124,-0.0197789017111063,-0.1029299348592758,0.6626110076904297
1629880758460,0.3716643154621124,-0.008120915852487,-0.0956973135471344,0.6306896209716797
1629880758553,0.3716643154621124,0.005699158180505,-0.097556471824646,0.6229657530784607
1629880758678,0.3716643154621124,0.0177094768732786,-0.1085899025201797,0.6229657530784607
1629880758806,0.3716643154621124,0.0229754447937011,-0.1280245780944824,0.6229657530784607
1629880758884,0.3716643154621124,0.0179190374910831,-0.1573204100131988,0.6229657530784607
1629880758993,0.3716643154621124,0.0008469159365631,-0.1958474218845367,0.6229657530784607
1629880759103,0.3716643154621124,-0.0261244624853134,-0.2353680431842804,0.6229657530784607
1629880759165,0.3716643154621124,-0.0561282075941562,-0.2623471617698669,0.6229657530784607
1629880759243,0.3716643154621124,-0.0791847482323646,-0.2719648480415344,0.6229657530784607
1629880759415,0.3716643154621124,-0.0898586139082908,-0.2729286551475525,0.6229657530784607
1629880759478,0.3716643154621124,-0.0913559719920158,-0.2781587243080139,0.6229657530784607
1629880759589,0.3716643154621124,-0.0920492708683013,-0.2938058972358703,0.5826366543769836
1629880759714,0.3716643154621124,-0.0972463712096214,-0.3187895715236664,0.568842351436615
1629880759792,0.3716643154621124,-0.1089201271533966,-0.3469673693180084,0.5885594487190247
1629880759855,0.3716643154621124,-0.1282386630773544,-0.3686524927616119,0.6268971562385559
1629880760042,0.3716643154621124,-0.1561729311943054,-0.3760407567024231,0.6571816205978394
1629880760105,0.3716643154621124,-0.189784362912178,-0.3698563873767853,0.6707505583763123
1629880760198,0.1607621014118194,-0.2189944982528686,-0.3554757535457611,0.6707505583763123
1629880760292,0.1601448059082031,-0.231214165687561,-0.3366664052009582,0.6707505583763123
1629880760355,0.1601448059082031,-0.2243058830499649,-0.3047083020210266,0.6707505583763123
1629880760464,0.1601448059082031,-0.2057444751262664,-0.289409726858139,0.6707505583763123
1629880760605,0.1601448059082031,-0.1736485958099365,-0.2789604961872101,0.6707505583763123
1629880760685,0.1601448059082031,-0.1176759675145149,-0.2759762108325958,0.6707505583763123
1629880760794,0.1601448059082031,-0.0444806106388568,-0.2806221544742584,0.6707505583763123
1629880760935,0.1601448059082031,0.0228366404771804,-0.2887562811374664,0.6707505583763123
1629880760997,0.1601448059082031,0.0668069496750831,-0.2931190729141235,0.6707505583763123
1629880761107,0.1601448059082031,0.0858414396643638,-0.2901809811592102,0.6886137127876282
1629880761247,0.1601448059082031,0.0898294225335121,-0.2825210988521576,0.6886137127876282
1629880761310,0.1601448059082031,0.0903497338294982,-0.2753254473209381,0.6886137127876282
1629880761403,0.1707206070423126,0.0929605215787887,-0.2701061964035034,0.6886137127876282
1629880761497,0.2005953788757324,0.0984785407781601,-0.2635974884033203,0.6886137127876282
1629880761637,0.2179362177848816,0.104045383632183,-0.2707971930503845,0.6886137127876282
1629880761720,0.2221505939960479,0.1060137748718261,-0.2830775678157806,0.6886137127876282
1629880761860,0.2278510332107544,0.101880706846714,-0.3061888813972473,0.6886137127876282
1629880761954,0.2298003882169723,0.0910606235265731,-0.3895626068115234,0.6886137127876282
1629880762079,0.2384174168109893,0.0747620910406112,-0.3881838023662567,0.5118682384490967
1629880762110,0.2532631158828735,0.0509093254804611,-0.3772745132446289,0.5537300109863281
1629880762204,0.265838086605072,0.0131809972226619,-0.3648320138454437,0.5802248120307922
1629880762298,0.2780162692070007,-0.0394580215215683,-0.3578068912029266,0.5907511711120605
1629880762423,0.2857981324195862,-0.0942225232720375,-0.3558916449546814,0.590111255645752
1629880762563,0.2831951677799225,-0.1293718218803405,-0.3522955179214477,0.5780423879623413
1629880762610,0.2744252979755401,-0.1359105855226516,-0.339844137430191,0.5659351348876953
1629880762739,0.2622514367103576,-0.1284573823213577,-0.3196589648723602,0.5561776757240295
1629880762817,0.2497076541185379,-0.125696450471878,-0.2997553944587707,0.5485871434211731
1629880762942,0.2385491132736206,-0.1323803067207336,-0.2876726686954498,0.5449870824813843
1629880763052,0.2280838787555694,-0.1443202644586563,-0.283708781003952,0.5446143746376038
1629880763161,0.2230968475341797,-0.1523898988962173,-0.2758448719978332,0.5414608716964722
1629880763270,0.2236835211515426,-0.1512434184551239,-0.2541329860687256,0.5418988466262817
1629880763333,0.2279430627822876,-0.1434537917375564,-0.2175447046756744,0.5462536811828613
1629880763411,0.2319341301918029,-0.1359818428754806,-0.1781345754861831,0.5509645342826843
1629880763520,0.2295936793088913,-0.134887084364891,-0.1501029282808303,0.5566455125808716
1629880763676,0.2191269844770431,-0.1425443589687347,-0.138829156756401,0.5572905540466309
1629880763773,0.2039094269275665,-0.1589464247226715,-0.1401421576738357,0.5535510182380676
1629880763851,0.1839492470026016,-0.1827736347913742,-0.1464917212724685,0.5474082231521606
1629880763945,0.1626675724983215,-0.212026834487915,-0.1532790511846542,0.5438992977142334
1629880764039,0.1451907157897949,-0.2438282668590545,-0.1602832823991775,0.5491928458213806
1629880764117,0.1350597739219665,-0.2748168408870697,-0.1692006587982177,0.558570146560669
1629880764320,0.1304022818803787,-0.2978656888008117,-0.1800153255462646,0.5655831694602966
1629880764367,0.1314371228218078,-0.3046047389507293,-0.1895949840545654,0.5685591101646423
1629880764445,0.1321946382522583,-0.2953506708145141,-0.1950803995132446,0.5652433633804321
1629880764570,0.1288566142320633,-0.2807063162326813,-0.1982671022415161,0.5558379292488098
1629880764679,0.1223552078008651,-0.2734337151050567,-0.2070755213499069,0.5505598187446594
1629880764774,0.1079815104603767,-0.2776278853416443,-0.2327931821346283,0.5429715514183044
1629880764901,0.088560976088047,-0.2861467599868774,-0.2812132537364959,0.5316954255104065
1629880764995,0.0680420696735382,-0.2870301008224487,-0.3469749987125397,0.5171597003936768
1629880765073,0.0526602305471897,-0.2725259363651275,-0.4123674035072326,0.4911879301071167
1629880765151,0.0424439683556556,-0.2452517598867416,-0.4576523602008819,0.4603061079978943
1629880765260,0.0350097082555294,-0.2143512666225433,-0.4763980209827423,0.4362230896949768
1629880765370,0.0292196087539196,-0.1893913298845291,-0.4764313995838165,0.4235515892505646
1629880765526,0.0268604028970003,-0.1744898408651352,-0.4686478972434997,0.4180346727371216
1629880765588,0.0360958650708198,-0.1680689007043838,-0.4613175392150879,0.4095954000949859
1629880765682,0.0483386740088462,-0.1658703684806823,-0.4602981209754944,0.3922946155071258
1629880765807,0.0614594407379627,-0.1671687066555023,-0.4692051708698272,0.3737255334854126
1629880765870,0.0662152394652366,-0.1739179641008377,-0.4891634583473205,0.3589932322502136
1629880765963,0.060209933668375,-0.1837991029024124,-0.5144895911216736,0.3547670841217041
1629880766104,0.0539023466408252,-0.188849002122879,-0.5344476103782654,0.3549781143665313
1629880766198,0.0491163581609725,-0.1847790777683258,-0.5405235290527344,0.3550857007503509
1629880766276,0.0482561476528644,-0.1745793372392654,-0.5288708806037903,0.3581994473934173
1629880766401,0.0516122803092002,-0.1637954860925674,-0.4985944628715515,0.3616312742233276
1629880766463,0.0528913363814353,-0.1537830084562301,-0.4528901875019073,0.364531546831131
1629880766623,0.0526223219931125,-0.1435998231172561,-0.4028771519660949,0.3698044717311859
1629880766716,0.0562184229493141,-0.1351923197507858,-0.3601425290107727,0.372833251953125
1629880766779,0.072768859565258,-0.1319957971572876,-0.3173635601997375,0.3758387863636017
1629880766888,0.1124142110347747,-0.1304334998130798,-0.2346052229404449,0.3737267851829529
1629880767013,0.1983252763748169,-0.114819049835205,-0.0443539768457412,0.3650850355625152
1629880767076,0.204251617193222,-0.0751239135861396,0.2033971548080444,0.3564582765102386
1629880767169,0.2083428353071212,-0.0240500420331954,0.4147669076919555,0.3540212213993072
1629880767325,0.3682848811149597,0.0178942438215017,0.5557015538215637,0.3570848703384399
1629880767419,0.4468456506729126,0.0420545302331447,0.631222128868103,0.3625011444091797
1629880767529,0.4791571199893951,0.0533512160181999,0.6612335443496704,0.3598403930664062
1629880767591,0.4907081723213196,0.0595303103327751,0.66913241147995,0.3594988584518432
1629880767688,0.4949493408203125,0.0638904720544815,0.6708888411521912,0.3521226048469543
1629880767797,0.4987732768058777,0.0664908438920974,0.6712212562561035,0.3438341915607452
1629880767906,0.5011962652206421,0.0671091824769973,0.6711531281471252,0.3438341915607452
1629880768047,0.5032155513763428,0.0652113556861877,0.6706456542015076,0.3438341915607452
1629880768125,0.5042017698287964,0.0593915320932865,0.6695207357406616,0.3438341915607452
1629880768188,0.5040019154548645,0.0500196255743503,0.6677587628364563,0.3438341915607452
1629880768297,0.4981822073459625,0.0399141199886798,0.664340615272522,0.3438341915607452
1629880768422,0.4820578694343567,0.0295042190700769,0.6546123623847961,0.3438341915607452
1629880768516,0.4385713636875152,0.0112941591069102,0.6221267580986023,0.4257065951824188
1629880768625,0.4266797602176666,-0.0238609779626131,0.5426911115646362,0.428413987159729
1629880768706,0.4156356751918793,-0.0735014751553535,0.3949670195579529,0.4246040880680084
1629880768815,0.2986381351947784,-0.120517760515213,0.1718681156635284,0.4228491187095642
1629880768940,0.2018849104642868,-0.1470080912113189,-0.093495100736618,0.424294114112854
1629880768987,0.1479472070932388,-0.1545261889696121,-0.2949821650981903,0.424902081489563
1629880769143,0.1278078109025955,-0.1567979454994201,-0.3686752915382385,0.4230109453201294
1629880769221,0.1165742129087448,-0.1596034467220306,-0.3877058625221252,0.4176987409591675
1629880769315,0.1033087894320488,-0.1601512730121612,-0.394551008939743,0.4096959829330444
1629880769409,0.0861929953098297,-0.1568259447813034,-0.3992036879062652,0.4007230401039123
1629880769518,0.0645515248179435,-0.1536378413438797,-0.4029318690299988,0.390551894903183
1629880769612,0.0453663319349288,-0.1536320745944976,-0.4048472046852112,0.3778536319732666
1629880769739,0.0262178983539342,-0.1567563712596893,-0.4008708596229553,0.3642019033432007
1629880769833,0.0128618953749537,-0.1609928011894226,-0.3853845298290252,0.3595064282417297
1629880769958,0.0011258755112066,-0.1656794846057891,-0.3577097356319427,0.359997808933258
1629880770036,-0.0230797063559293,-0.1727706342935562,-0.3242935240268707,0.3603847324848175
1629880770130,-0.053805761039257,-0.1809656322002411,-0.2943831384181976,0.3626048564910888
1629880770224,-0.0849245488643646,-0.1841718852519989,-0.2745941579341888,0.3666724562644958
1629880770411,-0.1125234514474868,-0.1750493198633194,-0.2658559381961822,0.3654743731021881
1629880770474,-0.123638667166233,-0.1534384191036224,-0.2649844586849212,0.3591002821922302
1629880770598,-0.1200079470872879,-0.1265053898096084,-0.2668720781803131,0.3525829315185547
1629880770677,-0.1106287240982055,-0.1008301824331283,-0.2653090953826904,0.3437962234020233
1629880770742,-0.0905930623412132,-0.0758102163672447,-0.2559980452060699,0.3409456610679626
1629880770820,-0.065915435552597,-0.0490303337574005,-0.2410894334316253,0.3412916660308838
1629880770976,-0.0360078029334545,-0.023228220641613,-0.2271313667297363,0.3497717976570129
1629880771054,-0.0040439083240926,-0.0042270845733582,-0.2186098396778106,0.3635462522506714
1629880771164,0.0219186674803495,0.0045448429882526,-0.2151529043912887,0.3800291419029236
1629880771288,0.043701197952032,0.0055851587094366,-0.2142819613218307,0.3970317542552948
1629880771382,0.0557293519377708,0.0044903149828314,-0.2162157148122787,0.4079369604587555
1629880771491,0.061450183391571,0.0068029654212296,-0.2223744839429855,0.4164967238903045
1629880771557,0.068234384059906,0.017663899809122,-0.2300834953784942,0.4197784960269928
1629880771682,0.0722442716360092,0.0382579490542411,-0.2317666858434677,0.4191015958786011
1629880771791,0.0765161365270614,0.0625202357769012,-0.2226397693157196,0.4205211102962494
1629880771885,0.0745248347520828,0.0813058763742446,-0.2058010399341583,0.4197341799736023
1629880771947,0.0630065947771072,0.0894335582852363,-0.1891396045684814,0.4199623465538025
1629880772072,0.0481860525906086,0.0877471715211868,-0.1789240390062332,0.4167813658714294
1629880772197,0.0333223044872283,0.0803019404411315,-0.1772998571395874,0.414775937795639
1629880772291,0.0220369175076484,0.0681955888867378,-0.1836403906345367,0.4162881672382355
1629880772354,0.014005166478455,0.0504435896873474,-0.1949335932731628,0.4217063188552856
1629880772478,0.0017555106896907,0.0296278521418571,-0.2065441608428955,0.4242396056652069
1629880772572,-0.0077690905891358,0.013812793418765,-0.2153200656175613,0.4257517158985138
1629880772666,-0.0146437352523207,0.0106479404494166,-0.2211838215589523,0.423289030790329
1629880772807,-0.0153301665559411,0.0191975515335798,-0.2263320833444595,0.4165549576282501
1629880772900,-0.0038413035217672,0.0307202618569135,-0.2320535480976104,0.4101516902446747
1629880772978,0.007518645375967,0.037437580525875,-0.2393381297588348,0.4012894034385681
1629880773088,0.018432741984725,0.0351710654795169,-0.2507309913635254,0.393160879611969
1629880773166,0.0272444803267717,0.0236813835799694,-0.2699974775314331,0.3898944556713104
1629880773244,0.035144280642271,0.006372136529535,-0.2985517382621765,0.3877101540565491
1629880773416,0.0504239723086357,-0.0124149462208151,-0.331988126039505,0.3940761387348175
1629880773494,0.0718569234013557,-0.0289601180702447,-0.3599705398082733,0.4093910157680511
1629880773588,0.0961213260889053,-0.0408985912799835,-0.3725843429565429,0.4341824352741241
1629880773684,0.1150658354163169,-0.0471011139452457,-0.3696856796741485,0.461685448884964
1629880773778,0.1274481117725372,-0.0474185086786747,-0.3610373139381408,0.4811821579933166
1629880773856,0.1333447992801666,-0.0428840965032577,-0.357144296169281,0.4880834221839905
1629880774044,0.141354888677597,-0.0349123552441597,-0.3623431622982025,0.4927558004856109
1629880774122,0.1497415751218795,-0.0245305299758911,-0.3719562292098999,0.4961926639080047
1629880774231,0.15743188560009,-0.0132613955065608,-0.3766340017318725,0.5055949687957764
1629880774294,0.157517597079277,-0.0005171722732484,-0.3703989386558532,0.5141990184783936
1629880774387,0.1467653959989547,0.0150841884315013,-0.3562033176422119,0.5173574686050415
1629880774497,0.1334883421659469,0.0317485518753528,-0.3412448763847351,0.5178906917572021
1629880774622,0.121028296649456,0.0453484617173671,-0.3299659490585327,0.515928328037262
1629880774747,0.1127499043941497,0.0515501722693443,-0.321570336818695,0.5155653953552246
1629880774809,0.1046566516160965,0.0501533448696136,-0.3126839995384216,0.5156521201133728
1629880774919,0.0925162211060524,0.0451173074543476,-0.303042471408844,0.5138266682624817
1629880774997,0.0778108239173889,0.0406770817935466,-0.29698646068573,0.5078057050704956
1629880775090,0.0644784867763519,0.0383086130023002,-0.2995293736457824,0.4961137175559997
1629880775231,0.0620423704385757,0.0358403660356998,-0.311472624540329,0.4867956638336181
1629880775325,0.0649532601237297,0.030300423502922,-0.3282298445701599,0.4790891408920288
1629880775418,0.0679685398936271,0.0208072382956743,-0.3443278670310974,0.476688802242279
1629880775528,0.0626392439007759,0.0087516317144036,-0.3564253449440002,0.4732659459114074
1629880775621,0.0452287569642066,-0.0041053458116948,-0.3630108833312988,0.4648241698741913
1629880775734,0.0294084101915359,-0.0167749989777803,-0.3629177510738373,0.4584746658802032
1629880775874,0.0193235278129577,-0.0309918262064456,-0.3582502603530884,0.4527098536491394
1629880775968,0.0196658186614513,-0.0473367609083652,-0.3542315661907196,0.4504439830780029
1629880776046,0.0290559958666563,-0.0612423010170459,-0.3529670238494873,0.4560592174530029
1629880776108,0.036654707044363,-0.067569226026535,-0.3513027727603912,0.4621380865573883
1629880776218,0.0458070784807205,-0.0657352656126022,-0.3463185131549835,0.4659899473190307
1629880776312,0.0597620494663715,-0.0600119233131408,-0.3412362039089203,0.4665737748146057
1629880776468,0.0751041769981384,-0.0522124469280242,-0.341767817735672,0.4611817300319671
1629880776546,0.0880540385842323,-0.0396796837449073,-0.348071277141571,0.4546437263488769
1629880776671,0.0894493460655212,-0.022562637925148,-0.3555575609207153,0.4453274309635162
1629880776736,0.0793960019946098,-0.0045691020786762,-0.3592571020126343,0.432689905166626
1629880776830,0.066311314702034,0.012282995507121,-0.357306033372879,0.41836878657341
1629880776924,0.0606667101383209,0.0280620884150266,-0.35016930103302,0.4093340635299682
1629880777064,0.0675732642412185,0.0419590286910533,-0.3416894972324371,0.403163343667984
1629880777173,0.0808940529823303,0.0507722049951553,-0.3377241492271423,0.4007091224193573
1629880777267,0.090381734073162,0.0527475699782371,-0.3424674570560455,0.3969825208187103
1629880777345,0.0979203432798385,0.0513225570321083,-0.3566297590732574,0.3999010622501373
1629880777423,0.1061214953660965,0.0521014407277107,-0.378195196390152,0.4123449921607971
1629880777535,0.1160604357719421,0.0579922869801521,-0.4053544104099273,0.418812483549118
1629880777660,0.1293216943740844,0.0685971602797508,-0.4364232420921325,0.4199284315109253
1629880777770,0.1410640031099319,0.0822148770093917,-0.4664819240570068,0.4149230420589447
1629880777879,0.1445118337869644,0.0959968939423561,-0.4875547885894775,0.4064467251300812
1629880777973,0.1444745659828186,0.1059722304344177,-0.4939367175102234,0.40477454662323
1629880778051,0.1415117532014846,0.1086245402693748,-0.4892812967300415,0.404399573802948
1629880778270,0.1526530683040619,0.1012183651328086,-0.4729781150817871,0.4042199850082397
1629880778348,0.1611890792846679,0.0999524965882301,-0.46515554189682,0.4015679955482483
1629880778504,0.1669526994228363,0.1002925932407379,-0.4550404846668243,0.3971414864063263
1629880778551,0.1671043336391449,0.0987977236509323,-0.4414826035499573,0.3969796895980835
1629880778691,0.1654341220855713,0.0944859385490417,-0.42763552069664,0.4005707800388336
1629880778754,0.1650270074605941,0.0900971442461013,-0.4195474088191986,0.4031555354595184
1629880778910,0.1623553037643432,0.0869537368416786,-0.4161653518676758,0.397025316953659
1629880778988,0.1553342342376709,0.0815040245652198,-0.4064043760299682,0.3781526684761047
1629880779129,0.1462439894676208,0.0680553093552589,-0.3825197219848633,0.3555809557437897
1629880779160,0.1355854272842407,0.0433607585728168,-0.3522325456142425,0.3360263109207153
1629880779285,0.1279758363962173,0.0112115815281867,-0.3303245604038238,0.324193924665451
1629880779363,0.1265928447246551,-0.0189737658947706,-0.3235688805580139,0.3255232572555542
1629880779504,0.1235772296786308,-0.0386564284563064,-0.3273280262947082,0.3335824310779571
1629880779597,0.1197974979877471,-0.0446250960230827,-0.3308459222316742,0.3475294709205627
1629880779710,0.1118612587451934,-0.0387356057763099,-0.3250530660152435,0.3615269064903259
1629880779772,0.1000373736023902,-0.0271994285285472,-0.3071587383747101,0.3702901303768158
1629880779881,0.0893851816654205,-0.0181522574275732,-0.2832548916339874,0.3784928917884826
1629880779960,0.0799279510974884,-0.0158598255366086,-0.262004554271698,0.3850327134132385
1629880780116,0.0775406882166862,-0.0178246069699525,-0.2459334433078766,0.3876499831676483
1629880780194,0.0864426717162132,-0.0165564194321632,-0.2288258820772171,0.3877133131027221
1629880780303,0.0974285975098609,-0.0082825124263763,-0.2020607888698578,0.3843224644660949
1629880780397,0.1151514649391174,0.0044469125568866,-0.1661741882562637,0.3856714963912964
1629880780491,0.1388705521821975,0.0176052451133728,-0.1297546327114105,0.398630678653717
1629880780616,0.1601109951734542,0.0291424803435802,-0.0994814336299896,0.4180222749710083
1629880780743,0.1774082034826278,0.0389873422682285,-0.0757663622498512,0.4392439126968384
1629880780837,0.1820699721574783,0.0461512953042984,-0.0561405979096889,0.4550439119338989
1629880780915,0.1754267960786819,0.0488586127758026,-0.0390117280185222,0.4610486030578613
1629880781009,0.1679134666919708,0.0452932976186275,-0.0240759588778018,0.4590766727924347
1629880781087,0.1661507934331894,0.0352122411131858,-0.0116703966632485,0.4538805484771728
1629880781181,0.1714755147695541,0.0193274859338998,-0.0026198925916105,0.4511556327342987
1629880781321,0.1820859313011169,0.0014648092910647,0.0009263025131076,0.4524169266223907
1629880781431,0.1931538432836532,-0.0137545382604002,-0.0007870538975112,0.4570226967334747
1629880781509,0.1977396607398986,-0.0243024602532386,-0.0056348606012761,0.4564987421035766
1629880781602,0.2015817016363144,-0.0336070731282234,-0.0127615854144096,0.4573100209236145
1629880781715,0.2057643234729766,-0.0463104099035263,-0.0247307755053043,0.4584090113639831
1629880781824,0.2131248265504837,-0.0632194131612777,-0.0449709258973598,0.4607254266738891
1629880781949,0.2220192998647689,-0.0812531262636184,-0.0734894126653671,0.4652658700942993
1629880782043,0.2235539257526397,-0.0964678227901458,-0.1070793271064758,0.4612612426280975
1629880782121,0.22077077627182,-0.1048546805977821,-0.1418466120958328,0.452979028224945
1629880782277,0.2168263345956802,-0.101261131465435,-0.173013299703598,0.4418003261089325
1629880782324,0.218901127576828,-0.0838619843125343,-0.1956306844949722,0.4348773658275604
1629880782402,0.2320417314767837,-0.0582073889672756,-0.2088656276464462,0.4405668675899505
1629880782590,0.2490781545639038,-0.0344363190233707,-0.218239739537239,0.4520351588726043
1629880782668,0.2642063796520233,-0.0204170830547809,-0.230744257569313,0.4624268710613251
1629880782733,0.275359034538269,-0.0187162235379219,-0.2484344691038131,0.470437228679657
1629880782827,0.2784889042377472,-0.0278329625725746,-0.2680940330028534,0.4714572131633758
1629880782952,0.2762385606765747,-0.0428364649415016,-0.288461685180664,0.4725552499294281
1629880782998,0.2755573689937591,-0.0563044287264347,-0.3097877204418182,0.4806623756885528
1629880783217,0.2725912928581238,-0.0596605539321899,-0.3298253417015075,0.4903415441513061
1629880783264,0.2689052522182464,-0.0502893775701522,-0.343113511800766,0.5051685571670532
1629880783358,0.2643161416053772,-0.0340402349829673,-0.3477008938789367,0.5146852731704712
1629880783499,0.2573324739933014,-0.0196646098047494,-0.3474126756191253,0.5163091421127319
1629880783565,0.251091331243515,-0.0118441209197044,-0.3485202491283417,0.5117643475532532
1629880783659,0.2463823556900024,-0.0104197952896356,-0.3550363481044769,0.5059297680854797
1629880783815,0.2391940504312515,-0.0139939049258828,-0.3694003522396087,0.5039828419685364
1629880783878,0.2291480153799057,-0.0236375033855438,-0.3905137181282043,0.4996941089630127
1629880783987,0.2130520194768905,-0.0402691140770912,-0.408878892660141,0.4897016286849975
1629880784081,0.1944065988063812,-0.057831946760416,-0.4112076759338379,0.4755002558231354
1629880784143,0.1814963221549987,-0.0656513273715972,-0.3928463459014892,0.4606165885925293
1629880784253,0.1758991479873657,-0.0577847547829151,-0.3626341819763183,0.4480895102024078
1629880784409,0.1803309917449951,-0.0392853841185569,-0.3321265876293182,0.4427290260791778
1629880784471,0.1890167593955993,-0.0195947885513305,-0.3056130707263946,0.4370675384998321
1629880784583,0.1940461695194244,-0.0048653287813067,-0.2816676199436188,0.4301897287368774
1629880784677,0.1932188719511032,0.0024965847842395,-0.2589626312255859,0.4198991060256958
1629880784739,0.1813543736934662,0.0024904364254325,-0.2383311241865158,0.4013040959835052
1629880784864,0.1630243808031082,-0.0029041240923106,-0.2212277203798294,0.3851422965526581
1629880785020,0.1401520669460296,-0.0098588988184928,-0.2073109000921249,0.3721799254417419
1629880785098,0.1201046556234359,-0.0146802114322781,-0.1938522309064865,0.3694171011447906
1629880785208,0.1036943048238754,-0.0170623585581779,-0.1788810193538665,0.3686064183712005
1629880785270,0.0946550220251083,-0.019569182768464,-0.1627577096223831,0.360269159078598
1629880785348,0.0974798053503036,-0.0221045296639204,-0.1489490866661071,0.3511523306369781
1629880785442,0.1085924729704856,-0.0213567428290843,-0.1427947431802749,0.339210569858551
1629880785599,0.125407725572586,-0.016602860763669,-0.1482064127922058,0.3299415111541748
1629880785712,0.1361458450555801,-0.0131928892806172,-0.1650776118040084,0.321819543838501
1629880785775,0.1384614557027816,-0.0179053172469139,-0.188671588897705,0.3133704960346222
1629880785900,0.1320139914751052,-0.0310364514589309,-0.2117177248001098,0.3026477992534637
1629880786009,0.116866759955883,-0.0452475845813751,-0.2281516343355178,0.2885999679565429
1629880786087,0.1011368036270141,-0.0528002269566059,-0.236734852194786,0.2695044577121734
1629880786228,0.0910042151808738,-0.0526616722345352,-0.2420914024114608,0.2529325783252716
1629880786306,0.0904119610786438,-0.0492817722260952,-0.2505550682544708,0.2546230256557464
1629880786384,0.0962109640240669,-0.0463555641472339,-0.2637604475021362,0.2721225619316101
1629880786462,0.1073263362050056,-0.0442645065486431,-0.2793650329113006,0.3031871914863586
1629880786635,0.1172529011964798,-0.0420768111944198,-0.2957682609558105,0.3291221857070923
1629880786684,0.1248798444867134,-0.0403775088489055,-0.3138137757778168,0.3431055545806885
1629880786793,0.1331068128347396,-0.0402145385742187,-0.3351023495197296,0.3560473918914795
1629880786934,0.135531410574913,-0.0414178483188152,-0.3578890860080719,0.3659631013870239
1629880787043,0.132859006524086,-0.0443101488053798,-0.3758372068405151,0.3803739249706268
1629880787106,0.1248153522610664,-0.0514259897172451,-0.3831046223640442,0.3987326025962829
1629880787184,0.1120603829622268,-0.0640405640006065,-0.3797095119953155,0.4088679254055023
1629880787277,0.1004619896411895,-0.0787057057023048,-0.373929351568222,0.4180582165718078
1629880787449,0.0938209369778633,-0.0877181142568588,-0.3743764758110046,0.4304134249687195
1629880787527,0.0942931994795799,-0.0868093594908714,-0.3847120404243469,0.4484382271766662
1629880787605,0.0998950600624084,-0.0786973908543586,-0.4032289683818817,0.4730404913425445
1629880787764,0.1028453186154365,-0.0695033371448516,-0.4247508645057678,0.4872572422027588
1629880787811,0.1038747578859329,-0.0636514276266098,-0.4434051811695099,0.4887655973434448
1629880787873,0.1039945781230926,-0.0615049228072166,-0.4572426080703735,0.4721723198890686
1629880788061,0.1063457503914833,-0.0603186562657356,-0.4671803414821625,0.4420303106307983
1629880788139,0.120048202574253,-0.057709202170372,-0.4731955826282501,0.4259528815746307
1629880788264,0.1369736045598983,-0.0524064265191555,-0.4727886319160461,0.4233890473842621
1629880788358,0.1490601450204849,-0.0457575432956218,-0.4647143483161926,0.42906054854393
1629880788420,0.1537990570068359,-0.0409632138907909,-0.4528031945228576,0.4337244033813476
1629880788514,0.1478638052940368,-0.0383534952998161,-0.4429090619087219,0.4224776029586792
1629880788639,0.1406330019235611,-0.0336905233561992,-0.4365783035755157,0.4069134294986725
1629880788733,0.1369030475616455,-0.0225102361291646,-0.4320172369480133,0.4061710834503174
1629880788811,0.1363511979579925,-0.0063796089962124,-0.426512062549591,0.4186940491199493
1629880788936,0.1343451291322708,0.0071195950731635,-0.4195920825004577,0.4297344088554382
1629880789045,0.1333654820919037,0.0121646290645003,-0.4106681942939758,0.4339101016521454
1629880789123,0.1328800916671753,0.0094633866101503,-0.3958902657032013,0.4268669784069061
1629880789264,0.1363551020622253,0.0040771379135549,-0.3701257109642029,0.4209907650947571
1629880789326,0.1438318938016891,6.58947610645555e-05,-0.333743542432785,0.4191373586654663
1629880789467,0.1497927606105804,-0.0033524178434163,-0.2961029708385467,0.4232975542545318
1629880789563,0.1493424177169799,-0.0103146499022841,-0.2692229151725769,0.4334134757518768
1629880789641,0.1346965879201889,-0.0233574844896793,-0.2601973414421081,0.4351276159286499
1629880789735,0.1112031638622284,-0.0409183762967586,-0.2669069170951843,0.4306976199150085
1629880789844,0.0867544412612915,-0.0591411776840686,-0.2807792127132416,0.4237429797649383
1629880789938,0.0659060850739479,-0.0763705298304557,-0.2920061945915222,0.4175540208816528
1629880790063,0.0557961873710155,-0.0948654264211654,-0.2956742942333221,0.4190833270549774
1629880790141,0.0542624704539775,-0.1169815212488174,-0.2929606437683105,0.4251570105552673
1629880790282,0.0546937473118305,-0.1417072266340255,-0.2870098650455475,0.4252931177616119
1629880790376,0.052735585719347,-0.1642114073038101,-0.2790559232234955,0.4158180356025696
1629880790469,0.0502462014555931,-0.1814981698989868,-0.2700327634811401,0.40272918343544
1629880790552,0.0437208786606788,-0.1963257193565368,-0.2628504931926727,0.3894284963607788
1629880790677,0.0370399840176105,-0.2149570733308792,-0.2622901201248169,0.3816109895706177
1629880790770,0.028228523209691,-0.2410173714160919,-0.2731643915176391,0.3751307129859924
1629880790883,0.0109852468594908,-0.2723458409309387,-0.296099305152893,0.3655974566936493
1629880790945,-0.0073521952144801,-0.3024974465370178,-0.3231104612350464,0.3577029705047607
1629880791101,-0.0250958446413278,-0.3242308497428894,-0.3404231071472168,0.3428801000118255
1629880791195,-0.0310121048241853,-0.332723319530487,-0.3384212553501129,0.32585009932518
1629880791257,-0.0230759512633085,-0.3314743638038635,-0.3213879764080047,0.3091863691806793
1629880791351,-0.0021132687106728,-0.3287873864173889,-0.301172137260437,0.3000379204750061
1629880791445,0.0232639797031879,-0.3306427299976349,-0.2857736945152282,0.2989318370819092
1629880791554,0.0426090732216835,-0.3376667201519012,-0.277758926153183,0.3011944591999054
1629880791681,0.0471752844750881,-0.3490169942378998,-0.2772492468357086,0.2974321246147156
1629880791775,0.0408567897975444,-0.3657911419868469,-0.2840321362018585,0.2859242260456085
1629880791837,0.0297547038644552,-0.3889147639274597,-0.2977123856544494,0.2729353010654449
1629880791947,0.0181669015437364,-0.4139103293418884,-0.3156444430351257,0.2659417688846588
1629880792103,0.0124620711430907,-0.4321783781051636,-0.3342151939868927,0.2677190601825714
1629880792181,0.0110819889232516,-0.438132107257843,-0.3522036075592041,0.2836261987686157
1629880792290,0.0073673753067851,-0.4320223331451416,-0.3685893416404724,0.2982583940029144
1629880792446,0.0040465672500431,-0.4177963137626648,-0.3827240467071533,0.3101179599761963
1629880792493,-0.0048433691263198,-0.4017813801765442,-0.3949826061725616,0.3166631460189819
1629880792556,-0.0153189189732074,-0.3915514349937439,-0.4075539708137512,0.3193451464176178
1629880792665,-0.0302347410470247,-0.3927605748176574,-0.4233665466308594,0.3246058225631714
1629880792790,-0.0531396865844726,-0.4018813371658325,-0.4427414834499359,0.3301610052585602
1629880792931,-0.0814914777874946,-0.4075633585453033,-0.4629639387130737,0.3366541862487793
1629880793009,-0.1165520921349525,-0.4000502228736877,-0.4814792573451996,0.3425089418888092
1629880793149,-0.146956980228424,-0.3794597089290619,-0.4978699088096618,0.3457565009593963
1629880793196,-0.1649848967790603,-0.3537917137145996,-0.51362544298172,0.3475247323513031
1629880793312,-0.1682281047105789,-0.331479400396347,-0.5291532874107361,0.3570950925350189
1629880793421,-0.1649269163608551,-0.317745953798294,-0.5420024991035461,0.3654930591583252
1629880793515,-0.1582792848348617,-0.3139119446277618,-0.5499972105026245,0.3723229467868805
1629880793625,-0.1586928367614746,-0.317331463098526,-0.5537649989128113,0.373327761888504
1629880793721,-0.1729869842529297,-0.3224278390407562,-0.5533578991889954,0.3543606400489807
1629880793830,-0.1881542056798935,-0.3260335028171539,-0.5499261617660522,0.3336077034473419
1629880793892,-0.2068658173084259,-0.3289821147918701,-0.5461928844451904,0.3042484819889068
1629880794017,-0.1522720009088516,-0.3291624784469604,-0.5476594567298889,0.3042484819889068
1629880794157,-0.0944338142871856,-0.3180169463157654,-0.5566716194152832,0.3042484819889068
1629880794235,-0.0420314446091651,-0.2917857468128204,-0.5690661668777466,0.3042484819889068
1629880794329,-0.002711871638894,-0.2612082660198211,-0.577136218547821,0.3042484819889068
1629880794393,-0.0008887872681953,-0.2418347746133804,-0.5770637392997742,0.3042484819889068
1629880794531,0.0018787101143971,-0.2381217330694198,-0.5715211629867554,0.3603501617908478
1629880794609,0.0060621011070907,-0.2412706166505813,-0.564392626285553,0.3724587857723236
1629880794788,0.0214997753500938,-0.2389112710952758,-0.5572296977043152,0.3878334462642669
1629880794882,0.0322083421051502,-0.2269168943166732,-0.5503734350204468,0.3904922008514404
1629880794949,0.0346864461898803,-0.2081376910209655,-0.5449749827384949,0.3894724547863006
1629880794992,0.0260532516986131,-0.1885043531656265,-0.5399140119552612,0.3881179690361023
1629880795144,0.0071150721050798,-0.173603743314743,-0.5315328240394592,0.3859987556934356
1629880795253,-0.0102240778505802,-0.1678524762392044,-0.5178182125091553,0.3951961994171142
1629880795395,-0.0215815231204032,-0.1707278341054916,-0.5007376670837402,0.4002119302749634
1629880795440,-0.0214391686022281,-0.1770734935998916,-0.4843312501907348,0.4038276672363281
1629880795551,-0.0132509861141443,-0.1825325787067413,-0.468830406665802,0.407860666513443
1629880795599,-0.0022408934310078,-0.1881225705146789,-0.4531247615814209,0.4093892276287079
1629880795771,0.0050896410830318,-0.1966050863265991,-0.4387513399124145,0.4157912135124206
1629880795818,0.0104108890518546,-0.2053290903568267,-0.4300825297832489,0.4185619950294494
1629880795959,0.0127118695527315,-0.2084062993526458,-0.4299736022949219,0.4179409742355346
1629880796103,0.0154100656509399,-0.2055700421333313,-0.4365957081317901,0.4192430078983307
1629880796165,0.0178811512887477,-0.2048630118370056,-0.44403737783432,0.4216420352458954
1629880796238,0.0225523207336664,-0.2138928174972534,-0.4467737674713135,0.4360894858837127
1629880796354,0.0348578467965126,-0.2326818406581878,-0.4418202340602875,0.4587124288082123
1629880796448,0.0531513839960098,-0.2556361258029938,-0.4307828843593597,0.478252500295639
1629880796605,0.0791702717542648,-0.2764150500297546,-0.4188521802425384,0.4953136444091797
1629880796658,0.1024682819843292,-0.2925362288951874,-0.4115597903728485,0.5006049275398254
1629880796786,0.1184203699231147,-0.3042393624782562,-0.4128697514533996,0.4986299574375152
1629880796864,0.1260056346654892,-0.31367027759552,-0.4218197762966156,0.4962184429168701
1629880796927,0.1261965483427047,-0.3233220279216766,-0.4326325356960296,0.4948109090328216
1629880797036,0.1298766583204269,-0.3338886201381683,-0.4402889609336853,0.4960774779319763
1629880797209,0.1393864303827285,-0.3438115417957306,-0.4444944858551025,0.4995928406715393
1629880797292,0.1554803103208542,-0.350351870059967,-0.4475965201854706,0.5050141215324402
1629880797356,0.1722155958414077,-0.3547397553920746,-0.4504802525043487,0.5133152008056641
1629880797466,0.1805572658777237,-0.3615791797637939,-0.4518824815750122,0.5191136002540588
1629880797530,0.1820320188999176,-0.3722515106201172,-0.4514120221138,0.5313408970832825
1629880797657,0.17718306183815,-0.3820421993732452,-0.4503335654735565,0.544945478439331
1629880797807,0.1704823970794677,-0.3852178156375885,-0.449335902929306,0.5531935691833496
1629880797869,0.1670314371585846,-0.3813747763633728,-0.4503532946109772,0.5586086511611938
1629880797947,0.163967564702034,-0.3763036429882049,-0.4542813599109649,0.5527761578559875
1629880798088,0.1615114361047744,-0.3760691583156585,-0.4603428840637207,0.5443680286407471
1629880798187,0.1561328172683715,-0.3803820312023163,-0.4649889469146728,0.5360351204872131
1629880798315,0.1495693773031234,-0.3822159171104431,-0.4651761054992676,0.5314831137657166
1629880798409,0.1456393003463745,-0.3737862110137939,-0.463328868150711,0.5340861082077026
1629880798529,0.1420545876026153,-0.3548643887042999,-0.4649341702461242,0.5389768481254578
1629880798610,0.133372500538826,-0.3346306085586548,-0.4724011123180389,0.5427519083023071
1629880798717,0.1130754500627517,-0.3242468535900116,-0.4825429320335388,0.5407562851905823
1629880798810,0.0839017033576965,-0.326101690530777,-0.4896353781223297,0.5319474935531616
1629880798887,0.0507887154817581,-0.3326886892318725,-0.4917932152748108,0.5191030502319336
1629880799060,0.0284811425954103,-0.333830714225769,-0.4903731942176819,0.5145258903503418
1629880799094,0.0152461351826787,-0.3277996182441711,-0.4874096512794494,0.5017186403274536
1629880799219,0.0104609979316592,-0.3214928805828094,-0.4856866300106048,0.4830985069274902
1629880799313,0.0001458277547499,-0.320052295923233,-0.489063560962677,0.4563703238964081
1629880799391,-0.0258418787270784,-0.3201104998588562,-0.4994151294231415,0.4175466299057007
1629880799476,-0.0584323555231094,-0.3151154518127441,-0.5149240493774414,0.3942952156066894
1629880799650,-0.095535784959793,-0.3022596836090088,-0.5295569896697998,0.3773516416549682
1629880799759,-0.1065907478332519,-0.2839866578578949,-0.5348533987998962,0.3847388029098511
1629880799822,-0.0952454283833503,-0.2668670415878296,-0.5242287516593933,0.4010781943798065
1629880799936,-0.0723480433225631,-0.2559591233730316,-0.4989709556102752,0.4237060844898224
1629880800015,-0.0512773096561431,-0.2531375586986542,-0.4678045511245727,0.4434561729431152
1629880800077,-0.0432471185922622,-0.2580683827400207,-0.4399999380111694,0.4540580809116363
1629880800218,-0.0341903492808342,-0.2681356370449066,-0.4192548394203186,0.4682697653770447
1629880800327,-0.0240255109965801,-0.2812354266643524,-0.4028563797473907,0.4841066598892212
1629880800436,-0.0030738550703972,-0.2958724200725555,-0.3846541047096252,0.5041736364364624
1629880800530,0.0162307806313037,-0.3103068172931671,-0.3612428903579712,0.5133682489395142
1629880800597,0.0310051962733268,-0.3203885555267334,-0.335845023393631,0.5137968063354492
1629880800690,0.0396886244416236,-0.323013424873352,-0.3153391778469085,0.5118939876556396
1629880800847,0.0402349084615707,-0.3198080658912658,-0.303991824388504,0.5118458271026611
1629880800956,0.0392254069447517,-0.3161339461803436,-0.3000594675540924,0.5258265137672424
1629880801018,0.0364520698785781,-0.3158301711082458,-0.2984837591648102,0.5444348454475403
1629880801112,0.0346438996493816,-0.317598283290863,-0.2965348660945892,0.5611116886138916
1629880801222,0.0282038301229476,-0.3182785809040069,-0.2974254786968231,0.5668269991874695
1629880801315,0.0142233353108167,-0.3141356408596039,-0.306018978357315,0.558228075504303
1629880801472,-0.0079586673527956,-0.3045346736907959,-0.3233343958854675,0.5362602472305298
1629880801550,-0.0326070711016655,-0.2918041348457336,-0.3459948897361755,0.5115332007408142
1629880801662,-0.0484232902526855,-0.2776646316051483,-0.3697101175785064,0.4896129369735718
1629880801693,-0.056661807000637,-0.2621187269687652,-0.392687052488327,0.4674807786941528
1629880801849,-0.060307428240776,-0.2466423213481903,-0.4165175259113312,0.4480352103710174
1629880801943,-0.0756275728344917,-0.2348856776952743,-0.4453999698162079,0.4251349866390228
1629880802052,-0.0980548560619354,-0.2293810695409774,-0.4833073318004608,0.4090058207511902
1629880802146,-0.1219472363591194,-0.2308641225099563,-0.5286515355110168,0.4015563130378723
1629880802224,-0.1373813450336456,-0.2374793142080307,-0.5707234740257263,0.4010160565376282
1629880802349,-0.1339002102613449,-0.2474644482135772,-0.5954496264457703,0.4037077128887176
1629880802459,-0.1242890059947967,-0.2588025331497192,-0.599195659160614,0.3953728675842285
1629880802490,-0.1180610135197639,-0.2682944536209106,-0.5903134346008301,0.3786073923110962
1629880802680,-0.120453156530857,-0.2734470963478088,-0.5788737535476685,0.3598622381687164
1629880802773,-0.1275992095470428,-0.2751708626747131,-0.5699722766876221,0.3449337780475616
1629880802898,-0.1324603706598281,-0.2784000039100647,-0.5650255084037781,0.3389576971530914
1629880802992,-0.1290464997291565,-0.2861263155937195,-0.5617662668228149,0.3364399075508117
1629880803039,-0.1175692826509475,-0.2968701124191284,-0.5554700493812561,0.3322702646255493
1629880803133,-0.0992523729801178,-0.307036429643631,-0.5436342358589172,0.3337226510047912
1629880803305,-0.0692090094089508,-0.3151961266994476,-0.5277824401855469,0.3416130840778351
1629880803351,-0.0325747765600681,-0.322262704372406,-0.5096139311790466,0.3521287143230438
1629880803461,0.0065272091887891,-0.3276813924312591,-0.48764169216156,0.3649706840515136
1629880803570,0.0427024811506271,-0.3301258087158203,-0.4604993462562561,0.3764814436435699
1629880803648,0.071997083723545,-0.327923446893692,-0.4305019080638885,0.3808370530605316
1629880803760,0.0937504693865776,-0.3203626275062561,-0.4036429524421692,0.3836881220340729
1629880803891,0.1052860841155052,-0.3081915080547333,-0.3855118453502655,0.3791400790214538
1629880803969,0.1089717671275138,-0.2942577600479126,-0.3780001699924469,0.3755113482475281
1629880804063,0.1127075552940368,-0.2812631130218506,-0.3806610405445099,0.3709774315357208
1629880804172,0.118808202445507,-0.2709779739379883,-0.3907367289066314,0.3713588714599609
1629880804266,0.1260121464729309,-0.2629345655441284,-0.4039046466350555,0.375282883644104
1629880804344,0.1339820176362991,-0.2565208077430725,-0.4162833094596863,0.3809088766574859
1629880804469,0.136431872844696,-0.2535172700881958,-0.4257001578807831,0.3820064663887024
1629880804594,0.1350275725126266,-0.256115198135376,-0.4323255121707916,0.3806734085083008
1629880804672,0.126435711979866,-0.2637248337268829,-0.4356876909732818,0.3723295331001282
1629880804750,0.1046796217560768,-0.2735527455806732,-0.4351201355457306,0.3560528457164764
1629880804875,0.0742844641208648,-0.2813483774662018,-0.4335093796253204,0.3409000933170318
1629880805000,0.0459853671491146,-0.2840534746646881,-0.4371869266033172,0.3304570913314819
1629880805125,0.024798372760415,-0.2800701856613159,-0.4496148824691772,0.3246633112430572
1629880805187,0.0118750836700201,-0.2712004780769348,-0.4663534164428711,0.3340295553207397
1629880805312,0.0002281700872117,-0.2630978226661682,-0.477875143289566,0.3408933579921722
1629880805437,-0.0063572619110345,-0.2605365812778473,-0.4766699373722076,0.3461284339427948
1629880805515,0.0027310701552778,-0.2649882137775421,-0.4633328020572662,0.3500438928604126
1629880805581,0.0232291016727685,-0.2759789228439331,-0.4437292516231537,0.3517490327358246
1629880805753,0.0478686355054378,-0.2926844954490661,-0.423672080039978,0.3503824472427368
1629880805815,0.0657364949584007,-0.3141728341579437,-0.4040954113006592,0.3438727557659149
1629880805940,0.0734253674745559,-0.3374418616294861,-0.3836153447628021,0.3344901502132416
1629880806018,0.0778250321745872,-0.3569854497909546,-0.3644473254680633,0.3341496288776397
1629880806096,0.0795923396944999,-0.3688204884529114,-0.3516161441802978,0.3368666172027588
1629880806190,0.081657625734806,-0.3728342056274414,-0.3485990464687347,0.3464982807636261
1629880806362,0.0830382108688354,-0.3718367218971252,-0.3545506298542022,0.3553957641124725
1629880806424,0.0800187513232231,-0.3686688542366028,-0.3628426492214203,0.3553687930107116
1629880806487,0.0715485364198684,-0.3660095930099487,-0.3657316863536834,0.3487292528152466
1629880806599,0.0616322010755538,-0.3679290413856506,-0.3595451116561889,0.3368104994297027
1629880806724,0.0533536784350872,-0.3773221969604492,-0.349815160036087,0.3272155821323395
1629880806849,0.052656851708889,-0.389919251203537,-0.345956414937973,0.3279664814472198
1629880806911,0.0525450445711612,-0.3967870473861694,-0.3534773290157318,0.3359769582748413
1629880807052,0.0452816039323806,-0.3932629823684692,-0.370102971792221,0.3432458937168121
1629880807114,0.0286051966249942,-0.3806822896003723,-0.3886937499046325,0.3497380912303924
1629880807224,0.0072699608281254,-0.3608346581459045,-0.4039495885372162,0.3549346327781677
1629880807317,-0.0052139516919851,-0.3345449566841125,-0.4157978892326355,0.3666374385356903
1629880807442,-0.0071487980894744,-0.3062296211719513,-0.4243403673171997,0.3793230354785919
1629880807536,-0.0052266847342252,-0.2841719388961792,-0.424733430147171,0.3860286176204681
1629880807648,-0.004601162392646,-0.272245705127716,-0.4134837090969085,0.3892631530761719
1629880807773,-0.0066969315521419,-0.2671875357627868,-0.3941361904144287,0.3839806914329529
1629880807820,-0.0055792587809264,-0.2610030472278595,-0.3740981519222259,0.3786303400993347
1629880807898,0.0029514285270124,-0.24946990609169,-0.359471321105957,0.3747523725032806
1629880808101,0.0182789210230112,-0.2351555824279785,-0.3509413003921509,0.37341970205307
1629880808132,0.0237841047346591,-0.2228459566831588,-0.3484342694282532,0.376488983631134
1629880808257,0.0258729364722967,-0.2135381251573562,-0.3497086763381958,0.3798950910568237
1629880808366,0.0231257677078247,-0.2045668363571167,-0.3478846549987793,0.3780275583267212
1629880808445,0.0195385050028562,-0.1938587576150894,-0.3366769552230835,0.3727498352527618
1629880808523,0.0174296703189611,-0.1832513362169265,-0.3166766464710235,0.3737547695636749
1629880808648,0.0198631081730127,-0.177349641919136,-0.2947657406330108,0.3782910406589508
1629880808757,0.0404995344579219,-0.1801216602325439,-0.2775314450263977,0.3831243216991424
1629880808866,0.0549052655696868,-0.1910069435834884,-0.2681118845939636,0.3811859488487243
1629880808929,0.0599195435643196,-0.2041683048009872,-0.2677928805351257,0.3678913116455078
1629880809069,0.0640401244163513,-0.2112744152545929,-0.277362585067749,0.3532261848449707
1629880809148,0.0733530521392822,-0.2082151621580124,-0.2935798466205597,0.341781347990036
1629880809226,0.0883448421955108,-0.1983535885810852,-0.3104660511016845,0.3367156088352203
1629880809351,0.1079959720373153,-0.1891245394945144,-0.3234618306159973,0.339080274105072
1629880809525,0.1164196208119392,-0.1837053298950195,-0.3342475295066833,0.3421356379985809
1629880809557,0.1102543175220489,-0.1789243966341018,-0.3478215634822845,0.3476510345935821
1629880809635,0.1010884195566177,-0.1706625819206237,-0.364385038614273,0.349772959947586
1629880809760,0.0939230918884277,-0.1611505150794983,-0.3782883882522583,0.3497418165206909
1629880809838,0.0905802696943283,-0.1566444188356399,-0.3870546221733093,0.3481820523738861
1629880809994,0.0900220721960067,-0.160583958029747,-0.3954408168792724,0.3436039388179779
1629880810088,0.092162862420082,-0.1700450628995895,-0.4101277589797973,0.3361352384090423
1629880810166,0.091268703341484,-0.179248958826065,-0.4328786432743072,0.3225700557231903
1629880810275,0.0852241739630699,-0.1842767149209976,-0.4586717486381531,0.3112515807151794
1629880810369,0.0773453041911125,-0.1862825602293014,-0.4797992706298828,0.3107133507728576
1629880810494,0.07448410987854,-0.1891552209854126,-0.4904622435569763,0.3339455127716064
1629880810637,0.0828829780220985,-0.1958238780498504,-0.489951491355896,0.3768565952777862
1629880810653,0.0977152809500694,-0.2051756978034973,-0.4841270744800567,0.4250185787677765
1629880810809,0.1132023334503173,-0.2126320451498031,-0.4807559251785278,0.4653622508049011
1629880810887,0.1223649010062217,-0.2138326168060302,-0.4847607016563415,0.4948804080486297
1629880810950,0.1245229765772819,-0.208268791437149,-0.4936228692531585,0.5140381455421448
1629880811075,0.1253170669078827,-0.199679896235466,-0.5009444952011108,0.5276819467544556
1629880811200,0.1297036409378051,-0.1931602507829666,-0.5043157935142517,0.541644275188446
1629880811325,0.1347041130065918,-0.190380111336708,-0.5093414783477783,0.5519253015518188
1629880811403,0.1403765827417373,-0.189574658870697,-0.522550642490387,0.5626065731048584
1629880811497,0.1390369087457656,-0.1890959739685058,-0.5426520705223083,0.5652156472206116
1629880811559,0.1309615522623062,-0.1881199926137924,-0.5620794296264648,0.561438262462616
1629880811687,0.1218545511364936,-0.1878243386745453,-0.574643611907959,0.5563148856163025
1629880811796,0.1139009594917297,-0.1891913115978241,-0.5791392922401428,0.5481677651405334
1629880811874,0.1139653027057647,-0.1910402476787567,-0.5783360004425049,0.5432039499282837
1629880811984,0.1137593910098075,-0.1908846199512481,-0.5765857696533203,0.5350564122200012
1629880812093,0.1030519157648086,-0.1878875344991684,-0.5784115195274353,0.517559289932251
1629880812218,0.079763613641262,-0.1843089759349823,-0.5862348675727844,0.4912206828594208
1629880812312,0.0471561253070831,-0.1846357434988021,-0.5943579077720642,0.459001749753952
1629880812437,0.0162630304694175,-0.1929286122322082,-0.593037486076355,0.4263532757759094
1629880812515,-0.0007874556467868,-0.2104300856590271,-0.5780723690986633,0.4037963151931762
1629880812609,-0.0089944889768958,-0.2345851361751556,-0.5561442971229553,0.3872355818748474
1629880812721,-0.0163502506911754,-0.2588087320327759,-0.536372184753418,0.3750131130218506
1629880812799,-0.0249137859791517,-0.2768653333187103,-0.5207072496414185,0.3619886040687561
1629880812861,-0.0338155850768089,-0.2886187732219696,-0.5052110552787781,0.3476040363311767
1629880813033,-0.0355325601994991,-0.2984388768672943,-0.4886600077152252,0.3390096724033355
1629880813111,-0.0297219976782798,-0.3110478818416595,-0.4734773635864258,0.3325305879116058
1629880813205,-0.0167216807603836,-0.3270020186901092,-0.4621662199497223,0.3382995426654815
1629880813299,-0.0049935891292989,-0.3450700044631958,-0.4560906291007995,0.3450720012187958
1629880813377,-0.0031344864983111,-0.3636351823806762,-0.4535434246063232,0.3412690460681915
1629880813471,-0.007394035346806,-0.3806772232055664,-0.4516965448856354,0.3281316459178924
1629880813648,-0.0091652516275644,-0.3928993940353393,-0.4473194181919098,0.3066878616809845
1629880813741,-0.0018125360365957,-0.3973104953765869,-0.4397308826446533,0.288055419921875
1629880813819,0.0109714576974511,-0.3913434147834778,-0.4322168529033661,0.2801172137260437
1629880813944,0.0251033157110214,-0.3757115304470062,-0.4270887970924377,0.2877945005893707
1629880814022,0.03544657304883,-0.3576160669326782,-0.4255216419696808,0.3000135421752929
1629880814100,0.0432535596191883,-0.3466464281082153,-0.4273245632648468,0.3087016940116882
1629880814225,0.0461661107838153,-0.3464043438434601,-0.4323672652244568,0.3103483617305755
1629880814350,0.0407845750451087,-0.3501087427139282,-0.4374048113822937,0.308412104845047
1629880814428,0.0289951469749212,-0.3468475639820099,-0.4362113177776336,0.3089606463909149
1629880814490,0.0188929736614227,-0.3318080008029938,-0.4234576225280761,0.327792227268219
1629880814647,0.0099437469616532,-0.3083360493183136,-0.4010776877403259,0.3542807400226593
1629880814760,0.0009363106219097,-0.2822046875953674,-0.3737340569496155,0.3746691346168518
1629880814901,-0.0119066415354609,-0.2586967051029205,-0.3460194170475006,0.3837380409240722
1629880814963,-0.0251671317964792,-0.2403053343296051,-0.3232785761356354,0.385005384683609
1629880815088,-0.0312675759196281,-0.225129097700119,-0.3100042045116424,0.3858514726161957
1629880815166,-0.0353123433887958,-0.2076992988586425,-0.3075866103172302,0.389721930027008
1629880815213,-0.0371394045650959,-0.1852107793092727,-0.3107441961765289,0.400920957326889
1629880815323,-0.0422575995326042,-0.1607996225357055,-0.3133154809474945,0.4105302989482879
1629880815463,-0.057910781353712,-0.1405469924211502,-0.3154051899909973,0.4128826260566711
1629880815572,-0.0750767216086387,-0.1279685199260711,-0.3194583654403686,0.4151571989059448
1629880815666,-0.0939290896058082,-0.1210784018039703,-0.3255904614925384,0.4140878319740295
1629880815809,-0.1012381985783577,-0.1119575425982475,-0.3298386335372925,0.4186534583568573
1629880815872,-0.0901624336838722,-0.0931531637907028,-0.3319146037101745,0.4321296215057373
1629880815950,-0.0730554461479187,-0.0666575208306312,-0.3375764191150665,0.4386826753616333
1629880816059,-0.0582722872495651,-0.0424164161086082,-0.3529978990554809,0.4353598058223724
1629880816153,-0.0503336451947689,-0.028353052213788,-0.3775902688503265,0.4218990504741668
1629880816294,-0.0433652512729167,-0.0232641454786062,-0.4061225652694702,0.4123503565788269
1629880816372,-0.0324171259999275,-0.0197022445499897,-0.4309420585632324,0.4190715849399566
1629880816466,-0.0200977008789777,-0.0132390791550278,-0.4456347227096557,0.4341343939304352
1629880816544,-0.0101027684286236,-0.006738478783518,-0.4474011063575744,0.4514236152172088
1629880816684,-0.0068437810987234,-0.0060865278355777,-0.4377592504024505,0.458675354719162
1629880816797,-0.0083986520767211,-0.0141266444697976,-0.423238068819046,0.4569307565689087
1629880816890,-0.0051914090290665,-0.028266055509448,-0.409821480512619,0.4553415775299072
1629880816968,0.0064136791042983,-0.0403030551970005,-0.3980619609355926,0.4526680409908294
1629880817047,0.0244774501770734,-0.0430307164788246,-0.3866144716739654,0.4470818340778351
1629880817140,0.0454332344233989,-0.0372691303491592,-0.3752427697181701,0.4416426122188568
1629880817312,0.0597616098821163,-0.0335828252136707,-0.3654499351978302,0.43049356341362
1629880817390,0.0613548979163169,-0.04242954403162,-0.3559042811393738,0.4207198619842529
1629880817484,0.0611976012587547,-0.061118759214878,-0.3532231450080871,0.4128840565681457
1629880817549,0.0608295574784278,-0.0697377547621727,-0.3493761420249939,0.4057823419570923
1629880817689,0.0644833669066429,-0.0439692586660385,-0.3413260877132416,0.4082830846309662
1629880817783,0.0665723234415054,0.018789043650031,-0.3291828036308288,0.4057529270648956
1629880817930,0.067452885210514,0.0948802307248115,-0.3171770572662353,0.3959201276302337
1629880818021,0.068318486213684,0.1592500507831573,-0.3096451163291931,0.3813610076904297
1629880818066,0.0685454159975051,0.2004788666963577,-0.3070887327194214,0.3618851900100708
1629880818162,0.0788562819361686,0.2201171815395355,-0.3071827888488769,0.361844390630722
1629880818285,0.0971072241663932,0.2262133955955505,-0.3082261085510254,0.3651939332485199
1629880818363,0.1201469972729682,0.2265490293502807,-0.3102926909923553,0.365222692489624
1629880818537,0.1201469972729682,0.2238474041223526,-0.3138530850410461,0.365222692489624
1629880818614,0.1201469972729682,0.2177237123250961,-0.3138530850410461,0.365222692489624
1629880818693,0.1201469972729682,0.2088383287191391,-0.3138530850410461,0.365222692489624
1629880818771,0.1201469972729682,0.1996814012527465,-0.3138530850410461,0.365222692489624
1629880818843,0.1201469972729682,0.1932232528924942,-0.3138530850410461,0.365222692489624
1629880818999,0.1201469972729682,0.1930141150951385,-0.0589148104190826,0.365222692489624
1629880819140,0.1201469972729682,0.2010890543460846,0.1538062095642089,0.365222692489624
1629880819223,0.1201469972729682,0.2111986875534057,0.1538062095642089,0.365222692489624
1629880819301,0.1201469972729682,0.2082718461751938,0.1538062095642089,0.365222692489624
1629880819434,0.6166473031044006,0.1821764856576919,0.1538062095642089,0.365222692489624
1629880819497,0.6886088252067566,0.1378313153982162,0.1538062095642089,0.365222692489624
1629880819594,0.6886088252067566,0.0948568433523178,0.1538062095642089,0.365222692489624
1629880819703,0.6886088252067566,0.0706426277756691,0.1538062095642089,0.365222692489624
1629880819843,0.6886088252067566,0.0647710710763931,0.1538062095642089,0.365222692489624
1629880819937,0.6886088252067566,0.0677502006292343,0.1229279413819313,0.365222692489624
1629880820062,0.6886088252067566,0.0749054327607154,0.0865001380443573,0.365222692489624
1629880820109,0.6294218301773071,0.085896335542202,0.0513044781982898,0.365222692489624
1629880820171,0.6211033463478088,0.0986606031656265,0.0392844974994659,0.365222692489624
1629880820328,0.6118144392967224,0.109827272593975,0.0277406517416238,0.365222692489624
1629880820421,0.5984541177749634,0.1163737177848815,0.0140737323090434,0.6053194999694824
1629880820546,0.549593448638916,0.1132222265005111,-0.0503952167928218,0.5688562989234924
1629880820593,0.5052704811096191,0.0922573804855346,-0.3251485824584961,0.5369143486022949
1629880820706,0.4643658399581909,0.0483341552317142,-0.3500086665153503,0.5069693326950073
1629880820831,0.4262884259223938,-0.0107222842052578,-0.3749895095825195,0.4825893342494964
1629880820940,0.192777931690216,-0.0647203549742698,-0.3972801566123962,0.4687409102916717
1629880821018,-0.0623230971395969,-0.0958171263337135,-0.4133225083351135,0.4701801240444183
1629880821174,-0.0415437147021293,-0.1062619090080261,-0.4203417301177978,0.4814437925815582
1629880821221,-0.0084108542650938,-0.1108513996005058,-0.4190275073051452,0.5061438679695129
1629880821315,0.0225147362798452,-0.1189570501446724,-0.4139260351657867,0.5243786573410034
1629880821409,0.0378551110625267,-0.1350526511669159,-0.4452005624771118,0.530251681804657
1629880821549,0.0413100235164165,-0.1616091877222061,-0.4614720642566681,0.5272301435470581
1629880821708,0.0339421294629573,-0.1978437602519989,-0.4728890359401703,0.4978549778461456
1629880821755,0.0225438699126243,-0.2367696464061737,-0.4840004742145538,0.4746829271316528
1629880821880,0.0120033174753189,-0.267805278301239,-0.4959084987640381,0.4613910913467407
1629880821942,-0.0023502949625253,-0.285780519247055,-0.5073273777961731,0.4516229927539825
1629880822004,-0.0152710415422916,-0.2970789670944214,-0.5151548385620117,0.4457779228687286
1629880822145,-0.0149975279346108,-0.3118693828582763,-0.5178640484809875,0.4473762214183807
1629880822270,0.0012108241207897,-0.3318526446819305,-0.5162946581840515,0.4613889455795288
1629880822376,0.0254934541881084,-0.3525126576423645,-0.5120276212692261,0.4796760082244873
1629880822454,0.0521894395351409,-0.3717022538185119,-0.5081685781478882,0.494719922542572
1629880822516,0.064530536532402,-0.3930487930774688,-0.5078942179679871,0.495373785495758
1629880822657,0.0623731799423694,-0.4166072607040405,-0.5134862065315247,0.4803794324398041
1629880822800,0.0462736412882804,-0.4338111579418182,-0.5238806009292603,0.4486717879772186
1629880822862,0.0252636298537254,-0.4387113451957702,-0.5338459014892578,0.4171071350574493
1629880822972,0.0232579633593559,-0.4349146485328674,-0.5386759042739868,0.3984330296516418
1629880823050,0.0400985106825828,-0.430999219417572,-0.5393054485321045,0.3920092582702636
1629880823128,0.0693692564964294,-0.4295823872089386,-0.5407832860946655,0.3962668180465698
1629880823268,0.0991525426506996,-0.4276745021343231,-0.547357976436615,0.4006021320819855
1629880823425,0.1167842596769332,-0.4223838150501251,-0.5561255216598511,0.4007649421691894
1629880823456,0.1279965341091156,-0.413228690624237,-0.5602200627326965,0.4071466028690338
1629880823581,0.1329087018966674,-0.4013749659061432,-0.5575101375579834,0.4177984893321991
1629880823690,0.1293588429689407,-0.3863257169723511,-0.5502136945724487,0.4209516942501068
1629880823786,0.1225674524903297,-0.3673233091831207,-0.5400248765945435,0.4165286123752594
1629880823864,0.1166625618934631,-0.3441900610923767,-0.5254659056663513,0.4036728739738464
1629880824004,0.1120408326387405,-0.3187399506568908,-0.505699098110199,0.3849501609802246
1629880824083,0.1129499673843383,-0.2947141528129577,-0.4850450158119201,0.3746922314167022
1629880824192,0.1136648580431938,-0.2773067653179168,-0.4698227345943451,0.3747133314609527
1629880824317,0.1124136447906494,-0.2702856361865997,-0.4628022313117981,0.3820064067840576
1629880824348,0.1055580526590347,-0.2715849578380584,-0.4644513130187988,0.3894229829311371
1629880824473,0.0850537717342376,-0.2755687832832336,-0.4710813760757446,0.3907131850719452
1629880824598,0.0583541467785835,-0.2761055529117584,-0.4772617220878601,0.3894177377223968
1629880824692,0.031662218272686,-0.2696096897125244,-0.4780628085136413,0.3869750201702118
1629880824804,0.0219247452914714,-0.2563079297542572,-0.4723670780658722,0.3959152698516845
1629880824898,0.0366203114390373,-0.2398117482662201,-0.4662820100784302,0.4168068766593933
1629880824976,0.0628461316227912,-0.2234256565570831,-0.4672003388404846,0.4411358535289764
1629880825085,0.0946083515882492,-0.2089940011501312,-0.4777010083198547,0.4594539105892181
1629880825226,0.1193193718791008,-0.1995047330856323,-0.4951618611812591,0.4693764448165893
1629880825304,0.1357681900262832,-0.1985304802656173,-0.5159211158752441,0.4723420739173889
1629880825382,0.1452874541282653,-0.2080983817577362,-0.5384955406188965,0.4760686457157135
1629880825512,0.1529672741889953,-0.2245928794145584,-0.5616320967674255,0.4919500648975372
1629880825575,0.1666926145553589,-0.2411596179008484,-0.5817028880119324,0.5152854323387146
1629880825699,0.1843346059322357,-0.2535773515701294,-0.5949758887290955,0.5377744436264038
1629880825837,0.198830559849739,-0.2617658674716949,-0.6013011932373047,0.5532464981079102
1629880825918,0.2076901346445083,-0.2668168842792511,-0.6018096804618835,0.5600032210350037
1629880826027,0.2140014022588729,-0.2688133120536804,-0.6003877520561218,0.5642977356910706
1629880826102,0.2171200364828109,-0.268756628036499,-0.6010851860046387,0.5686466693878174
1629880826196,0.2181060463190078,-0.2714167535305023,-0.6076653599739075,0.5729000568389893
1629880826309,0.2132520377635955,-0.2824022769927978,-0.6202911138534546,0.5729721188545227
1629880826434,0.2009462714195251,-0.3024009764194488,-0.634585440158844,0.5666992664337158
1629880826527,0.1849488615989685,-0.3288622200489044,-0.6446833610534668,0.5531821846961975
1629880826635,0.1651765704154968,-0.357541412115097,-0.6462873816490173,0.5397234559059143
1629880826712,0.1478490978479385,-0.3820032179355621,-0.6387379169464111,0.5311337113380432
1629880826813,0.1315427273511886,-0.3952288329601288,-0.6254549026489258,0.5259634256362915
1629880826928,0.1147906109690666,-0.3949847221374511,-0.612022876739502,0.5190046429634094
1629880827050,0.0925516113638877,-0.3901412189006805,-0.6042048931121826,0.5015718936920166
1629880827112,0.0616447404026985,-0.3904995024204254,-0.6035610437393188,0.4724099636077881
1629880827237,0.0310325119644403,-0.396569013595581,-0.6076765656471252,0.4402089715003967
1629880827347,0.013265318237245,-0.3999371528625488,-0.61370450258255,0.4146509170532226
1629880827440,0.0116006499156355,-0.393123596906662,-0.6202981472015381,0.3996946215629577
1629880827503,0.0175772160291671,-0.378032237291336,-0.625299870967865,0.392801821231842
1629880827708,0.0230611078441143,-0.362337976694107,-0.6259554028511047,0.3863756358623504
1629880827740,0.0225887224078178,-0.3489614725112915,-0.6189393997192383,0.3757162094116211
1629880827818,0.0207109563052654,-0.3333111405372619,-0.6015751361846924,0.3616006672382355
1629880827960,0.0206265449523925,-0.310746431350708,-0.5738772749900818,0.3474518954753876
1629880828024,0.0225439742207527,-0.2838425636291504,-0.5404426455497742,0.3328912258148193
1629880828135,0.027552668005228,-0.2598684430122375,-0.5093916058540344,0.3191016018390655
1629880828274,0.0296533107757568,-0.2451452612876892,-0.4868276417255401,0.3046547770500183
1629880828325,0.0285395570099353,-0.2408227771520614,-0.4744696915149688,0.2867411375045776
1629880828450,0.0273328889161348,-0.2438432276248932,-0.4704150557518005,0.2698268294334411
1629880828528,0.0296865738928318,-0.2496090084314346,-0.469845712184906,0.2626976668834686
1629880828643,0.0331648588180542,-0.2548746764659881,-0.4678810834884643,0.2608961462974548
1629880828721,0.0306436456739902,-0.2592792510986328,-0.4613925218582153,0.2615602314472198
1629880828862,0.0218347515910863,-0.2648431062698364,-0.4506810903549194,0.2581574618816376
1629880828940,0.0083127813413739,-0.2731294333934784,-0.437714159488678,0.2460700869560241
1629880829049,-0.0071940077468752,-0.2829981744289398,-0.4248208403587341,0.228212833404541
1629880829144,-0.0177411995828151,-0.2916165888309479,-0.4109964668750763,0.2113397419452667
1629880829253,-0.0214835181832313,-0.2994274199008941,-0.394219696521759,0.2083241641521453
1629880829363,-0.0246598739176988,-0.3123774528503418,-0.3762957751750946,0.2061152160167694
1629880829472,-0.0244779903441667,-0.3378929495811462,-0.3612664341926574,0.2028257548809051
1629880829566,-0.0246404595673084,-0.3749465942382812,-0.3520168662071228,0.2026544213294983
1629880829675,-0.0259373430162668,-0.4098376929759979,-0.3462232947349548,0.1997032314538955
1629880829769,-0.0187703929841518,-0.4248217344284057,-0.3407859206199646,0.2142128944396972
1629880829878,-0.0057854782789945,-0.4156169593334198,-0.3348942101001739,0.2404214441776275
1629880829956,0.0172069277614355,-0.3919112682342529,-0.329558789730072,0.2532545328140259
1629880830098,0.0474262051284313,-0.3623498380184173,-0.3263626992702484,0.2881649434566498
1629880830190,0.0726951509714126,-0.3295600712299347,-0.3269771933555603,0.3045963644981384
1629880830253,0.0951155498623848,-0.2948509752750397,-0.3323186635971069,0.3137979209423065
1629880830362,0.107505090534687,-0.2629320919513702,-0.3408262729644775,0.3176486194133758
1629880830472,0.1126791760325431,-0.2362710237503051,-0.3464053869247436,0.3302630484104156
1629880830612,0.1193983182311058,-0.2132468223571777,-0.3430973589420318,0.3594879806041717
1629880830709,0.1258087903261184,-0.1912911087274551,-0.3339456915855407,0.3938014209270477
1629880830787,0.1331995874643325,-0.1710517704486847,-0.3295044600963592,0.4222539067268371
1629880830881,0.1421949863433838,-0.155012160539627,-0.3377582728862762,0.4461464583873749
1629880830974,0.1438770592212677,-0.1425300687551498,-0.3563494384288788,0.458593338727951
1629880831099,0.139093741774559,-0.130802720785141,-0.3753299415111542,0.4652098417282104
1629880831177,0.1298150718212127,-0.1195825710892677,-0.3883512020111084,0.4715416431427002
1629880831349,0.1162683218717575,-0.1118829622864723,-0.3956125974655151,0.4703320264816284
1629880831380,0.099961370229721,-0.10988400131464,-0.3979039490222931,0.4639078378677368
1629880831524,0.0769542679190635,-0.112963318824768,-0.3958606123924255,0.4546582400798797
1629880831602,0.0427218824625015,-0.1199403256177902,-0.3916396200656891,0.4392197430133819
1629880831680,0.0066086393781006,-0.1285834461450576,-0.3858476281166076,0.4332359135150909
1629880831880,-0.0225590784102678,-0.135953351855278,-0.376798003911972,0.4343703985214233
1629880831927,-0.0405959077179431,-0.1394352465867996,-0.3648039102554321,0.4369837045669555
1629880832052,-0.0483649894595146,-0.1416300535202026,-0.3579695522785187,0.4330173432826996
1629880832130,-0.0576328933238983,-0.1488591432571411,-0.3656347990036011,0.4161863327026367
1629880832208,-0.0735592693090438,-0.1639353334903717,-0.3874883353710174,0.3882779777050018
1629880832271,-0.0943462550640106,-0.1798726022243499,-0.4117859005928039,0.3590611219406128
1629880832396,-0.1234823912382125,-0.1853934824466705,-0.4257636964321136,0.3340700566768646
1629880832554,-0.1459954977035522,-0.1787285506725311,-0.4297437667846679,0.3208349049091339
1629880832647,-0.1559997648000717,-0.1697195321321487,-0.4320895671844482,0.3141385316848755
1629880832788,-0.1551134586334228,-0.1676145792007446,-0.4373240172863006,0.3065230846405029
1629880832851,-0.1459013670682907,-0.1707424521446228,-0.4434902369976043,0.2982173562049866
1629880832929,-0.1383656859397888,-0.1712216138839721,-0.4479584693908691,0.2915230393409729
1629880832991,-0.1355186253786087,-0.1644886881113052,-0.4488355219364166,0.2870533168315887
1629880833132,-0.1351301223039627,-0.1530086249113083,-0.4444057941436767,0.2864305377006531
1629880833210,-0.1378326565027237,-0.1425108611583709,-0.4364603459835052,0.2838347554206848
1629880833335,-0.1453901082277298,-0.137558177113533,-0.4302647411823272,0.2769913077354431
1629880833413,-0.1501684933900833,-0.1396310925483703,-0.4297415316104889,0.2739490866661072
1629880833522,-0.1514025181531906,-0.1472658365964889,-0.4329555928707123,0.2735459506511688
1629880833663,-0.1453268378973007,-0.157400831580162,-0.4337624907493591,0.2756679952144623
1629880833772,-0.1353789716958999,-0.1676908582448959,-0.4292332828044891,0.2802299261093139
1629880833819,-0.1290272325277328,-0.179375872015953,-0.4224936366081238,0.2777380645275116
1629880833928,-0.1249216273427009,-0.1952800899744033,-0.417100042104721,0.2729593515396118
1629880834069,-0.1250034719705581,-0.2154388129711151,-0.4127748608589172,0.2657275199890136
1629880834116,-0.1230790093541145,-0.2336848229169845,-0.406264454126358,0.2589671313762665
1629880834210,-0.1168016418814659,-0.242279902100563,-0.3957059681415558,0.2594974339008331
1629880834397,-0.1078348159790039,-0.2393130213022232,-0.3832570314407348,0.2604649364948272
1629880834475,-0.0962172821164131,-0.2310454547405243,-0.3733101189136505,0.2601832151412964
1629880834538,-0.0882327929139137,-0.2265453487634658,-0.368502140045166,0.2552813291549682
1629880834634,-0.0837570950388908,-0.2285364717245102,-0.368539810180664,0.2408497333526611
1629880834759,-0.0803047716617584,-0.2348158508539199,-0.371891051530838,0.2248426079750061
1629880834837,-0.0711138769984245,-0.2406928986310959,-0.3780223429203033,0.2163309007883072
1629880834962,-0.0554224736988544,-0.2424758672714233,-0.3870615065097809,0.2123113721609115
1629880835072,-0.0334944725036621,-0.2382490038871765,-0.3975558280944824,0.2171606719493866
1629880835134,-0.0069226440973579,-0.2265479117631912,-0.4054994285106659,0.2264353483915329
1629880835243,0.01918825507164,-0.2089422345161438,-0.4063062965869903,0.2309684157371521
1629880835368,0.0481079965829849,-0.1911637634038925,-0.3982864320278168,0.2421846985816955
1629880835478,0.0774218738079071,-0.178825706243515,-0.3859790861606598,0.2547951936721802
1629880835587,0.1008117869496345,-0.1728330552577972,-0.3765595853328705,0.264693409204483
1629880835683,0.1166986227035522,-0.1709951162338256,-0.3752203285694122,0.2745130658149719
1629880835761,0.1231604889035224,-0.169941246509552,-0.3799682855606079,0.2772736847400665
1629880835839,0.1254664957523346,-0.1677743345499038,-0.3831731975078583,0.2751270830631256
1629880835980,0.1298306435346603,-0.1634014099836349,-0.3789778053760528,0.2757565379142761
1629880836027,0.1396270543336868,-0.156857892870903,-0.3694764673709869,0.2809533774852752
1629880836183,0.1541954427957534,-0.151163712143898,-0.3604709506034851,0.302970677614212
1629880836277,0.165930762887001,-0.1490981131792068,-0.3559488356113434,0.331393301486969
1629880836402,0.1689013987779617,-0.1494437158107757,-0.3554286658763885,0.3541660010814667
1629880836449,0.1603981554508209,-0.1480759233236313,-0.3553775548934936,0.3668604791164398
1629880836542,0.1429010331630706,-0.1428608745336532,-0.3528594970703125,0.3670357465744018
1629880836653,0.1182520389556884,-0.13655886054039,-0.3487504422664642,0.3616242706775665
1629880836781,0.0935668125748634,-0.1325694024562835,-0.3491203486919403,0.3588486909866333
1629880836890,0.067790187895298,-0.130612701177597,-0.3590568900108337,0.3544294238090515
1629880836952,0.0406423099339008,-0.1274061948060989,-0.3767376244068146,0.3433800637722015
1629880837062,0.020585112273693,-0.1210124492645263,-0.3946298956871032,0.3322952389717102
1629880837218,0.0047924490645527,-0.1131389662623405,-0.4064841866493225,0.3175897002220154
1629880837249,-0.0041283392347395,-0.1078842654824256,-0.4127913117408752,0.3065820336341858
1629880837405,-0.0082354713231325,-0.1093896478414535,-0.4185805022716522,0.3112958371639251
1629880837484,-0.0146410223096609,-0.1176640391349792,-0.4280548989772796,0.3209161162376404
1629880837562,-0.0231353193521499,-0.1274725645780563,-0.4415928721427917,0.3397717177867889
1629880837752,-0.0314525887370109,-0.131435140967369,-0.4568984806537628,0.3484626710414886
1629880837798,-0.0300376918166875,-0.1268397569656372,-0.4695845246315002,0.345710813999176
1629880837876,-0.0157569665461778,-0.1194085404276847,-0.4749387502670288,0.339536041021347
1629880837986,0.0053540957160294,-0.1164319291710853,-0.4715442061424255,0.3343037962913513
1629880838095,0.0282890833914279,-0.1190585047006607,-0.4599675834178924,0.3457446992397308
1629880838205,0.0484616346657276,-0.1216499060392379,-0.4429517090320587,0.3640762269496918
1629880838283,0.0625695213675499,-0.1175493225455284,-0.4215581715106964,0.3814862966537475
1629880838408,0.0720979571342468,-0.1047491729259491,-0.3979440629482269,0.4030051827430725
1629880838504,0.0720329359173774,-0.0883920043706893,-0.3746941089630127,0.4236727356910705
1629880838629,0.0658484399318695,-0.0758086442947387,-0.3542693257331848,0.4454332590103149
1629880838676,0.0575654506683349,-0.0715660080313682,-0.3385123014450073,0.4664109945297241
1629880838832,0.051257200539112,-0.0746174380183219,-0.3295497894287109,0.4818488657474518
1629880838894,0.0493808537721633,-0.0797643885016441,-0.3287745714187622,0.4901573956012726
1629880839004,0.0500725209712982,-0.0836054757237434,-0.3337537348270416,0.4907050132751465
1629880839066,0.0536732301115989,-0.0874587148427963,-0.3391721248626709,0.4849220514297485
1629880839223,0.0525121688842773,-0.0957296639680862,-0.3423490822315216,0.4762096107006073
1629880839317,0.0448016859591007,-0.1104943677783012,-0.3458201885223388,0.4698289036750793
1629880839410,0.0352874435484409,-0.1292705982923507,-0.3539120852947235,0.4675739407539367
1629880839520,0.0299438126385211,-0.1469608545303344,-0.3671369254589081,0.4662752747535705
1629880839598,0.0298078916966915,-0.160697653889656,-0.3817143142223358,0.4602539539337158
1629880839723,0.0309157557785511,-0.1697541922330856,-0.3911466300487518,0.4535352289676666
1629880839879,0.0308714658021926,-0.1752454340457916,-0.3909653127193451,0.4496459364891052
1629880839926,0.034149445593357,-0.1785577684640884,-0.3829264342784881,0.4490118324756622
1629880840019,0.0467390529811382,-0.1791436374187469,-0.3744852542877197,0.4504354596138
1629880840144,0.0628035366535186,-0.1756505966186523,-0.3720362782478332,0.4493606686592102
1629880840223,0.0771142095327377,-0.1671824157238006,-0.3769989609718323,0.4448100924491882
1629880840348,0.0840890333056449,-0.1564580649137497,-0.3854261338710785,0.4359220862388611
1629880840488,0.0823115035891532,-0.148978903889656,-0.3926042020320892,0.4246816337108612
1629880840504,0.0761506333947181,-0.1496295630931854,-0.3946855962276459,0.4169351458549499
1629880840631,0.0669264271855354,-0.1573483049869537,-0.3893854022026062,0.4107861518859863
1629880840772,0.0621209144592285,-0.1652046293020248,-0.3760534822940826,0.4103536009788513
1629880840850,0.0634248405694961,-0.166868045926094,-0.3567925095558166,0.4085848927497864
1629880840928,0.0671620443463325,-0.1600788980722427,-0.3355496823787689,0.4031725227832794
1629880841053,0.0725542679429054,-0.1486872732639312,-0.317127376794815,0.3984192311763763
1629880841163,0.0715588331222534,-0.1385799646377563,-0.307814747095108,0.3942820131778717
1629880841241,0.0666096732020378,-0.136235699057579,-0.3124054968357086,0.3895264565944671
1629880841319,0.0604450404644012,-0.1457455456256866,-0.3301788866519928,0.3826188445091247
1629880841413,0.0481702722609043,-0.1660632044076919,-0.3531160056591034,0.365913450717926
1629880841553,0.0345016345381736,-0.1916852593421936,-0.3712586760520935,0.34450763463974
1629880841666,0.0247030239552259,-0.215777963399887,-0.381035715341568,0.3253342807292938
1629880841776,0.0230875201523304,-0.2347689419984817,-0.3843878209590912,0.3162308037281036
1629880841885,0.0364937260746955,-0.2498708963394165,-0.3856657147407532,0.3222231268882751
1629880841947,0.0592223703861236,-0.2615644633769989,-0.3876500427722931,0.3354275226593017
1629880842026,0.0853918716311454,-0.2649070918560028,-0.3941253125667572,0.3492938876152038
1629880842135,0.1092462390661239,-0.2556795179843902,-0.4078445732593536,0.3571110665798187
1629880842275,0.1225015968084335,-0.237143412232399,-0.4271391630172729,0.3585091531276703
1629880842354,0.1252718865871429,-0.2182249426841735,-0.4461786150932312,0.3591547608375549
1629880842463,0.1178780347108841,-0.2065668702125549,-0.4590222239494324,0.3583108484745025
1629880842557,0.1026314795017242,-0.2027410417795181,-0.4640220403671264,0.3576186299324035
1629880842666,0.0874400734901428,-0.2015952914953231,-0.4620641469955444,0.3566657304763794
1629880842763,0.0756124630570411,-0.1963176876306533,-0.4549717605113983,0.3502900302410126
1629880842887,0.0662508681416511,-0.184587687253952,-0.4455423653125763,0.3399552404880523
1629880843012,0.0605273656547069,-0.1702657043933868,-0.4360306560993194,0.3307658731937408
1629880843075,0.052234411239624,-0.1584959328174591,-0.4255880713462829,0.3203393220901489
1629880843200,0.0424149259924888,-0.1515839844942093,-0.412210464477539,0.3129819929599762
1629880843278,0.0355670973658561,-0.1495265066623687,-0.3977085947990417,0.3068759143352508
1629880843419,0.0244901068508625,-0.1501809507608413,-0.3856495916843414,0.2970257699489593
1629880843512,0.010709460824728,-0.1508257240056991,-0.3769807517528534,0.2856537103652954
1629880843606,-0.0098775113001465,-0.1489177495241165,-0.3699010908603668,0.2724421322345733
1629880843684,-0.0363100953400135,-0.1432799994945526,-0.3639968037605285,0.2605494856834411
1629880843793,-0.0614473894238472,-0.135168045759201,-0.3622110188007355,0.2495180666446685
1629880843872,-0.0820027217268943,-0.1269679963588714,-0.365759015083313,0.2442662864923477
1629880843997,-0.0982879102230072,-0.1207338571548461,-0.3720703423023224,0.240410029888153
1629880844106,-0.1044740453362464,-0.1171199306845665,-0.377665251493454,0.2400736212730407
1629880844200,-0.1001636236906051,-0.1153181567788124,-0.3818443417549133,0.2400605082511901
1629880844309,-0.0905002728104591,-0.1142491623759269,-0.3879483342170715,0.2419924736022949
1629880844403,-0.072755143046379,-0.1127121374011039,-0.3996959030628204,0.2499793171882629
1629880844481,-0.05485749989748,-0.1109315901994705,-0.4170101583003998,0.2589349746704101
1629880844547,-0.0335188508033752,-0.1109100878238678,-0.4348412156105041,0.2746980488300323
1629880844687,-0.0199052225798368,-0.1137147769331932,-0.444122701883316,0.2818961143493652
1629880844797,-0.0095012951642274,-0.1162454783916473,-0.4399816691875458,0.2835041582584381
1629880844875,0.0045983823947608,-0.1154480278491973,-0.4264049232006073,0.2874307036399841
1629880844984,0.0167904682457447,-0.1139130666851997,-0.4129538834095001,0.2887493073940277
1629880845047,0.0310757905244827,-0.1191562041640281,-0.4054816663265228,0.2973101735115051
1629880845219,0.0431517176330089,-0.1376444548368454,-0.4023396670818329,0.3081664443016052
1629880845297,0.0578782856464386,-0.1683706194162368,-0.398106962442398,0.3209607601165771
1629880845390,0.0777874439954757,-0.2035275548696518,-0.3911572992801666,0.3297816812992096
1629880845484,0.1017306074500083,-0.233429417014122,-0.3854950666427612,0.3342437148094177
1629880845612,0.1242733001708984,-0.2528015971183777,-0.3837413489818573,0.3334279358386993
1629880845707,0.1400884538888931,-0.2647099196910858,-0.3830969035625458,0.328715831041336
1629880845784,0.148401454091072,-0.276481419801712,-0.3783470392227173,0.3270533084869385
1629880845909,0.1487748920917511,-0.2929379045963287,-0.3690580129623413,0.3246830105781555
1629880846052,0.1467304527759552,-0.3122126162052154,-0.3602702915668487,0.3292428851127624
1629880846129,0.1443022191524505,-0.3256078362464905,-0.3587566614151001,0.3414601385593414
1629880846238,0.1430676728487014,-0.3275810778141022,-0.3704037964344024,0.3625344932079315
1629880846305,0.1363521665334701,-0.3235966563224792,-0.396054595708847,0.3859854638576507
1629880846410,0.1232950016856193,-0.3231797516345978,-0.4297194480895996,0.4094198346138
1629880846565,0.1072107031941413,-0.3285470008850097,-0.4603217244148254,0.432672768831253
1629880846663,0.0886903628706932,-0.3344289362430572,-0.4794892072677612,0.4459695518016815
1629880846710,0.07328911870718,-0.3327037394046783,-0.4881801903247833,0.4499209821224212
1629880846820,0.0584660805761814,-0.3211637437343597,-0.4923848807811737,0.4434903264045715
1629880846913,0.0429279990494251,-0.3047927320003509,-0.4956468343734741,0.4353425204753876
1629880847038,0.0287773013114929,-0.2915650010108948,-0.496522456407547,0.4311838150024414
1629880847140,0.0143895484507083,-0.2867407202720642,-0.4944024980068207,0.4316872954368591
1629880847249,0.0034300219267606,-0.288648784160614,-0.4907643496990204,0.4330393075942993
1629880847343,0.0001083376409951,-0.2907319068908691,-0.4869459569454193,0.4342891573905945
1629880847436,0.0030594272539019,-0.2878960371017456,-0.4823950231075287,0.4369429647922516
1629880847530,0.0084742195904254,-0.2819511592388153,-0.477207213640213,0.4355694055557251
1629880847593,0.0128806233406066,-0.279827743768692,-0.471611887216568,0.4302676320075989
1629880847752,0.013315362855792,-0.2856393754482269,-0.4646602571010589,0.4164034426212311
1629880847892,0.0187408290803432,-0.2957208454608917,-0.4541235566139221,0.4007102847099304
1629880847939,0.0289285331964492,-0.2987667024135589,-0.4403747022151947,0.3824370801448822
1629880848033,0.0429344214498996,-0.2815430164337158,-0.4280782341957092,0.3633613884449005
1629880848126,0.0618448071181774,-0.2414564788341522,-0.4210038185119629,0.3490912020206451
1629880848205,0.0817702934145927,-0.1919838190078735,-0.4198005795478821,0.3430370092391968
1629880848408,0.099220223724842,-0.1498998552560806,-0.4223411381244659,0.3483988344669342
1629880848454,0.1126650348305702,-0.1228844448924064,-0.4258041083812713,0.3562450110912323
1629880848582,0.1214636862277984,-0.1073586568236351,-0.4279870092868805,0.3659153878688812
1629880848647,0.1256964802742004,-0.0948969051241874,-0.4270555973052978,0.3713384568691253
1629880848742,0.1272752732038498,-0.0805250033736229,-0.424443244934082,0.3765667676925659
1629880848836,0.1250888556241989,-0.0663416311144828,-0.4229007363319397,0.378956139087677
1629880848961,0.1196672096848487,-0.0556378625333309,-0.4232008159160614,0.3760103583335876
1629880849070,0.1173034831881523,-0.0491397529840469,-0.4244154989719391,0.3729762434959411
1629880849132,0.1149112805724144,-0.0446603447198867,-0.4254811704158783,0.3679351508617401
1629880849257,0.114600196480751,-0.0386852025985717,-0.4268504083156585,0.3666535913944244
1629880849351,0.1094201728701591,-0.0292201172560453,-0.4276895225048065,0.3623146414756775
1629880849445,0.098784826695919,-0.0190423149615526,-0.4240810871124267,0.3559167981147766
1629880849570,0.0887834057211875,-0.0161547232419252,-0.4118612110614776,0.3470774590969085
1629880849665,0.0827008336782455,-0.0275143161416053,-0.3921662271022796,0.3369753956794739
1629880849791,0.0842614471912384,-0.0524548850953578,-0.3708400726318359,0.3298154473304748
1629880849869,0.095118872821331,-0.0825787037611007,-0.3547853827476501,0.3261618912220001
1629880849947,0.1073786094784736,-0.1084822118282318,-0.3473163843154907,0.3291395604610443
1629880850072,0.1143874377012252,-0.1265734434127807,-0.3482955396175384,0.3356371819972992
1629880850211,0.1139652132987976,-0.1397703438997268,-0.3559325337409973,0.3456276357173919
1629880850289,0.1052974238991737,-0.1521930694580078,-0.3669919371604919,0.3537057340145111
1629880850430,0.0937849506735801,-0.164150595664978,-0.3779640197753906,0.3544309437274933
1629880850493,0.0824015885591507,-0.1739071905612945,-0.3863219916820526,0.3499858379364013
1629880850571,0.0682706236839294,-0.1784531772136688,-0.392040342092514,0.3395598828792572
1629880850696,0.0554349049925804,-0.1786858141422271,-0.3979619443416595,0.3260093331336975
1629880850811,0.0481975376605987,-0.1815177798271179,-0.406123012304306,0.3194686770439148
1629880850889,0.0468903332948684,-0.1931151300668716,-0.4183480739593506,0.3212752640247345
1629880850983,0.0481779538094997,-0.2139672935009002,-0.4378848075866699,0.3237541019916534
1629880851076,0.0457927361130714,-0.2358733415603637,-0.4685451686382293,0.3249144852161407
1629880851186,0.0358222275972366,-0.2489219307899475,-0.511160671710968,0.3224555850028991
1629880851295,0.021122932434082,-0.2482950240373611,-0.5597341656684875,0.3206997811794281
1629880851420,0.005620646290481,-0.234688714146614,-0.600730299949646,0.3244300782680511
1629880851482,-0.0058527905493974,-0.2124221473932266,-0.6199096441268921,0.3318991363048553
1629880851610,-0.0118489721789956,-0.1897986084222793,-0.6140645146369934,0.3354092240333557
1629880851688,-0.0135153159499168,-0.1753324270248413,-0.5925320982933044,0.3349972665309906
1629880851798,-0.0096328351646661,-0.1725261211395263,-0.5691066980361938,0.3309589028358459
1629880851907,-0.0036811437457799,-0.1766856014728546,-0.5519541501998901,0.3297604024410248
1629880852032,0.0059598344378173,-0.1788134574890136,-0.5416017174720764,0.3339896500110626
1629880852141,0.0173676535487175,-0.1727032363414764,-0.5327122807502747,0.3420370817184448
1629880852235,0.0244156438857316,-0.157053142786026,-0.5180743932723999,0.354861170053482
1629880852313,0.0283061619848012,-0.1346447914838791,-0.4941596984863281,0.3639214634895324
1629880852438,0.0330734699964523,-0.1130527481436729,-0.4655901491641998,0.3693548440933227
1629880852532,0.0388388857245445,-0.0976794064044952,-0.4402666389942169,0.3728029727935791
1629880852688,0.0480767488479614,-0.089465782046318,-0.4213324785232544,0.3778310716152191
1629880852815,0.056772131472826,-0.0842272490262985,-0.4049475491046905,0.3843029141426086
1629880852909,0.0573527328670024,-0.0793287903070449,-0.386559247970581,0.3854407072067261
1629880852941,0.0478542186319828,-0.0783412754535675,-0.3673638999462127,0.3804444074630737
1629880853003,0.0274317152798175,-0.0859123766422271,-0.3537507951259613,0.3634285628795624
1629880853097,0.0019035768928006,-0.100502498447895,-0.3495941758155823,0.3436788916587829
1629880853269,-0.0124006224796175,-0.1131208315491676,-0.3542215526103973,0.335267037153244
1629880853347,-0.0123350545763969,-0.1145589500665664,-0.3636693060398102,0.3410488069057464
1629880853409,0.0004293175297789,-0.1052427738904953,-0.3748063743114471,0.3609830439090729
1629880853519,0.0107638910412788,-0.0930681601166725,-0.3873375952243805,0.3795713186264038
1629880853662,0.0129475649446249,-0.083410158753395,-0.401652991771698,0.3926683962345123
1629880853740,0.0162035170942544,-0.077420949935913,-0.4182086288928985,0.398743599653244
1629880853834,0.0229679103940725,-0.0728016570210456,-0.4356169402599334,0.4014369547367096
1629880853943,0.0332952886819839,-0.0670388638973236,-0.4493749439716339,0.4020082950592041
1629880854068,0.0412438511848449,-0.0601554363965988,-0.4542562067508697,0.399689108133316
1629880854131,0.0431745238602161,-0.0549881160259246,-0.4502356350421905,0.3951872885227203
1629880854209,0.0417281687259674,-0.0563832446932792,-0.4457381963729858,0.3898427486419678
1629880854324,0.0425284467637538,-0.0652160346508026,-0.4495851099491119,0.3903796970844269
1629880854449,0.0425841324031353,-0.0748950168490409,-0.4621918797492981,0.3906111419200897
1629880854574,0.0457376763224601,-0.0743420645594596,-0.4749974906444549,0.3956130146980285
