timestamp,TP9,AF7,AF8,TP10
1630067051927,0.550136923789978,0.3599934875965118,-0.3081708252429962,0.22171650826931
1630067052036,0.550136923789978,0.3599934875965118,-0.3081708252429962,0.22171650826931
1630067052114,0.550136923789978,0.3599934875965118,-0.3081708252429962,0.22171650826931
1630067052195,0.550136923789978,0.3599934875965118,-0.3081708252429962,0.22171650826931
1630067052367,0.550136923789978,0.3599934875965118,-0.3081708252429962,0.22171650826931
1630067052445,0.550136923789978,0.3599934875965118,-0.3081708252429962,0.22171650826931
1630067052539,0.550136923789978,0.3599934875965118,-0.3081708252429962,0.22171650826931
1630067052617,0.550136923789978,0.3599934875965118,-0.3081708252429962,0.22171650826931
1630067052711,0.550136923789978,0.3599934875965118,-0.3081708252429962,0.22171650826931
1630067052789,0.550136923789978,0.3599934875965118,-0.3081708252429962,0.22171650826931
1630067052992,0.550136923789978,0.3599934875965118,-0.3081708252429962,0.22171650826931
1630067053054,0.550136923789978,0.3599934875965118,-0.3081708252429962,0.22171650826931
1630067053181,0.550136923789978,0.3599934875965118,0.1630879044532776,0.22171650826931
1630067053244,0.550136923789978,0.3599934875965118,0.1765910536050796,0.22171650826931
1630067053338,0.550136923789978,0.3599934875965118,0.2141146659851074,0.22171650826931
1630067053463,0.550136923789978,0.3599934875965118,0.2606410384178161,0.22171650826931
1630067053572,0.550136923789978,0.3599934875965118,0.2975048720836639,0.22171650826931
1630067053728,0.550136923789978,0.3599934875965118,0.3134989440441131,0.22171650826931
1630067053775,0.550136923789978,0.3599934875965118,0.3084429502487182,0.22171650826931
1630067053822,0.550136923789978,0.3599934875965118,0.2908333539962768,0.22171650826931
1630067053994,0.550136923789978,0.3599934875965118,0.2698872685432434,0.22171650826931
1630067054041,0.550136923789978,0.3599934875965118,0.2496713548898697,0.22171650826931
1630067054201,0.550136923789978,0.3599934875965118,0.2311533540487289,0.22171650826931
1630067054263,0.550136923789978,0.3599934875965118,0.216594785451889,0.22171650826931
1630067054342,0.550136923789978,0.3599934875965118,0.2068090885877609,0.22171650826931
1630067054451,0.550136923789978,0.3599934875965118,0.2121267914772033,0.22171650826931
1630067054545,0.550136923789978,0.3599934875965118,0.2255716621875763,0.22171650826931
1630067054654,0.550136923789978,0.3599934875965118,0.2336450517177581,0.22171650826931
1630067054763,0.550136923789978,0.1570558398962021,0.2252903580665588,0.5059945583343506
1630067054888,0.550136923789978,0.1463894695043563,0.1985230445861816,0.5014554858207703
1630067054998,0.550136923789978,0.1346589028835296,0.1550436168909073,0.4897363185882568
1630067055076,0.550136923789978,0.1219023019075393,0.1020487770438194,0.4897363185882568
1630067055156,0.550136923789978,0.1091115474700927,0.0528084561228752,0.4897363185882568
1630067055266,0.550136923789978,0.1091115474700927,0.019337086006999,0.4897363185882568
1630067055406,0.550136923789978,0.1091115474700927,0.0027092017699033,0.4897363185882568
1630067055485,0.550136923789978,0.1091115474700927,-0.0028324341401457,0.4897363185882568
1630067055594,0.550136923789978,0.1091115474700927,-0.0019716587848961,0.4897363185882568
1630067055672,0.550136923789978,0.1091115474700927,0.0031971102580428,0.4897363185882568
1630067055750,0.550136923789978,0.1091115474700927,0.0074991742148995,0.4897363185882568
1630067055875,0.550136923789978,0.1091115474700927,0.0044820657931268,0.4897363185882568
1630067056016,0.550136923789978,0.0983965694904327,-0.0054607321508228,0.4861539006233215
1630067056078,0.550136923789978,0.0851188898086547,-0.012676884420216,0.4830515086650848
1630067056174,0.550136923789978,0.0860104858875274,-0.0053303278982639,0.4830515086650848
1630067056252,0.550136923789978,0.0735675022006034,0.0180661063641309,0.4830515086650848
1630067056408,0.550136923789978,0.0564203448593616,0.0465390607714653,0.4830515086650848
1630067056527,0.550136923789978,0.0436874479055404,0.058550264686346,0.4830515086650848
1630067056591,0.550136923789978,0.0438217148184776,0.0727032497525215,0.4830515086650848
1630067056749,0.550136923789978,0.0706888511776924,0.0895847156643867,0.4830515086650848
1630067056812,0.550136923789978,0.0706888511776924,0.1104545816779136,0.4830515086650848
1630067056890,0.550136923789978,0.0706888511776924,0.1344803720712661,0.4830515086650848
1630067057055,0.550136923789978,0.0706888511776924,0.1587353348731994,0.4830515086650848
1630067057131,0.550136923789978,0.0706888511776924,0.1825810372829437,0.4830515086650848
1630067057225,0.550136923789978,0.0706888511776924,0.2065714448690414,0.4830515086650848
1630067057335,0.550136923789978,0.0706888511776924,0.2326669096946716,0.4830515086650848
1630067057383,0.550136923789978,0.0706888511776924,0.2596405446529388,0.4830515086650848
1630067057540,0.550136923789978,0.0706888511776924,0.2532113790512085,0.4830515086650848
1630067057603,0.550136923789978,0.0706888511776924,0.2173555940389633,0.4830515086650848
1630067057681,0.550136923789978,0.0512047782540321,0.1501559317111969,0.4830515086650848
1630067057811,0.550136923789978,0.0506970658898353,0.0657079741358757,0.4830515086650848
1630067057915,0.550136923789978,0.0506970658898353,-0.0079948063939809,0.4830515086650848
1630067058021,0.550136923789978,0.0506970658898353,0.0070042605511844,0.4830515086650848
1630067058131,0.550136923789978,0.0506970658898353,0.0260492339730262,0.4830515086650848
1630067058195,0.550136923789978,0.0506970658898353,0.0472135543823242,0.4830515086650848
1630067058291,0.550136923789978,0.0506970658898353,0.0693353116512298,0.4830515086650848
1630067058399,0.550136923789978,0.0506970658898353,0.0693353116512298,0.4830515086650848
1630067058525,0.550136923789978,0.0506970658898353,0.0693353116512298,0.4830515086650848
1630067058620,0.550136923789978,0.0506970658898353,0.0693353116512298,0.4830515086650848
1630067058715,0.550136923789978,0.0506970658898353,0.0693353116512298,0.4830515086650848
1630067058799,0.550136923789978,0.0506970658898353,0.0693353116512298,0.4830515086650848
1630067058957,0.550136923789978,0.0506970658898353,0.0693353116512298,0.4830515086650848
1630067059039,0.550136923789978,0.0506970658898353,0.0625996887683868,0.4830515086650848
1630067059160,0.550136923789978,0.0506970658898353,0.0674400925636291,0.4830515086650848
1630067059191,0.550136923789978,0.0506970658898353,0.0897377133369445,0.4830515086650848
1630067059359,0.550136923789978,0.0506970658898353,0.1526220291852951,0.4830515086650848
1630067059484,0.550136923789978,0.0506970658898353,0.2458475977182388,0.4830515086650848
1630067059516,0.550136923789978,0.3513978719711303,0.3519531190395355,0.4830515086650848
1630067059641,0.550136923789978,0.3248871862888336,0.4431947767734527,0.4830515086650848
1630067059719,0.550136923789978,0.3248871862888336,0.5024940967559814,0.4830515086650848
1630067059828,0.550136923789978,0.3120112717151642,0.528400182723999,0.4830515086650848
1630067059936,0.550136923789978,0.3120112717151642,0.5003905296325684,0.4830515086650848
1630067060080,0.550136923789978,0.3120112717151642,0.4718740582466125,0.4830515086650848
1630067060158,0.550136923789978,0.3120112717151642,0.4513729810714721,0.4830515086650848
1630067060266,0.550136923789978,0.3120112717151642,0.4406349658966064,0.4830515086650848
1630067060328,0.550136923789978,0.3120112717151642,0.4347716867923736,0.4830515086650848
1630067060453,0.550136923789978,0.3120112717151642,0.4269425570964813,0.4830515086650848
1630067060547,0.550136923789978,0.3120112717151642,0.4144854843616485,0.4830515086650848
1630067060641,0.550136923789978,0.3120112717151642,0.3995109796524048,0.4830515086650848
1630067060719,0.550136923789978,0.3120112717151642,0.3854787647724151,0.4830515086650848
1630067060890,0.550136923789978,0.3120112717151642,0.3787199258804321,0.4830515086650848
1630067060953,0.550136923789978,0.3120112717151642,0.3572709262371063,0.4830515086650848
1630067061050,0.550136923789978,0.3120112717151642,0.3173803687095642,0.4830515086650848
1630067061206,0.550136923789978,0.3120112717151642,0.2656572759151459,0.4830515086650848
1630067061268,0.448582112789154,0.2888310849666595,0.2153143733739853,0.4830515086650848
1630067061346,0.4476441740989685,0.2639673948287964,0.1779306530952453,-0.0408076010644435
1630067061487,0.429325670003891,0.2439041286706924,0.1538450717926025,-0.031209448352456
1630067061581,0.4045523405075073,0.2231714278459549,0.1344690024852752,-0.0374509431421756
1630067061660,0.3797250092029571,0.198423683643341,0.1106982678174972,-0.0574926473200321
1630067061755,0.3548266291618347,0.1707899719476699,0.0780826210975647,-0.0828039795160293
1630067061866,0.3266343474388122,0.1433584839105606,0.0386234447360038,-0.1036736518144607
1630067061993,0.2952429056167602,0.1178932562470436,0.0005391254089772,-0.1153073087334632
1630067062144,0.2651596367359161,0.0939318314194679,-0.031338695436716,-0.1216895282268524
1630067062255,0.2391619831323623,0.0722503736615181,-0.0600281581282615,-0.1272961795330047
1630067062303,0.2204112410545349,0.0545625947415828,-0.0925139859318733,-0.1321348994970321
1630067062366,0.2092768400907516,0.041947990655899,-0.131150871515274,-0.1318029016256332
1630067062458,0.192720741033554,-0.0009713547187857,-0.1702799797058105,-0.118078239262104
1630067062553,0.1693291515111923,-0.0337253175675869,-0.2045295983552932,-0.0922771841287612
1630067062711,0.1330313086509704,-0.048169232904911,-0.2333549559116363,-0.0939935743808746
1630067062860,0.0854180976748466,-0.0476907826960086,-0.2578286826610565,-0.0991695821285247
1630067062939,0.0363211631774902,-0.0460414364933967,-0.2781144678592682,-0.109433114528656
1630067062994,-0.0024437075480818,-0.0536721087992191,-0.287265419960022,-0.1215250268578529
1630067063049,-0.0317997559905052,-0.0642440989613533,-0.2942516803741455,-0.1270213425159454
1630067063145,-0.0575004927814006,-0.0669040158390998,-0.304142415523529,-0.1194180771708488
1630067063288,-0.0777437984943389,-0.0604411512613296,-0.3236683309078216,-0.0998301804065704
1630067063396,-0.0781013444066047,-0.0472445636987686,-0.3537279665470123,-0.0757457390427589
1630067063490,-0.0495017543435096,-0.0293504409492015,-0.389897346496582,-0.053858071565628
1630067063584,-0.0030466616153717,-0.0058454643003642,-0.4202202260494232,-0.0309156477451324
1630067063724,0.0525566115975379,0.0224359389394521,-0.3532133400440216,0.0018547652289271
1630067063807,0.0525566115975379,0.0526943802833557,-0.2684296369552612,0.0018547652289271
1630067063979,0.0525566115975379,0.0742333307862281,-0.1848669350147247,0.0018547652289271
1630067064009,0.0525566115975379,0.0881699621677398,-0.1161162108182907,0.0018547652289271
1630067064111,0.0525566115975379,0.0851262584328651,-0.0642182081937789,0.0018547652289271
1630067064180,0.0525566115975379,0.0790374502539634,-0.0235535483807325,0.0018547652289271
1630067064295,0.0525566115975379,0.0547736957669258,0.0114095592871308,0.0018547652289271
1630067064388,0.0525566115975379,0.022981809452176,0.0429550036787986,0.0018547652289271
1630067064501,0.0525566115975379,0.022981809452176,0.0372373387217521,0.0018547652289271
1630067064610,0.0525566115975379,0.022981809452176,0.0313440039753913,0.0018547652289271
1630067064719,0.0525566115975379,0.022981809452176,0.0284546352922916,0.0018547652289271
1630067064797,0.0525566115975379,0.022981809452176,0.0299856141209602,0.0018547652289271
1630067064922,0.0525566115975379,0.022981809452176,0.0340899117290973,0.0018547652289271
1630067064985,0.0525566115975379,0.022981809452176,0.0390498489141464,0.0018547652289271
1630067065160,0.0525566115975379,0.0475477576255798,0.0462092384696006,0.0018547652289271
1630067065269,0.0525566115975379,0.0867464318871498,0.0622398294508457,0.0018547652289271
1630067065333,0.0525566115975379,0.1228342428803443,0.0805559977889061,0.0018547652289271
1630067065431,0.0525566115975379,0.1631195396184921,0.098677210509777,0.0018547652289271
1630067065556,0.0525566115975379,0.1881091296672821,0.1173079758882522,0.0018547652289271
1630067065603,0.0525566115975379,0.2186698764562606,0.1216603145003318,0.0018547652289271
1630067065744,0.0525566115975379,0.2186698764562606,0.1280596256256103,0.0018547652289271
1630067065822,0.0525566115975379,0.2186698764562606,0.1358868330717086,0.0018547652289271
1630067065916,0.0525566115975379,0.2186698764562606,0.1457564681768417,0.0018547652289271
1630067066043,0.0525566115975379,0.2186698764562606,0.1587488353252411,0.0018547652289271
1630067066105,0.0525566115975379,0.2186698764562606,0.1751295775175094,0.0018547652289271
1630067066246,0.0525566115975379,0.2186698764562606,0.1929052323102951,0.0018547652289271
1630067066340,0.0525566115975379,0.2186698764562606,0.2103085070848465,0.0018547652289271
1630067066449,0.0525566115975379,0.2186698764562606,0.2286138385534286,0.0018547652289271
1630067066574,0.0525566115975379,0.2186698764562606,0.250488132238388,0.0018547652289271
1630067066699,0.0525566115975379,0.2382432520389557,0.274996280670166,0.0018547652289271
1630067066761,0.0525566115975379,0.2382432520389557,0.274996280670166,0.0018547652289271
1630067066808,0.0525566115975379,0.2382432520389557,0.274996280670166,0.0018547652289271
1630067066949,0.0525566115975379,0.2382432520389557,0.274996280670166,0.0018547652289271
1630067067046,0.0525566115975379,0.2382432520389557,0.274996280670166,0.0018547652289271
1630067067166,0.0525566115975379,0.2382432520389557,0.274996280670166,0.0018547652289271
1630067067260,0.0525566115975379,0.2382432520389557,0.274996280670166,0.0018547652289271
1630067067338,0.0525566115975379,0.2382432520389557,0.274996280670166,0.0018547652289271
1630067067447,0.0525566115975379,0.2382432520389557,0.274996280670166,0.0018547652289271
1630067067604,0.0525566115975379,0.2382432520389557,0.274996280670166,0.0018547652289271
1630067067682,0.0525566115975379,0.2382432520389557,0.274996280670166,0.0018547652289271
1630067067760,0.0525566115975379,0.2382432520389557,0.274996280670166,0.0018547652289271
1630067067838,0.0525566115975379,-0.2087364643812179,0.274996280670166,0.0018547652289271
1630067067916,0.0525566115975379,-0.2017108350992202,0.274996280670166,0.0018547652289271
1630067068059,0.0525566115975379,-0.1901983618736267,0.274996280670166,0.0018547652289271
1630067068149,0.0525566115975379,-0.1792272478342056,0.274996280670166,0.0018547652289271
1630067068274,0.0525566115975379,-0.1728279888629913,0.274996280670166,0.0018547652289271
1630067068352,0.0525566115975379,-0.1702446788549423,0.274996280670166,0.0018547652289271
1630067068446,0.0525566115975379,-0.1664101928472519,0.274996280670166,0.0018547652289271
1630067068524,0.0525566115975379,-0.1593828201293945,0.274996280670166,0.0018547652289271
1630067068617,0.0525566115975379,-0.1520398408174514,0.274996280670166,0.0018547652289271
1630067068805,0.0525566115975379,-0.1466154307126999,0.274996280670166,0.0018547652289271
1630067068883,0.0525566115975379,-0.1424142122268676,0.274996280670166,0.0018547652289271
1630067069004,0.0525566115975379,-0.1371662467718124,-0.3005324900150299,0.0018547652289271
1630067069144,0.0525566115975379,-0.1265515834093094,-0.4318229854106903,0.0018547652289271
1630067069238,0.0525566115975379,-0.1191484183073043,-0.4424145221710205,0.0018547652289271
1630067069269,0.0525566115975379,-0.1161072328686714,-0.4500580430030823,0.0018547652289271
1630067069425,0.3045809268951416,-0.116148866713047,-0.4565339088439941,0.0018547652289271
1630067069550,0.3045809268951416,-0.1154030859470367,-0.454342633485794,0.0018547652289271
1630067069644,0.3045809268951416,-0.110853187739849,-0.4363065063953399,0.0018547652289271
1630067069675,0.3045809268951416,-0.1014930605888366,-0.4095724821090698,0.0018547652289271
1630067069832,0.3045809268951416,-0.0882557705044746,-0.3871090710163116,0.0018547652289271
1630067069878,0.3045809268951416,-0.0841570124030113,-0.3726281523704529,0.0018547652289271
1630067070085,0.3045809268951416,-0.080594502389431,-0.3602056205272674,0.0018547652289271
1630067070163,0.3045809268951416,-0.0794367119669914,-0.3430318832397461,0.0018547652289271
1630067070178,0.3045809268951416,-0.0795189589262008,-0.3223907649517059,0.0018547652289271
1630067070288,0.3045809268951416,-0.0788452252745628,-0.3005647361278534,0.0018547652289271
1630067070460,0.3045809268951416,-0.0774935558438301,-0.281522274017334,0.0018547652289271
1630067070569,0.3045809268951416,-0.0784820914268493,-0.2668159604072571,0.0018547652289271
1630067070663,0.3045809268951416,-0.0819239988923072,-0.2570500671863556,0.0018547652289271
1630067070741,0.3045809268951416,-0.0807906240224838,-0.2500089108943939,0.0018547652289271
1630067070881,0.3045809268951416,-0.0669020116329193,-0.2414809316396713,0.0018547652289271
1630067070959,0.3045809268951416,-0.0762136429548263,-0.2296738922595977,0.0018547652289271
1630067070991,0.3045809268951416,-0.108229249715805,-0.2178703695535659,0.0018547652289271
1630067071135,0.3045809268951416,-0.1711088418960571,-0.2110907137393951,0.0018547652289271
1630067071229,0.3045809268951416,-0.2647106349468231,-0.2092886567115783,0.0018547652289271
1630067071354,0.3045809268951416,-0.3779356777667999,-0.2088701277971267,0.0018547652289271
1630067071447,0.3045809268951416,-0.332872062921524,-0.2068054974079132,0.0018547652289271
1630067071853,0.3045809268951416,-0.2740855813026428,-0.2048094868659973,0.0018547652289271
1630067071885,0.3045809268951416,-0.2740855813026428,-0.208226665854454,0.0018547652289271
1630067071885,0.3045809268951416,-0.2740855813026428,-0.2189569622278213,0.0018547652289271
1630067071963,0.3045809268951416,-0.2740855813026428,-0.233297973871231,0.0018547652289271
1630067071994,0.3045809268951416,-0.2740855813026428,-0.2452021241188049,0.0018547652289271
1630067072025,0.3045809268951416,-0.2740855813026428,-0.2490498423576355,0.0018547652289271
1630067072121,0.3045809268951416,-0.2484190315008163,-0.2425041943788528,0.0018547652289271
1630067072201,0.3045809268951416,-0.2484190315008163,-0.2286749333143234,0.0018547652289271
1630067072361,0.3045809268951416,-0.2484190315008163,-0.2141978293657302,0.0018547652289271
1630067072455,0.3045809268951416,-0.2450616955757141,-0.2044268101453781,0.0018547652289271
1630067072551,0.3045809268951416,-0.2229358851909637,-0.2044268101453781,0.0018547652289271
1630067072675,0.3045809268951416,-0.1850317865610122,-0.2044268101453781,0.0018547652289271
1630067072749,0.3045809268951416,-0.1389085352420807,-0.2044268101453781,0.0018547652289271
1630067072877,0.3045809268951416,-0.1389085352420807,-0.2044268101453781,0.0018547652289271
1630067072982,0.3045809268951416,-0.1389085352420807,-0.2044268101453781,0.0018547652289271
1630067073087,0.3045809268951416,-0.1389085352420807,-0.2044268101453781,0.0018547652289271
1630067073157,0.3045809268951416,-0.1389085352420807,-0.2044268101453781,0.0018547652289271
1630067073277,0.3045809268951416,-0.1389085352420807,-0.2044268101453781,0.0018547652289271
1630067073371,0.3045809268951416,-0.1389085352420807,-0.2044268101453781,0.0018547652289271
1630067073418,0.3045809268951416,-0.1389085352420807,-0.2044268101453781,0.0018547652289271
1630067073574,0.3045809268951416,0.0177142769098281,-0.2044268101453781,0.0018547652289271
1630067073683,0.3045809268951416,0.0180716980248689,-0.2461599707603454,0.0018547652289271
1630067073793,0.3045809268951416,-0.0109515730291605,-0.2320556044578552,0.0018547652289271
1630067073857,0.3045809268951416,-0.0314310975372791,-0.230833038687706,0.0018547652289271
1630067073998,0.4749690592288971,-0.0448313578963279,-0.2401978075504303,-0.0213491264730691
1630067074046,0.4960100352764129,-0.0538986027240753,-0.2536787390708923,0.0361803248524665
1630067074124,0.5153898596763611,-0.0616826526820659,-0.2659788131713867,0.0694050565361976
1630067074263,0.5153898596763611,-0.0699048042297363,-0.2726942598819732,0.0792989209294319
1630067074357,0.5153898596763611,-0.0797009915113449,-0.2713232934474945,0.0730743557214737
1630067074452,0.5153898596763611,-0.092416875064373,-0.265529453754425,0.062844730913639
1630067074576,0.5153898596763611,-0.1078432872891426,-0.2621298432350158,0.062844730913639
1630067074653,0.5153898596763611,-0.1241340264678001,-0.2649431228637695,0.062844730913639
1630067074731,0.5153898596763611,-0.1241340264678001,-0.2709478437900543,0.062844730913639
1630067074920,0.5153898596763611,-0.1486411988735199,-0.2710369825363159,0.062844730913639
1630067075016,0.5153898596763611,-0.1710047274827957,-0.2703868448734283,0.062844730913639
1630067075078,0.5153898596763611,-0.1874476373195648,-0.2734353840351105,0.062844730913639
1630067075171,0.522407591342926,-0.1972594112157821,-0.2828272879123688,0.0848134905099868
1630067075233,0.5335785746574402,-0.2026569098234176,-0.2916649580001831,0.1078090146183967
1630067075427,0.5335785746574402,-0.2095064371824264,-0.2968616485595703,0.123418316245079
1630067075474,0.5335785746574402,-0.2212262451648712,-0.2965396046638489,0.1201241910457611
1630067075599,0.5335785746574402,-0.239931434392929,-0.2915071547031402,0.0940260216593742
1630067075755,0.5335785746574402,-0.2658223509788513,-0.2555142939090729,0.0940260216593742
1630067075787,0.5335785746574402,-0.2881549298763275,-0.2337011992931366,0.0940260216593742
1630067075864,0.5335785746574402,-0.3177814781665802,-0.2273478657007217,0.0940260216593742
1630067075978,0.5335785746574402,-0.3267421126365661,-0.2322717159986496,0.0940260216593742
1630067076072,0.5335785746574402,-0.3036450147628784,-0.2422249168157577,0.0940260216593742
1630067076198,0.5335785746574402,-0.2650556862354278,-0.2511327266693115,0.0940260216593742
1630067076354,0.5335785746574402,-0.2613106966018677,-0.252423346042633,0.0940260216593742
1630067076464,0.5335785746574402,-0.2655681371688843,-0.2411415427923202,0.0940260216593742
1630067076577,0.5335785746574402,-0.2692644000053406,-0.2158848494291305,0.0940260216593742
1630067076593,0.5335785746574402,-0.2666687369346618,-0.1814122796058654,0.0940260216593742
1630067076751,0.5335785746574402,-0.2562366724014282,-0.1474094241857528,0.0940260216593742
1630067076814,0.5335785746574402,-0.2400891631841659,-0.1205362901091575,0.0940260216593742
1630067076908,0.5335785746574402,-0.2185588926076889,-0.1035680100321769,0.0940260216593742
1630067077000,0.5335785746574402,-0.1904916316270828,-0.079544797539711,0.0940260216593742
1630067077147,0.5335785746574402,-0.1589663922786712,-0.0525304414331913,0.0940260216593742
1630067077266,0.5335785746574402,-0.1313681304454803,-0.0546828396618366,0.0940260216593742
1630067077359,0.5335785746574402,-0.1062924787402153,-0.051676120609045,0.0940260216593742
1630067077437,0.5335785746574402,-0.0860751941800117,-0.0423084162175655,0.0940260216593742
1630067077530,0.5335785746574402,-0.0676778405904769,-0.0266799442470073,0.0940260216593742
1630067077627,0.5335785746574402,-0.0420685708522796,-0.0041094813495874,0.0940260216593742
1630067077745,0.5335785746574402,-0.0015333461342379,0.0256643574684858,0.0940260216593742
1630067077792,0.5335785746574402,0.0510383881628513,0.0576868019998073,0.0940260216593742
1630067077948,0.5335785746574402,0.1017257124185562,0.0837180614471435,0.0940260216593742
1630067078060,0.5335785746574402,0.1371010839939117,0.0985968634486198,0.0940260216593742
1630067078264,0.5335785746574402,0.1536264568567276,0.1057823672890663,0.0940260216593742
1630067078327,0.5335785746574402,0.1567932218313217,0.059446956962347,0.0940260216593742
1630067078389,0.5335785746574402,0.156960591673851,0.0686044692993164,0.0940260216593742
1630067078498,0.5335785746574402,0.1622461378574371,0.0686044692993164,0.0940260216593742
1630067078530,0.5335785746574402,0.1739121526479721,0.0686044692993164,0.0940260216593742
1630067078686,0.5335785746574402,0.1879947036504745,0.0686044692993164,0.0940260216593742
1630067078905,0.5335785746574402,0.1995052844285965,0.0686044692993164,0.0940260216593742
1630067079076,0.5335785746574402,0.2057749330997467,0.0686044692993164,0.0940260216593742
1630067079217,0.5335785746574402,0.2062916606664657,0.0686044692993164,0.0940260216593742
1630067079326,0.5335785746574402,0.2003674209117889,-0.1216698810458183,0.0940260216593742
1630067079498,0.5335785746574402,0.1856325715780258,-0.1214802414178848,0.0940260216593742
1630067079592,0.5335785746574402,0.1591964662075042,-0.1398452371358871,0.0940260216593742
1630067079654,0.1851307600736618,0.1205166652798652,-0.1653806865215301,0.0940260216593742
1630067079670,0.1897916942834854,0.0760578289628028,-0.1870357692241668,0.0940260216593742
1630067079733,0.1919291466474533,0.0388700552284717,-0.2022873908281326,0.0911602228879928
1630067079795,0.1886932253837585,0.0183434337377548,-0.2145116925239563,0.0764600932598114
1630067080078,0.1822319626808166,0.0107246953994035,-0.2202696353197097,0.0615139007568359
1630067080172,0.1714634597301483,0.001962472917512,-0.2378818839788437,0.0482111312448978
1630067080251,0.1552788168191909,-0.0203766878694295,-0.2546880841255188,0.0388082973659038
1630067080284,0.1350152641534805,-0.0617050603032112,-0.2674867808818817,0.0365863926708698
1630067080346,0.1141651794314384,-0.1204248741269111,-0.2765659093856811,0.0418883897364139
1630067080502,0.096622347831726,-0.1870379298925399,-0.284258484840393,0.0533712804317474
1630067080534,0.0831008478999137,-0.2459630668163299,-0.3096219003200531,0.0533712804317474
1630067080784,0.0734069645404815,-0.2839902937412262,-0.3446762263774872,0.0533712804317474
1630067080815,0.0535926558077335,-0.2986701726913452,-0.3861803412437439,0.0533712804317474
1630067080924,0.0421125777065753,-0.2973761558532715,-0.4259167015552521,0.0533712804317474
1630067081002,0.0331504568457603,-0.2899422943592071,-0.4531915485858917,0.0413913168013095
1630067081052,0.019237782806158,-0.2808139622211456,-0.4605465829372406,0.0347187109291553
1630067081177,-0.0009193108417093,-0.2652605473995209,-0.4674623608589172,0.0317120887339115
1630067081256,-0.0251650288701057,-0.2713136076927185,-0.4790133237838745,0.0302031654864549
1630067081318,-0.0503245219588279,-0.2758272588253021,-0.49371999502182,0.0331462509930133
1630067081349,-0.0766341537237167,-0.2776836156845093,-0.5052295327186584,0.0433942340314388
1630067081412,-0.0997635796666145,-0.2746183276176452,-0.5093397498130798,0.0622565895318985
1630067081443,-0.1113488897681236,-0.2667637765407562,-0.5102804899215698,0.0622565895318985
1630067081615,-0.1056790649890899,-0.2563972771167755,-0.5178714394569397,0.0622565895318985
1630067081677,-0.0854426771402359,-0.2431499063968658,-0.5374393463134766,0.0622565895318985
1630067081771,-0.0610108226537704,-0.2229233235120773,-0.56831955909729,0.0622565895318985
1630067081865,-0.0610108226537704,-0.1922764927148819,-0.6032522320747375,0.0622565895318985
1630067081959,-0.0610108226537704,-0.1540935784578323,-0.6032522320747375,0.0622565895318985
1630067082099,-0.0610108226537704,-0.1156043782830238,-0.6032522320747375,0.0622565895318985
1630067082177,-0.0610108226537704,-0.1156043782830238,-0.6032522320747375,0.0622565895318985
1630067082283,-0.0610108226537704,-0.1156043782830238,-0.6032522320747375,0.0622565895318985
1630067082408,-0.0610108226537704,-0.1156043782830238,-0.6032522320747375,0.0622565895318985
1630067082486,-0.0610108226537704,-0.1156043782830238,-0.6032522320747375,0.0622565895318985
1630067082549,-0.0610108226537704,-0.1156043782830238,-0.6032522320747375,0.0622565895318985
1630067082861,-0.0610108226537704,-0.1156043782830238,-0.6032522320747375,0.0622565895318985
1630067082908,-0.0610108226537704,-0.1156043782830238,-0.6032522320747375,0.0622565895318985
1630067082986,-0.0610108226537704,-0.1156043782830238,-0.6032522320747375,0.0622565895318985
1630067083018,-0.0610108226537704,-0.1156043782830238,-0.6032522320747375,0.0622565895318985
1630067083080,-0.0610108226537704,-0.1156043782830238,0.4675881564617157,0.0622565895318985
1630067083174,-0.0610108226537704,-0.1156043782830238,0.4764716923236847,0.0622565895318985
1630067083268,-0.0610108226537704,-0.1156043782830238,0.480274349451065,0.0622565895318985
1630067083408,-0.0610108226537704,-0.1156043782830238,0.4852101802825928,0.0622565895318985
1630067083517,-0.0610108226537704,-0.1156043782830238,0.4899534285068512,0.0622565895318985
1630067083611,-0.0610108226537704,-0.1156043782830238,0.4899281859397888,0.0622565895318985
1630067083705,-0.0610108226537704,-0.1156043782830238,0.4836338460445404,0.0622565895318985
1630067083783,-0.0610108226537704,-0.1156043782830238,0.4836338460445404,0.0622565895318985
1630067083877,-0.0610108226537704,-0.1156043782830238,0.4836338460445404,0.0622565895318985
1630067084114,-0.0610108226537704,-0.1156043782830238,0.4836338460445404,0.0622565895318985
1630067084177,-0.0610108226537704,-0.1156043782830238,0.4836338460445404,0.0622565895318985
1630067084223,-0.0610108226537704,-0.1156043782830238,0.4836338460445404,0.0622565895318985
1630067084333,-0.0610108226537704,-0.1156043782830238,0.4912664890289306,0.0622565895318985
1630067084395,-0.0610108226537704,-0.1156043782830238,0.4982019960880279,0.0622565895318985
1630067084505,-0.0610108226537704,-0.1156043782830238,0.4986447393894195,0.0622565895318985
1630067084708,-0.0610108226537704,-0.1156043782830238,0.4940108060836792,0.0622565895318985
1630067084723,-0.0610108226537704,-0.1156043782830238,0.4906798005104065,0.0622565895318985
1630067084864,-0.0610108226537704,-0.1156043782830238,0.4886248409748077,0.0622565895318985
1630067084958,-0.0610108226537704,-0.1156043782830238,0.4096273481845855,0.0622565895318985
1630067085101,-0.0610108226537704,-0.1156043782830238,0.2974861264228821,0.0622565895318985
1630067085132,-0.0610108226537704,-0.1156043782830238,0.1724748015403747,0.0622565895318985
1630067085241,-0.0610108226537704,-0.1156043782830238,0.0932070314884185,0.0622565895318985
1630067085351,-0.0610108226537704,-0.1156043782830238,0.1640965789556503,0.0622565895318985
1630067085444,-0.0610108226537704,0.017945684492588,0.2215709537267685,0.0622565895318985
1630067085507,-0.0610108226537704,0.0534230917692184,0.2517217993736267,0.1293805986642837
1630067085663,-0.0610108226537704,0.092270940542221,0.2558962702751159,0.1155420988798141
1630067085725,0.3928733468055725,0.1278421133756637,0.2443736642599105,0.0899926945567131
1630067085866,0.3928733468055725,0.1573376357555389,0.2297303527593612,0.0595239289104938
1630067085944,0.3928733468055725,0.1822489649057388,0.2297303527593612,0.0309538226574659
1630067086072,0.3928733468055725,0.2042080163955688,0.2297303527593612,0.0097679551690816
1630067086228,0.3928733468055725,0.2215815931558609,0.2297303527593612,-0.0012028301134705
1630067086243,0.3928733468055725,0.231268897652626,0.2376918792724609,-0.0023349612019956
1630067086368,0.3928733468055725,0.2334532886743545,0.2364742159843444,0.0040488205850124
1630067086556,0.3928733468055725,0.2318406701087951,0.2387388795614242,0.0040488205850124
1630067086618,0.3928733468055725,0.2422358989715576,0.2437041252851486,0.0040488205850124
1630067086696,0.3928733468055725,0.2374027818441391,0.2495253980159759,0.0040488205850124
1630067086774,0.3928733468055725,0.2428920418024063,0.2474061995744705,-0.0065692421048879
1630067086931,0.3928733468055725,0.2451409101486206,0.2309997826814651,-0.0178907662630081
1630067086978,0.3745623826980591,0.2466119676828384,0.2039844244718551,-0.0276517197489738
1630067087074,0.3853901624679565,0.2478934675455093,0.1798419505357742,-0.0321395397186279
1630067087230,0.4282639622688293,0.2465032041072845,0.1724017262458801,-0.0290183927863836
1630067087293,0.4282639622688293,0.2403021603822708,0.1803325861692428,-0.0189004633575677
1630067087355,0.4282639622688293,0.2301154285669326,0.1906745284795761,-0.0062760654836893
1630067087480,0.4282639622688293,0.2179594784975052,0.1867851614952087,0.0119698084890842
1630067087590,0.4282639622688293,0.2049500495195388,0.1780487447977066,0.030992267653346
1630067087761,0.4282639622688293,0.1908737272024154,0.167629599571228,0.0462076850235462
1630067087793,0.4282639622688293,0.1785476505756378,0.1468782126903534,0.0541440583765506
1630067087918,0.4282639622688293,0.1711349338293075,0.1364908367395401,0.0516704060137271
1630067087980,0.4282639622688293,0.1673916280269622,0.136377602815628,0.0516704060137271
1630067088108,0.4282639622688293,0.1648769825696945,0.137389987707138,0.0516704060137271
1630067088311,0.4282639622688293,0.1650408059358596,0.1300907582044601,0.0516704060137271
1630067088483,0.4282639622688293,0.1722342669963836,0.1142029613256454,0.0536904819309711
1630067088530,0.4282639622688293,0.1955999433994293,0.1033795028924942,0.0641700699925422
1630067088530,0.4282639622688293,0.1852166205644607,0.1081760823726654,0.0641700699925422
1630067088576,0.4282639622688293,0.1958748251199722,0.0977188646793365,0.0641700699925422
1630067088717,0.4282639622688293,0.1881241500377655,0.0861354172229766,0.0641700699925422
1630067088858,0.4282639622688293,0.1881241500377655,0.0684208646416664,0.0641700699925422
1630067088998,0.4282639622688293,0.1881241500377655,0.0289590191096067,0.0641700699925422
1630067089049,0.4282639622688293,0.1881241500377655,-0.0064688152633607,0.0641700699925422
1630067089127,0.4282639622688293,0.1881241500377655,-0.035807516425848,0.0641700699925422
1630067089221,0.4282639622688293,-0.0219877269119024,-0.0600260682404041,0.0641700699925422
1630067089283,0.4282639622688293,-0.0534099489450454,-0.0787678807973861,0.0641700699925422
1630067089377,0.4282639622688293,-0.0772466659545898,-0.0889911353588104,-0.2287735342979431
1630067089643,0.4282639622688293,-0.0943013802170753,-0.0906751379370689,-0.1934742480516433
1630067089658,0.4282639622688293,-0.1030040830373764,-0.1190890595316886,-0.1724437624216079
1630067089690,0.1356279850006103,-0.0996224880218505,-0.1398761719465255,-0.1661861091852188
1630067089783,0.1203025802969932,-0.0876563414931297,-0.1413141340017318,-0.1689047366380691
1630067090019,0.1001945361495018,-0.0755049809813499,-0.1524650156497955,-0.1707229167222976
1630067090115,0.0843671932816505,-0.0671695470809936,-0.1644891947507858,-0.1660481840372085
1630067090209,0.0747847780585289,-0.0619959980249404,-0.1671571731567382,-0.1593881845474243
1630067090240,0.0718118548393249,-0.0572329722344875,-0.1591570228338241,-0.1566054224967956
1630067090318,0.0712198913097381,-0.0530255958437919,-0.1469200104475021,-0.1583140045404434
1630067090443,0.0685928985476493,-0.057196170091629,-0.1294834464788437,-0.1616197377443313
1630067090568,0.062564916908741,-0.0651476308703422,-0.1078712716698646,-0.1640069335699081
1630067090631,0.0547840185463428,-0.070263996720314,-0.0777581930160522,-0.1565500795841217
1630067090740,0.0547840185463428,-0.0688138306140899,-0.0436476320028305,-0.1484909802675247
1630067090849,0.0547840185463428,-0.0603185966610908,-0.0167917739599943,-0.1452441364526748
1630067090990,0.0522997975349426,-0.0464498922228813,-0.0057618636637926,-0.147303506731987
1630067091084,0.0419160090386867,-0.0366480983793735,-0.0168585665524005,-0.1544652134180069
1630067091209,0.0266042128205299,-0.0279398337006568,-0.0168585665524005,-0.1626287698745727
1630067091240,0.0133791035041213,-0.0243520438671112,-0.0168585665524005,-0.1663591712713241
1630067091365,0.0081702908501029,-0.027354234829545,-0.0103668486699461,-0.1636778712272644
1630067091443,0.0116832610219717,-0.0335660874843597,0.0078783128410577,-0.1606414467096328
1630067091552,0.0175131652504205,-0.0393508076667785,0.031244384124875,-0.1666758358478546
1630067091615,0.0207338649779558,-0.0439391881227493,0.0527303554117679,-0.1818497776985168
1630067091740,0.0138395708054304,-0.0506525561213493,0.1212368085980415,-0.1966830044984817
1630067091818,0.0138395708054304,-0.011471620760858,0.1495681852102279,-0.1966830044984817
1630067091974,0.0138395708054304,0.0069873281754553,0.1570833325386047,-0.1966830044984817
1630067092052,0.0138395708054304,0.0239116568118333,0.1581554412841797,-0.1966830044984817
1630067092271,0.0138395708054304,0.0437693893909454,0.159472718834877,-0.1966830044984817
1630067092318,0.0138395708054304,0.0652590915560722,0.1626972556114196,0.2718689143657684
1630067092349,0.4584243595600128,0.0864257737994194,0.1667254120111465,0.2463817000389099
1630067092427,0.4242092967033386,0.1076231524348259,0.1685993820428848,0.2153414785861969
1630067092599,0.4242092967033386,0.1215062662959098,0.1552577018737793,0.1891324371099472
1630067092724,0.4242092967033386,0.1324661523103714,0.1341581791639328,0.1693341732025146
1630067092786,0.4242092967033386,0.1384657025337219,0.1341581791639328,0.1693341732025146
1630067092896,0.4242092967033386,0.1384657025337219,0.1341581791639328,0.1693341732025146
1630067092990,0.4242092967033386,0.1384657025337219,0.1341581791639328,0.1693341732025146
1630067093070,0.4242092967033386,0.1481188386678695,0.1182355657219886,0.1693341732025146
1630067093258,0.4242092967033386,0.1581594347953796,0.1145704910159111,0.1418115347623825
1630067093320,0.380809336900711,0.1633895337581634,0.0910322070121765,0.1224445477128028
1630067093336,0.3473290801048279,0.1583907455205917,0.0965820774435997,0.1086668744683265
1630067093476,0.3215002119541168,0.1551374495029449,0.1203231662511825,0.0824966579675674
1630067093523,0.2608714699745178,0.1515396386384964,0.1446101069450378,0.049330610781908
1630067093711,0.1957980543375015,0.1493645459413528,0.156894639134407,0.0140429390594363
1630067093851,0.1506415009498596,0.148309975862503,0.1538483500480651,-0.0133754480630159
1630067093867,0.1426216959953308,0.146389901638031,0.1403295695781707,-0.0256556142121553
1630067093992,0.1607873290777206,0.1417925655841827,0.1251368820667266,-0.0227051619440317
1630067094058,0.1827284693717956,0.1333159059286117,0.1154058426618576,-0.0100025227293372
1630067094167,0.1866089403629303,0.1223701387643814,0.1141373068094253,0.0076167695224285
1630067094277,0.178361102938652,0.110101506114006,0.0974917858839035,0.0242647230625152
1630067094370,0.1671853959560394,0.1037890464067459,0.0798677578568458,0.035785861313343
1630067094542,0.1605945825576782,0.1005822196602821,0.0608566403388977,0.0433070734143257
1630067094589,0.1607951372861862,0.0889190956950187,0.0495639704167842,0.0487237274646759
1630067094698,0.1649039685726165,0.0726815685629844,0.0304773766547441,0.0632402673363685
1630067094808,0.173315092921257,0.0530621446669101,0.0047854883596301,0.0702342242002487
1630067094870,0.1763513088226318,0.033648531883955,-0.027040559798479,0.0703491196036338
1630067095092,0.1738131046295166,0.017774237319827,-0.0646897181868553,0.0665062591433525
1630067095154,0.1707990020513534,0.0057718255557119,-0.1047816053032875,0.0634598359465599
1630067095232,0.1709120273590088,-0.0046795583330094,-0.1383130401372909,0.0646224841475486
1630067095279,0.1720509529113769,-0.0145118180662393,-0.1538550853729248,0.0679256096482276
1630067095373,0.1692991107702255,-0.0233496166765689,-0.1490254402160644,0.0702014043927192
1630067095529,0.1618092209100723,-0.0314370244741439,-0.1334005743265152,0.0689838528633117
1630067095701,0.1553193926811218,-0.0380890741944313,-0.1199580654501915,0.0663249343633651
1630067095732,0.155778169631958,-0.0433188192546367,-0.1159037202596664,0.0658708363771438
1630067095889,0.1627407670021057,-0.0490020252764225,-0.1178216487169265,0.0669517889618873
1630067095920,0.1713226586580276,-0.0576118975877761,-0.1144660487771034,0.0599735900759696
1630067096078,0.1780658215284347,-0.0667052567005157,-0.0986453294754028,0.0540149174630641
1630067096157,0.1792663931846618,-0.0808359012007713,-0.0753385946154594,0.0482104271650314
1630067096235,0.1754989773035049,-0.0939114391803741,-0.0561618730425834,0.0441767163574695
1630067096344,0.1734272837638855,-0.0977131575345993,-0.0480012893676757,0.0458912923932075
1630067096391,0.1791783422231674,-0.0889067873358726,-0.0494297817349433,0.0560377202928066
1630067096563,0.1948700547218322,-0.0717983171343803,-0.0548017919063568,0.0729863569140434
1630067096641,0.216143399477005,-0.053098514676094,-0.0598129332065582,0.0890024825930595
1630067096766,0.2348589897155761,-0.0376893803477287,-0.0639266818761825,0.0971980690956115
1630067096875,0.2426919788122177,-0.0273628514260053,-0.0702249929308891,0.1016194447875022
1630067096922,0.2386488169431686,-0.0242476500570774,-0.0815449208021164,0.1127904504537582
1630067097035,0.2386488169431686,-0.030265575274825,-0.0978510752320289,0.1127904504537582
1630067097191,0.2386488169431686,-0.030265575274825,-0.1131938397884368,0.1127904504537582
1630067097222,0.2386488169431686,-0.030265575274825,-0.1184536069631576,0.1127904504537582
1630067097316,0.2386488169431686,-0.030265575274825,-0.1111260503530502,0.1127904504537582
1630067097457,0.2386488169431686,-0.030265575274825,-0.0983185917139053,0.1127904504537582
1630067097535,0.2386488169431686,-0.2071378976106643,-0.0869519263505935,-0.1533384472131729
1630067097738,0.2078192681074142,-0.0748874321579933,-0.0634207725524902,-0.1914063990116119
1630067097738,0.2058721631765365,-0.1488833576440811,-0.0770404413342475,-0.1834601312875747
1630067097894,0.2078192681074142,-0.0748874321579933,-0.0436445772647857,-0.1914063990116119
1630067097972,0.2078192681074142,-0.0748874321579933,-0.0379808694124221,-0.1914063990116119
1630067098050,0.2078192681074142,-0.0748874321579933,-0.0294011197984218,-0.1914063990116119
1630067098129,0.2078192681074142,-0.0748874321579933,-0.0194228813052177,-0.1914063990116119
1630067098269,0.2078192681074142,-0.0748874321579933,0.0042359651997685,-0.1914063990116119
1630067098363,0.2078192681074142,-0.0748874321579933,0.0129189360886812,-0.1914063990116119
1630067098472,0.2078192681074142,-0.0748874321579933,0.0118984868749976,-0.1914063990116119
1630067098535,0.2078192681074142,-0.0748874321579933,0.0103746075183153,-0.1914063990116119
1630067098691,0.2078192681074142,-0.0748874321579933,0.0135800736024975,-0.1914063990116119
1630067098769,0.2078192681074142,-0.0428716987371444,0.0209347829222679,-0.2325290888547897
1630067098816,0.2052226811647415,-0.0058820936828851,0.0291796363890171,-0.2743116915225982
1630067099003,0.2052226811647415,-0.0058820936828851,0.0347698628902435,-0.2743116915225982
1630067099084,0.2052226811647415,-0.0058820936828851,0.0323770754039287,-0.2743116915225982
1630067099100,0.2052226811647415,-0.0058820936828851,0.0180702041834592,-0.2743116915225982
1630067099261,0.2052226811647415,-0.0058820936828851,-0.0075476858764886,-0.2743116915225982
1630067099370,0.2052226811647415,0.3155101835727691,-0.0379717126488685,-0.2743116915225982
1630067099451,0.2052226811647415,0.2971690595149994,-0.0422840416431427,-0.2743116915225982
1630067099544,0.2865342497825622,0.2722145617008209,-0.0423575863242149,0.0181418880820274
1630067099654,0.2565412223339081,0.2448548376560211,-0.0419087670743465,-0.0399717055261135
1630067099752,0.2264333963394165,0.2195577174425125,-0.0573271848261356,-0.0953545570373535
1630067099938,0.2096545547246933,0.1978564411401748,-0.0629056319594383,-0.1427889019250869
1630067099969,0.2052374929189682,0.1786696314811706,-0.0609426945447921,-0.1799971461296081
1630067100060,0.2060539871454239,0.160431370139122,-0.0587347075343132,-0.2095256447792053
1630067100153,0.2074627429246902,0.1440270245075225,-0.0612320862710475,-0.233703926205635
1630067100252,0.2112265080213546,0.1317791491746902,-0.070834219455719,-0.2533616721630096
1630067100406,0.2192679941654205,0.1239542663097381,-0.0875903367996215,-0.2666840255260467
1630067100487,0.2293635755777359,0.1182421222329139,-0.1092501133680343,-0.2725624442100525
1630067100606,0.2378661930561065,0.0957328826189041,-0.1308567523956298,-0.2715204656124115
1630067100654,0.2439919859170913,0.0657079517841339,-0.1477599143981933,-0.2656055688858032
1630067100808,0.245126411318779,0.0340357050299644,-0.1596375256776809,-0.3087899386882782
1630067100855,0.2449922263622284,0.007838262245059,-0.1657159626483917,-0.3462381660938263
1630067100979,0.2451981455087661,-0.009167855605483,-0.1587622463703155,-0.371219128370285
1630067101073,0.2494024336338043,-0.0169923417270183,-0.133952334523201,-0.3749629259109497
1630067101184,0.2605221271514892,-0.0182960703969001,-0.0996503978967666,-0.3524098694324493
1630067101281,0.2726080417633056,-0.0187268815934658,-0.0692554786801338,-0.3395203351974487
1630067101359,0.2772594392299652,-0.0229336135089397,-0.0497738420963287,-0.3226080238819122
1630067101570,0.271469235420227,-0.0305701736360788,-0.0396146476268768,-0.3055449724197387
1630067101609,0.2753882110118866,-0.0369032584130764,-0.0343325473368167,-0.2879544794559479
1630067101692,0.2793740332126617,-0.039488922804594,-0.0328574404120445,-0.2688063085079193
1630067101765,0.2819527983665466,-0.0407047607004642,-0.0220557693392038,-0.2479113787412643
1630067101938,0.28035968542099,-0.0418412126600742,-0.0088018085807561,-0.228251427412033
1630067101999,0.2744834423065185,-0.0415427275002002,0.0064053512178361,-0.2133310735225677
1630067102122,0.2671448588371277,-0.0379398353397846,0.0246100518852472,-0.206284150481224
1630067102201,0.2598093450069427,-0.0330973826348781,0.0477364547550678,-0.2095560431480407
1630067102361,0.2521308064460754,-0.0315310545265674,0.0767334476113319,-0.2181982845067978
1630067102407,0.2423843145370483,-0.0369933769106864,0.1055264994502067,-0.2181982845067978
1630067102472,0.2287944257259369,-0.0493369288742542,0.1204088255763053,-0.2181982845067978
1630067102592,0.2097856402397155,-0.0662823393940925,0.109442263841629,-0.2181982845067978
1630067102715,0.2097856402397155,-0.0814430862665176,0.0713541954755783,-0.2181982845067978
1630067102892,0.2097856402397155,-0.085902564227581,0.1708801984786987,-0.2181982845067978
1630067102954,0.2097856402397155,-0.0847478508949279,0.2800336182117462,-0.2181982845067978
1630067103064,0.2097856402397155,-0.0771078169345855,0.3650022447109222,-0.2181982845067978
1630067103128,0.2097856402397155,-0.0671607702970504,0.4198306202888489,-0.2181982845067978
1630067103282,0.2097856402397155,-0.060359451919794,0.4543483555316925,-0.2181982845067978
1630067103360,0.2097856402397155,-0.0593099631369113,0.4151001274585724,-0.2181982845067978
1630067103422,0.2097856402397155,-0.0660741329193115,0.3794868588447571,-0.2181982845067978
1630067103563,0.2097856402397155,-0.0822698548436164,0.3492307662963867,-0.2181982845067978
1630067103641,0.2097856402397155,-0.1077804416418075,0.3234838545322418,-0.2181982845067978
1630067103745,0.2097856402397155,-0.1411601901054382,0.3020192682743072,-0.2181982845067978
1630067103918,0.2097856402397155,-0.1731282770633697,0.2857426404953003,-0.2181982845067978
1630067103948,0.2097856402397155,-0.2002325505018234,0.2857426404953003,-0.2181982845067978
1630067103977,0.2097856402397155,-0.2002325505018234,0.2857426404953003,-0.2181982845067978
1630067104132,0.2097856402397155,-0.2002325505018234,0.2857426404953003,-0.2181982845067978
1630067104262,0.2097856402397155,-0.2002325505018234,0.2857426404953003,-0.2181982845067978
1630067104387,0.2097856402397155,-0.2002325505018234,0.2547845244407654,-0.2181982845067978
1630067104449,0.2097856402397155,-0.2002325505018234,0.2054202854633331,-0.2181982845067978
1630067104559,0.2097856402397155,0.4733093082904815,0.1990328431129455,-0.2181982845067978
1630067104605,0.2097856402397155,0.5216230154037476,0.1800292283296585,-0.2181982845067978
1630067104748,0.2097856402397155,0.5489132404327393,0.1500054150819778,-0.2181982845067978
1630067104842,0.2097856402397155,0.5616654753684998,0.1192295476794242,-0.2181982845067978
1630067105030,0.2097856402397155,0.5634083151817322,0.0963069200515747,-0.2181982845067978
1630067105076,0.2097856402397155,0.5574936866760254,0.0840877145528793,-0.2181982845067978
1630067105139,0.2097856402397155,0.5477074384689331,0.0826568305492401,-0.2181982845067978
1630067105251,0.2097856402397155,0.5699589252471924,0.0880627408623695,-0.2181982845067978
1630067105392,0.2097856402397155,0.5570047497749329,0.0940169170498848,-0.2181982845067978
1630067105454,0.1300476044416427,0.5457206964492798,0.1007386371493339,-0.2181982845067978
1630067105533,0.1300476044416427,0.5357640981674194,0.1062985509634018,-0.2181982845067978
1630067105751,0.1300476044416427,0.5357640981674194,0.1072855666279792,-0.2181982845067978
1630067105751,0.1300476044416427,0.5357640981674194,0.103742741048336,-0.2181982845067978
1630067105814,0.1300476044416427,0.5414472818374634,0.0998898595571518,-0.2181982845067978
1630067105986,0.1300476044416427,0.537731945514679,0.0997829660773277,-0.2181982845067978
1630067106079,0.1300476044416427,0.524624764919281,0.064822070300579,-0.2181982845067978
1630067106174,0.1300476044416427,0.504307746887207,0.0622349195182323,-0.2181982845067978
1630067106239,0.1300476044416427,0.4794160425662994,0.08560810983181,-0.2181982845067978
1630067106378,0.1300476044416427,0.4526543617248535,0.1139189302921295,-0.2181982845067978
1630067106534,0.1300476044416427,0.4283413887023926,0.133769616484642,-0.2181982845067978
1630067106565,0.1300476044416427,0.4107353687286377,0.1433589160442352,-0.2181982845067978
1630067106784,0.1300476044416427,0.4008924961090088,0.1463667005300521,-0.2181982845067978
1630067106784,0.1300476044416427,0.4008924961090088,0.1454097777605056,-0.2181982845067978
1630067106878,0.1300476044416427,0.4008924961090088,0.1390754729509353,-0.2181982845067978
1630067106940,0.1300476044416427,0.4008924961090088,0.1260214895009994,-0.2181982845067978
1630067107081,0.1300476044416427,0.4008924961090088,0.1236212849617004,-0.2181982845067978
1630067107200,0.1300476044416427,0.4008924961090088,0.1240509077906608,-0.2181982845067978
1630067107313,0.1300476044416427,0.4008924961090088,0.129069983959198,-0.2181982845067978
1630067107469,0.1300476044416427,0.4008924961090088,0.1843196004629135,-0.2181982845067978
1630067107469,0.1300476044416427,0.4008924961090088,0.1577215045690536,-0.2181982845067978
1630067107547,0.1300476044416427,0.4008924961090088,0.199426993727684,-0.2181982845067978
1630067107735,0.1300476044416427,0.4008924961090088,0.2046982645988464,-0.2181982845067978
1630067107844,0.1300476044416427,0.4008924961090088,0.1986157894134521,-0.2181982845067978
1630067107875,0.1300476044416427,0.4008924961090088,0.1944220513105392,-0.2181982845067978
1630067108016,0.1300476044416427,0.4008924961090088,0.1973168402910232,-0.2181982845067978
1630067108078,0.1300476044416427,0.4008924961090088,0.224349707365036,-0.2181982845067978
1630067108174,0.1300476044416427,0.4008924961090088,0.2557773292064667,-0.2181982845067978
1630067108271,0.1300476044416427,0.4008924961090088,0.2917356789112091,-0.2181982845067978
1630067108443,0.1300476044416427,0.4008924961090088,0.3164112567901611,-0.2181982845067978
1630067108599,0.1300476044416427,0.4008924961090088,0.3522721529006958,-0.2181982845067978
1630067108646,0.1300476044416427,0.4008924961090088,0.3522721529006958,-0.2181982845067978
1630067108802,0.1300476044416427,0.4008924961090088,0.3522721529006958,-0.2181982845067978
1630067108833,0.1300476044416427,0.4008924961090088,0.3522721529006958,-0.2181982845067978
1630067108880,0.1300476044416427,0.4008924961090088,0.3534308075904846,-0.2181982845067978
1630067108989,0.1300476044416427,0.4008924961090088,0.3500589728355407,-0.2181982845067978
1630067109114,0.1300476044416427,0.4008924961090088,0.3542186021804809,-0.2181982845067978
1630067109273,0.1300476044416427,0.4008924961090088,0.3542186021804809,-0.2181982845067978
1630067109320,0.1300476044416427,0.4008924961090088,0.3542186021804809,-0.2181982845067978
1630067109382,0.1300476044416427,0.4008924961090088,0.3542186021804809,-0.2181982845067978
1630067109507,0.1300476044416427,0.4008924961090088,0.3542186021804809,-0.2181982845067978
1630067109617,0.1300476044416427,0.4008924961090088,0.3542186021804809,-0.2181982845067978
1630067109773,0.1300476044416427,0.4008924961090088,0.3542186021804809,-0.2181982845067978
1630067109867,0.1300476044416427,0.4008924961090088,0.3542186021804809,-0.2181982845067978
1630067109945,0.1300476044416427,0.2275019884109497,0.3542186021804809,-0.2181982845067978
1630067110038,0.1300476044416427,0.2193136662244796,-0.1808107048273086,-0.2181982845067978
1630067110117,0.1300476044416427,0.1981437802314758,-0.2343924343585968,-0.2181982845067978
1630067110259,0.1571373045444488,0.1735881567001342,-0.2720988690853119,-0.2181982845067978
1630067110306,0.1972734630107879,0.1507391780614853,-0.2844566106796264,-0.2181982845067978
1630067110428,0.2165317982435226,0.1304935365915298,-0.276172935962677,-0.2181982845067978
1630067110553,0.2225910276174545,0.1120854020118713,-0.2584868371486664,-0.2181982845067978
1630067110663,0.2225910276174545,0.095043696463108,-0.2415055036544799,-0.2181982845067978
1630067110694,0.2225910276174545,0.0784901827573776,-0.2277362942695617,-0.2181982845067978
1630067110850,0.2225910276174545,0.0634022131562233,-0.2164236307144165,-0.2181982845067978
1630067111006,0.2225910276174545,0.0512800738215446,-0.2066545188426971,-0.2181982845067978
1630067111022,0.2225910276174545,0.0428063869476318,-0.2001274973154068,-0.2181982845067978
1630067111131,0.2225910276174545,0.0288899596780538,-0.1994402259588241,-0.2181982845067978
1630067111209,0.2225910276174545,0.0040519791655242,-0.216782733798027,-0.2181982845067978
1630067111384,0.2225910276174545,-0.0349799655377864,-0.2238607704639434,-0.2181982845067978
1630067111509,0.2519218623638153,-0.0807574763894081,-0.2228921204805374,-0.2181982845067978
1630067111587,0.2793273031711578,-0.1194514706730842,-0.2110372334718704,-0.2181982845067978
1630067111712,0.2967436015605926,-0.1432346254587173,-0.1898442506790161,-0.2181982845067978
1630067111728,0.2967436015605926,-0.1540650427341461,-0.1469666063785553,-0.2181982845067978
1630067111806,0.2967436015605926,-0.1576183587312698,-0.1192529201507568,-0.2181982845067978
1630067111900,0.2967436015605926,-0.1569599956274032,-0.1050785258412361,-0.2181982845067978
1630067112058,0.2967436015605926,-0.1529806554317474,-0.0989727228879928,-0.2181982845067978
1630067112198,0.2967436015605926,-0.1457552313804626,-0.0927473008632659,-0.2181982845067978
1630067112292,0.3500494062900543,-0.1345662325620651,-0.077143594622612,-0.2181982845067978
1630067112433,0.3233283460140228,-0.118452288210392,-0.0476737506687641,-0.2181982845067978
1630067112511,0.2941271960735321,-0.0971217155456543,-0.0130704510957002,-0.2181982845067978
1630067112542,0.2706166803836822,-0.0743007212877273,0.0132996141910552,-0.2181982845067978
1630067112714,0.2566609382629394,-0.0541895069181919,0.0258644521236419,-0.2181982845067978
1630067112792,0.2539821267127991,-0.0384184010326862,0.0278132520616054,-0.2181982845067978
1630067112980,0.262239396572113,-0.0257903039455413,0.0069940448738634,-0.2181982845067978
1630067113011,0.2766417562961578,-0.0144769372418522,-0.0100211650133132,0.1906251013278961
1630067113120,0.2898253202438354,-0.0058410139754414,-0.0233606565743684,0.1740124374628067
1630067113198,0.2956331670284271,-0.0022342505399137,-0.0340533666312694,0.1562711894512176
1630067113262,0.2916722893714905,-0.005100596230477,-0.0455715358257293,0.1383721977472305
1630067113451,0.280612587928772,-0.0144569631665945,-0.0501703768968582,0.1236843541264534
1630067113498,0.2641260921955108,-0.0290507394820451,-0.0466990917921066,0.104432001709938
1630067113591,0.2408804148435592,-0.0454652681946754,-0.0386172570288181,0.0714741647243499
1630067113716,0.2169958800077438,-0.0608411245048046,-0.0321322381496429,0.0261934604495763
1630067113810,0.2012549787759781,-0.0746864080429077,-0.0349366255104541,0.0052851703949272
1630067114014,0.1962279826402664,-0.1205291971564292,-0.0791427195072174,-0.040573414415121
1630067114016,0.1957186758518219,-0.0921701043844223,-0.0519410297274589,-0.0176542233675718
1630067114094,0.1988516300916671,-0.160306230187416,-0.1033958494663238,-0.0597247816622257
1630067114204,0.201565682888031,-0.2041475027799606,-0.1137397363781929,-0.0717215463519096
1630067114313,0.2033611088991165,-0.2419465333223343,-0.1117518246173858,-0.0764317139983177
1630067114344,0.2021147310733795,-0.2686242759227752,-0.1078554391860961,-0.078763909637928
1630067114516,0.1963723301887512,-0.2842591106891632,-0.1090665087103843,-0.103214293718338
1630067114610,0.1897093653678894,-0.2871960997581482,-0.1146572232246398,-0.1306303143501281
1630067114715,0.1912024617195129,-0.276308923959732,-0.1205210089683532,-0.1551467925310135
1630067114794,0.2108285129070282,-0.2550649344921112,-0.1260536164045334,-0.1721260398626327
1630067114950,0.2480113953351974,-0.2316829860210418,-0.134744793176651,-0.1837651133537292
1630067114997,0.2915957570075989,-0.214014396071434,-0.1494701653718948,-0.1935649812221527
1630067115094,0.3289814889431,-0.2051675170660019,-0.1676686704158783,-0.2010677903890609
1630067115281,0.3536265194416046,-0.2001929879188537,-0.1834761649370193,-0.2043217867612838
1630067115359,0.3676845133304596,-0.1896404027938842,-0.1934533566236496,-0.2017828822135925
1630067115453,0.3790695965290069,-0.1670835167169571,-0.2000678479671478,-0.1920535266399383
1630067115562,0.394804447889328,-0.1335625052452087,-0.2063002288341522,-0.1719962507486343
1630067115578,0.4148549735546112,-0.0965540334582328,-0.2153937965631485,-0.1465020626783371
1630067115718,0.4331677854061126,-0.0625189840793609,-0.2273395657539367,-0.1234292015433311
1630067115796,0.4436284303665161,-0.0345951914787292,-0.2397326081991195,-0.1083505377173423
1630067116000,0.4514525830745697,-0.0137889683246612,-0.2486583590507507,-0.1080342978239059
1630067116015,0.458879679441452,-0.0012871774379163,-0.2511605322360992,-0.1029626950621604
1630067116096,0.4669249951839447,0.0008132071816362,-0.249276116490364,-0.0915326550602912
1630067116205,0.4744084477424621,-0.0078938798978924,-0.2478744089603424,-0.0778532400727272
1630067116346,0.4770247042179107,-0.0249300543218851,-0.2449597418308258,-0.0670670196413993
1630067116440,0.470565527677536,-0.043404933065176,-0.2326012551784515,-0.0606716014444828
1630067116549,0.4554309546947479,-0.0376749709248542,-0.2109194099903106,-0.0558979734778404
1630067116580,0.4390299320220947,-0.0246659740805625,-0.1913102120161056,-0.0481035932898521
1630067116690,0.4339843094348907,-0.0102188941091299,-0.1840124577283859,-0.0330152586102485
1630067116783,0.4470192193984985,-0.0027146192733198,-0.1879869550466537,-0.0093951746821403
1630067116940,0.4697319269180298,-0.0013228905154392,-0.1920196264982223,0.0199468396604061
1630067117049,0.4697319269180298,-0.0125887421891093,-0.1846881955862045,0.0199468396604061
1630067117177,0.4697319269180298,-0.0319808721542358,-0.1610242426395416,0.0199468396604061
1630067117208,0.4697319269180298,-0.0533262193202972,-0.1256223022937774,0.0199468396604061
1630067117333,0.4697319269180298,-0.0754133537411689,-0.0882223099470138,0.0199468396604061
1630067117411,0.4697319269180298,-0.0948657467961311,-0.0725435465574264,0.0199468396604061
1630067117552,0.4697319269180298,-0.081776924431324,-0.0563192963600158,0.0199468396604061
1630067117661,0.4697319269180298,-0.0400886386632919,-0.0390462465584278,0.0199468396604061
1630067117755,0.4697319269180298,0.0240219496190547,-0.0204750169068574,0.0199468396604061
1630067117848,0.4697319269180298,0.0952340960502624,-0.0057839713990688,0.0199468396604061
1630067117895,0.4697319269180298,0.1623880565166473,-0.0041253664530813,0.0199468396604061
1630067118005,0.2899976968765259,0.1900930851697921,-0.0156602170318365,0.0199468396604061
1630067118259,0.2254746556282043,0.1900930851697921,-0.0466295443475246,0.0199468396604061
1630067118259,0.2447073012590408,0.1900930851697921,-0.0334420017898082,0.0199468396604061
1630067118446,0.2271825075149536,0.1900930851697921,-0.0458070449531078,0.0199468396604061
1630067118446,0.2378455847501754,0.2027849406003952,-0.0294918548315763,0.0199468396604061
1630067118571,0.245054617524147,0.2202894389629364,-0.0084957005456089,0.0199468396604061
1630067118696,0.2426201701164245,0.2272259294986724,0.000671595451422,0.0199468396604061
1630067118758,0.2318005114793777,0.2289676666259765,-0.0110035948455333,0.0199468396604061
1630067118961,0.2160704135894775,0.210802674293518,-0.0395759381353855,0.2623509168624878
1630067118977,0.2000544816255569,0.1998147070407867,-0.0512083135545253,0.2399410605430603
1630067119151,0.1892929822206497,0.2037985026836395,-0.0565992705523967,0.2149708569049835
1630067119167,0.1892929822206497,0.2034675478935241,-0.0516460016369819,0.2149708569049835
1630067119260,0.1600289046764373,0.196941390633583,-0.0365545563399791,0.2149708569049835
1630067119385,0.1383234411478042,0.1812207698822021,-0.0174904335290193,0.2149708569049835
1630067119510,0.1325827091932296,0.15818452835083,0.0004107038257643,0.1942055821418762
1630067119557,0.1414129137992859,0.1199109479784965,0.0071677067317068,0.1743702441453933
1630067119713,0.1551492363214492,0.1199109479784965,0.0185044407844543,0.1743702441453933
1630067119745,0.1600302159786224,0.1199109479784965,0.0336593873798847,0.1743702441453933
1630067119823,0.1477791219949722,0.1199109479784965,0.0467092543840408,0.1743702441453933
1630067120010,0.1147527247667312,0.1199109479784965,0.0496319159865379,0.1743702441453933
1630067120119,0.0663154572248458,0.1040874719619751,0.0266965497285127,0.1743702441453933
1630067120171,0.0175542030483484,0.0987714082002639,0.0113248983398079,0.1743702441453933
1630067120249,0.0175542030483484,0.1219452172517776,0.0173598416149616,0.1743702441453933
1630067120374,0.0175542030483484,0.1646286845207214,0.0429442599415779,0.1743702441453933
1630067120468,0.0175542030483484,0.2127175033092498,0.0741820484399795,0.1743702441453933
1630067120655,0.0175542030483484,0.2566167414188385,0.102038636803627,0.1743702441453933
1630067120718,0.0175542030483484,0.2890501618385315,0.1235634982585907,0.1743702441453933
1630067120811,0.0371871031820774,0.3036771118640899,0.1362099349498748,0.1721927523612976
1630067120921,0.0307717286050319,0.289503276348114,0.1391285359859466,0.1603494137525558
1630067120968,0.0282167978584766,0.2628590166568756,0.1361924707889557,0.1351226419210434
1630067121077,0.0331662371754646,0.2308257520198822,0.1282119303941726,0.11680568754673
1630067121251,0.0462747849524021,0.1999113410711288,0.1169668287038803,0.1165120676159858
1630067121392,0.0655750930309295,0.174137681722641,0.1073445379734039,0.1303765922784805
1630067121439,0.0876336097717285,0.1534474343061447,0.1018512472510337,0.1487041711807251
1630067121532,0.1064930111169815,0.1371244937181472,0.0993813946843147,0.1616478115320205
1630067121579,0.1200298592448234,0.1250609159469604,0.108352817595005,0.1654519289731979
1630067121642,0.1279632300138473,0.1225248575210571,0.1104598268866539,0.1602009832859039
1630067121860,0.1312188804149627,0.1145843639969825,0.1060669720172882,0.1486317366361618
1630067121939,0.1307144612073898,0.0950110852718353,0.098811574280262,0.1341988444328308
1630067122017,0.1342659741640091,0.0610411204397678,0.0909636318683624,0.1236604526638984
1630067122160,0.1415844708681106,0.0139236012473702,0.0788849294185638,0.1041714176535606
1630067122222,0.1611098051071167,-0.0413682013750076,0.0571977831423282,0.0780571103096008
1630067122332,0.1938205361366272,-0.0929325073957443,0.026049580425024,0.0528738945722579
1630067122457,0.2320243269205093,-0.1218784675002098,-0.0065718828700482,0.0360947735607624
1630067122535,0.2661434710025787,-0.1151155084371566,-0.0303822513669729,0.0290751289576292
1630067122644,0.2776358723640442,-0.0796628445386886,-0.0412408299744129,0.0319343358278274
1630067122753,0.2872445583343506,-0.0368145033717155,-0.0427686721086502,0.0248869247734546
1630067122847,0.2941034138202667,-0.003606317564845,-0.0429268516600132,0.00278538512066
1630067122878,0.2980848550796509,0.0161271765828132,-0.0491851717233657,-0.035135630518198
1630067123019,0.3016890287399292,0.0252043716609478,-0.0629631131887435,-0.0825927704572677
1630067123128,0.307424247264862,0.0325181595981121,-0.0785106196999549,-0.1305065602064132
1630067123225,0.3178722858428955,0.0354779623448848,-0.0883400365710258,-0.1683706492185592
1630067123318,0.3352741599082947,0.034754853695631,-0.0926287099719047,-0.1904317289590835
1630067123428,0.3623376190662384,0.0342608392238616,-0.0970848500728607,-0.198666512966156
1630067123521,0.4000733196735382,0.0386898331344127,-0.1020540446043014,-0.195627361536026
1630067123646,0.4435526430606842,0.0512130483984947,-0.100072406232357,-0.1875791996717453
1630067123756,0.4435526430606842,0.0737059339880943,-0.0862958207726478,-0.1875791996717453
1630067123896,0.4435526430606842,0.0826471745967865,-0.0662478134036064,-0.1875791996717453
1630067123928,0.4435526430606842,0.0858253240585327,-0.0484834946691989,-0.1875791996717453
1630067124084,0.4435526430606842,0.0769781842827797,-0.0369243025779724,-0.1875791996717453
1630067124164,0.4435526430606842,0.0595797188580036,-0.0251669697463512,-0.1875791996717453
1630067124289,0.4435526430606842,0.0522621534764766,-0.004466404672712,-0.1875791996717453
1630067124367,0.4435526430606842,0.0715765729546547,0.026801660656929,-0.1875791996717453
1630067124477,0.4435526430606842,0.111573502421379,0.0620081052184104,-0.1875791996717453
1630067124570,0.4435526430606842,0.1538886874914169,0.0921179875731468,-0.1875791996717453
1630067124695,0.4435526430606842,0.1538886874914169,0.1140318438410759,-0.1875791996717453
1630067124758,0.4435526430606842,0.1538886874914169,0.1264601796865463,-0.1875791996717453
1630067124945,0.4435526430606842,0.1538886874914169,0.1380311399698257,-0.1875791996717453
1630067124992,0.4435526430606842,0.1538886874914169,0.1499306261539459,-0.1875791996717453
1630067125086,0.4435526430606842,0.1538886874914169,0.1620426476001739,-0.1875791996717453
1630067125148,0.4435526430606842,0.1538886874914169,0.1730636954307556,-0.1875791996717453
1630067125308,0.4435526430606842,0.1538886874914169,0.183319091796875,-0.1875791996717453
1630067125496,0.4435526430606842,0.1811552196741104,0.196533665060997,-0.1875791996717453
1630067125527,0.4435526430606842,0.3065390288829803,0.2171671539545059,-0.1875791996717453
1630067125621,0.4435526430606842,0.3727770149707794,0.2969168722629547,-0.1875791996717453
1630067125652,0.4435526430606842,0.398046463727951,0.373691588640213,-0.1875791996717453
1630067125762,0.4435526430606842,0.3946365416049957,0.4317802190780639,-0.1875791996717453
1630067125887,0.4435526430606842,0.3708493113517761,0.4668193459510803,-0.1875791996717453
1630067125949,0.4435526430606842,0.3381147086620331,0.4829744398593902,-0.1875791996717453
1630067126074,0.7330442070960999,0.3092431426048279,0.4885700643062591,0.1569768339395523
1630067126186,0.7330442070960999,0.2856886088848114,0.4888799786567688,0.1569768339395523
1630067126311,0.7330442070960999,0.2645943164825439,0.4568211436271667,0.1569768339395523
1630067126373,0.7330442070960999,0.24164479970932,0.4251656830310821,0.1569768339395523
1630067126482,0.7330442070960999,0.219080775976181,0.3934318125247955,0.1569768339395523
1630067126576,0.7330442070960999,0.2029258757829666,0.3636110126972198,0.1569768339395523
1630067126732,0.7330442070960999,0.1968033015727996,0.3636110126972198,0.1569768339395523
1630067126795,0.7330442070960999,0.1968033015727996,0.3636110126972198,0.1569768339395523
1630067126873,0.7330442070960999,0.1968033015727996,0.3636110126972198,0.1569768339395523
1630067126967,0.7330442070960999,0.1279516220092773,0.3636110126972198,0.1569768339395523
1630067127076,0.7330442070960999,0.0688417628407478,0.3449203968048095,0.1569768339395523
1630067127203,0.7330442070960999,0.0320964679121971,0.308641642332077,0.1569768339395523
1630067127328,0.7330442070960999,0.016430914402008,0.2744552493095398,0.1569768339395523
1630067127391,0.7330442070960999,0.0148524092510342,0.2524705529212951,0.1569768339395523
1630067127484,0.7330442070960999,0.0327615700662136,0.2576902210712433,0.1569768339395523
1630067127688,0.7330442070960999,0.0407080575823783,0.2910419106483459,0.1569768339395523
1630067127719,0.7330442070960999,0.0347463376820087,0.3347146809101105,0.1569768339395523
1630067127812,0.7330442070960999,0.0254880264401435,0.3685466647148132,0.1569768339395523
1630067127906,0.7330442070960999,0.0360896997153759,0.3869991600513458,0.1569768339395523
1630067128047,0.7330442070960999,0.0536431074142456,0.3948592245578766,0.1569768339395523
1630067128109,0.7330442070960999,0.0663176774978637,0.3982646763324737,0.1569768339395523
1630067128268,0.7330442070960999,0.0557327568531036,0.3687557280063629,0.1569768339395523
1630067128300,0.7330442070960999,0.0557327568531036,0.3465813100337982,0.1569768339395523
1630067128456,0.7330442070960999,0.0557327568531036,0.3313805758953094,0.1569768339395523
1630067128581,0.7330442070960999,0.0557327568531036,0.3206505477428436,0.1569768339395523
1630067128643,0.7330442070960999,0.0557327568531036,0.3115845620632171,0.1569768339395523
1630067128737,0.7330442070960999,0.0557327568531036,0.301718920469284,0.1569768339395523
1630067128800,0.7330442070960999,0.0557327568531036,0.2805069983005523,0.1569768339395523
1630067128893,0.7330442070960999,0.0557327568531036,0.2497672736644745,0.1569768339395523
1630067128987,0.7330442070960999,0.0238120649009943,0.2052966058254242,0.1569768339395523
1630067129143,0.7330442070960999,0.0081487772986292,0.144627645611763,0.1569768339395523
1630067129253,0.7330442070960999,0.0196648966521024,0.0735958591103553,0.1569768339395523
1630067129331,0.7330442070960999,0.0566586665809154,0.0082957530394196,0.1569768339395523
1630067129471,0.7330442070960999,0.0922474116086959,-0.0350824706256389,0.1569768339395523
1630067129534,0.7330442070960999,0.1134022921323776,-0.054616667330265,0.1569768339395523
1630067129643,0.7330442070960999,0.1177742481231689,-0.0620500370860099,0.1569768339395523
1630067129752,0.7330442070960999,0.1177742481231689,-0.0617471747100353,0.1569768339395523
1630067129846,0.7330442070960999,0.1177742481231689,-0.0691327229142189,0.1569768339395523
1630067129940,0.7330442070960999,0.1177742481231689,-0.0887302905321121,0.1569768339395523
1630067130112,0.7330442070960999,0.1177742481231689,-0.1213638037443161,0.1569768339395523
1630067130193,0.7330442070960999,0.1177742481231689,-0.1655193716287613,0.1569768339395523
1630067130208,0.7330442070960999,0.1177742481231689,-0.2160861492156982,0.1569768339395523
1630067130396,0.7330442070960999,0.1177742481231689,-0.264784038066864,0.1569768339395523
1630067130458,0.7330442070960999,0.1177742481231689,-0.2997674345970154,0.1569768339395523
1630067130521,0.7330442070960999,0.137617290019989,-0.3119966983795166,0.1569768339395523
1630067130630,0.7330442070960999,0.1565282344818115,-0.3000305294990539,0.1569768339395523
1630067130709,0.7330442070960999,0.174288809299469,-0.2733386754989624,0.1569768339395523
1630067130819,0.7330442070960999,0.174288809299469,-0.2733386754989624,0.1569768339395523
1630067130959,0.7330442070960999,0.174288809299469,-0.2733386754989624,0.1569768339395523
1630067131022,0.7330442070960999,0.174288809299469,-0.2733386754989624,0.1569768339395523
1630067131164,0.7330442070960999,0.174288809299469,-0.2733386754989624,0.1569768339395523
1630067131321,0.7330442070960999,0.174288809299469,-0.2733386754989624,0.1569768339395523
1630067131336,0.7330442070960999,0.174288809299469,-0.2733386754989624,0.1569768339395523
1630067131430,0.7330442070960999,0.174288809299469,-0.2733386754989624,0.1569768339395523
1630067131571,0.7330442070960999,0.174288809299469,-0.2733386754989624,0.1569768339395523
1630067131664,0.7330442070960999,0.3240142166614532,-0.2733386754989624,0.1569768339395523
1630067131758,0.2062290012836456,0.3096134066581726,-0.2733386754989624,0.1569768339395523
1630067131914,0.2166762202978134,0.3031874299049377,-0.2733386754989624,-0.345759630203247
1630067131961,0.2283250093460083,0.2981927692890167,-0.2733386754989624,-0.318750262260437
1630067132086,0.2420386672019958,0.2883725166320801,-0.2733386754989624,-0.2884311974048614
1630067132214,0.2420386672019958,0.2729441523551941,-0.2733386754989624,-0.2884311974048614
1630067132277,0.2420386672019958,0.2729441523551941,-0.2733386754989624,-0.2884311974048614
1630067132386,0.2420386672019958,0.2729441523551941,-0.2733386754989624,-0.2884311974048614
1630067132480,0.2420386672019958,0.2729441523551941,-0.2733386754989624,-0.2884311974048614
1630067132542,0.2420386672019958,0.2729441523551941,-0.2733386754989624,-0.2884311974048614
1630067132620,0.2420386672019958,0.2729441523551941,-0.2733386754989624,-0.2884311974048614
1630067132808,0.2420386672019958,0.2729441523551941,-0.2733386754989624,-0.2884311974048614
1630067132870,0.2420386672019958,0.2571160197257995,-0.2733386754989624,-0.2884311974048614
1630067132948,0.2614723742008209,0.240486666560173,-0.2733386754989624,-0.2884311974048614
1630067133058,0.2719870507717132,0.230396419763565,-0.2733386754989624,-0.3025957942008972
1630067133263,0.2774683535099029,0.2272691130638122,-0.2733386754989624,-0.2858131229877472
1630067133326,0.2774683535099029,0.2222724854946136,-0.2733386754989624,-0.2858131229877472
1630067133435,0.2774683535099029,0.2222724854946136,-0.2733386754989624,-0.2858131229877472
1630067133482,0.2774683535099029,0.2222724854946136,-0.2733386754989624,-0.2858131229877472
1630067133560,0.2774683535099029,0.2222724854946136,-0.2733386754989624,-0.2858131229877472
1630067133732,0.2774683535099029,0.2222724854946136,-0.2733386754989624,-0.2858131229877472
1630067133779,0.2774683535099029,0.2222724854946136,-0.1956536322832107,-0.2858131229877472
1630067133888,0.2774683535099029,0.2222724854946136,-0.1893776655197143,-0.2858131229877472
1630067133982,0.2774683535099029,0.2222724854946136,-0.1898684948682785,-0.2858131229877472
1630067134107,0.2774683535099029,0.2222724854946136,-0.1958897113800048,-0.2858131229877472
1630067134219,0.2774683535099029,0.2222724854946136,-0.2042433619499206,-0.2858131229877472
1630067134312,0.2774683535099029,0.2222724854946136,-0.2134931236505508,-0.2858131229877472
1630067134390,0.2774683535099029,0.2222724854946136,-0.2255764901638031,-0.2858131229877472
1630067134484,0.2774683535099029,0.0148021774366498,-0.2395346760749817,-0.2858131229877472
1630067134609,0.2774683535099029,0.0175598748028278,-0.2451622188091278,-0.2858131229877472
1630067134750,0.2774683535099029,0.0269839875400066,-0.2308966070413589,-0.2858131229877472
1630067134843,0.2774683535099029,0.03483347594738,-0.1998609453439712,-0.0773029401898384
1630067134890,0.2774683535099029,0.0396701879799366,-0.1668497622013092,-0.0789115503430366
1630067135031,0.2774683535099029,0.0487650409340858,-0.1401463598012924,-0.0781535282731056
1630067135126,0.2774683535099029,0.0679420232772827,-0.1207196414470672,-0.0693857371807098
1630067135237,0.2774683535099029,0.0931837633252143,-0.1077633947134018,-0.0556535758078098
1630067135362,0.2774683535099029,0.1141130626201629,-0.1009701341390609,-0.0450145006179809
1630067135502,0.0231792815029621,0.1233989000320434,-0.1018422245979309,-0.04443359375
1630067135565,0.0595444478094577,0.1219636648893356,-0.1093724891543388,-0.0543049350380897
1630067135612,0.0726868957281112,0.1147926822304725,-0.1200255081057548,-0.0689085945487022
1630067135721,0.0734203681349754,0.1077644601464271,-0.1301937401294708,-0.0810575634241104
1630067135815,0.0774946212768554,0.1054633855819702,-0.1376764327287674,-0.0864231437444686
1630067135940,0.0873870775103569,0.1066648215055465,-0.1394817531108856,-0.0841737911105156
1630067136049,0.0994282215833664,0.1099698171019554,-0.1341642141342163,-0.0760674104094505
1630067136111,0.1067925468087196,0.1126938536763191,-0.1271657198667526,-0.0703472644090652
1630067136224,0.1073231399059295,0.1134904846549034,-0.1287236213684082,-0.0690037906169891
1630067136349,0.1196791380643844,0.1139797940850257,-0.144191101193428,-0.0718001127243042
1630067136489,0.1257708519697189,0.1164453998208046,-0.1685289591550827,-0.070844367146492
1630067136552,0.1151564866304397,0.1192495822906494,-0.1907884031534195,-0.0705733448266983
1630067136614,0.1040677279233932,0.1167929023504257,-0.2034221887588501,-0.07321348041296
1630067136786,0.0949228107929229,0.1052972450852394,-0.2053724527359008,-0.076998047530651
1630067136833,0.0889543145895004,0.0866669565439224,-0.1967132687568664,-0.087430253624916
1630067136942,0.0826298967003822,0.0684681236743927,-0.17811980843544,-0.092088371515274
1630067137099,0.0815245807170867,0.0594953671097755,-0.1544590294361114,-0.0851989611983299
1630067137164,0.0943832769989967,0.0654380023479461,-0.1335865259170532,-0.068521499633789
1630067137227,0.1217110529541969,0.0863578841090202,-0.1172903552651405,-0.049447052180767
1630067137305,0.1517912596464157,0.1152474731206893,-0.1009145379066467,-0.0354047380387783
1630067137492,0.1741821765899658,0.1434660255908966,-0.0829581394791603,-0.0324055738747119
1630067137555,0.1843306869268417,0.1661285907030105,-0.0716835483908653,-0.0403647348284721
1630067137664,0.1846082508563995,0.1848657429218292,-0.0645759850740432,-0.0530648306012153
1630067137773,0.1892912536859512,0.202195331454277,-0.0609620846807956,-0.0530648306012153
1630067137867,0.1976871639490127,0.218659371137619,-0.0581459030508995,-0.0530648306012153
1630067137976,0.2103757709264755,0.2254100739955902,-0.0540751665830612,-0.0530648306012153
1630067138008,0.2272316068410873,0.2303327172994613,-0.048771645873785,-0.0530648306012153
1630067138154,0.2484255284070968,0.2342956513166427,-0.0449935607612133,-0.0530648306012153
1630067138326,0.2722246944904327,0.2408926039934158,-0.0468021258711814,-0.0530648306012153
1630067138404,0.2967817187309265,0.2548923194408417,-0.0583074018359184,-0.0530648306012153
1630067138482,0.3207184076309204,0.2779884338378906,-0.0789163783192634,-0.0530648306012153
1630067138623,0.3417623043060303,0.3053986132144928,-0.100502036511898,-0.0530648306012153
1630067138685,0.3532511293888092,0.3288399279117584,-0.100502036511898,-0.0530648306012153
1630067138748,0.3459055721759796,0.3413384556770324,-0.100502036511898,-0.0530648306012153
1630067138873,0.3459055721759796,0.3419741988182068,-0.100502036511898,-0.0530648306012153
1630067139013,0.3459055721759796,0.3364757001399994,-0.100502036511898,-0.0530648306012153
1630067139091,0.3459055721759796,0.3364757001399994,-0.100502036511898,-0.0530648306012153
1630067139172,0.3459055721759796,0.3364757001399994,-0.100502036511898,-0.0530648306012153
1630067139266,0.3459055721759796,0.3364757001399994,-0.100502036511898,-0.0530648306012153
1630067139359,0.3459055721759796,0.3364757001399994,-0.100502036511898,-0.0530648306012153
1630067139531,0.3459055721759796,0.3364757001399994,-0.100502036511898,-0.0530648306012153
1630067139578,0.3459055721759796,0.3364757001399994,-0.100502036511898,-0.0530648306012153
1630067139672,0.3459055721759796,0.3364757001399994,-0.100502036511898,-0.0530648306012153
1630067139844,0.3459055721759796,0.3364757001399994,-0.100502036511898,-0.0530648306012153
1630067139906,0.3459055721759796,0.3364757001399994,-0.100502036511898,-0.0530648306012153
1630067139953,0.3459055721759796,0.3364757001399994,-0.100502036511898,-0.0530648306012153
1630067140141,0.3459055721759796,0.3364757001399994,-0.100502036511898,-0.0530648306012153
1630067140221,0.3459055721759796,0.3364757001399994,-0.100502036511898,-0.0530648306012153
1630067140252,0.3459055721759796,0.3364757001399994,-0.100502036511898,-0.0530648306012153
1630067140424,0.3459055721759796,0.3364757001399994,-0.100502036511898,-0.0530648306012153
1630067140455,0.3600104749202728,0.3364757001399994,0.0376843176782131,0.182741492986679
1630067140565,0.3193707168102264,0.3364757001399994,-0.0009268069989047,0.1698776185512542
1630067140737,0.2794114649295807,0.3364757001399994,-0.0399640090763568,0.1564653515815735
1630067140815,0.2459943294525146,0.3364757001399994,-0.0686425194144249,0.1458871960639953
1630067140877,0.2253440171480178,0.3364757001399994,-0.0802293121814727,0.1458871960639953
1630067140971,0.2189686298370361,0.3364757001399994,-0.0717937722802162,0.1458871960639953
1630067141096,0.2217175066471099,0.3364757001399994,-0.048402190208435,0.1458871960639953
1630067141208,0.2277139127254486,0.3364757001399994,-0.0219232942909002,0.1458871960639953
1630067141380,0.2348675280809402,0.3364757001399994,-0.0028498275205492,0.1458871960639953
1630067141411,0.2433716803789138,0.3364757001399994,0.0067284572869539,0.1458871960639953
1630067141567,0.2547141909599304,0.3364757001399994,0.0117023568600416,0.1458871960639953
1630067141614,0.2694927453994751,0.3364757001399994,0.0191015116870403,0.1458871960639953
1630067141692,0.2769055962562561,0.3364757001399994,0.0320902839303016,0.1360349208116531
1630067141817,0.2811520099639892,0.1184780746698379,0.05104710906744,0.1225198879837989
1630067141958,0.2844608128070831,0.1127005368471145,0.0753127709031105,0.0985613316297531
1630067142067,0.2894501388072967,0.1136360689997673,0.0998082086443901,0.0763807296752929
1630067142179,0.2984029650688171,0.1073628664016723,0.1184495240449905,0.0797383785247802
1630067142211,0.3136809468269348,0.092650793492794,0.1285360157489776,0.1096999645233154
1630067142320,0.3347909152507782,0.0757499933242797,0.1320554614067077,0.1378068774938583
1630067142429,0.356769323348999,0.0616339705884456,0.1331804990768432,0.1333892792463302
1630067142570,0.3742988407611847,0.0511672906577587,0.1338561028242111,0.1130405366420745
1630067142617,0.385806679725647,0.0435338877141475,0.1335474699735641,0.08668714761734
1630067142757,0.3935576975345611,0.0378259643912315,0.1320329755544662,0.0622370988130569
1630067142898,0.3990533351898193,0.0326458439230918,0.1295631825923919,0.0449465550482273
1630067142960,0.4026900827884674,0.0263641756027936,0.1252422928810119,0.036710575222969
1630067143101,0.404546707868576,-0.0001596824440639,0.1176495403051376,0.0398715771734714
1630067143166,0.4052716493606567,-0.0111391451209783,0.106364719569683,0.057104866951704
1630067143276,0.4073843657970428,-0.0030194444116204,0.0925253257155418,0.0870139226317405
1630067143307,0.4162974059581756,0.013473005965352,0.0771961286664009,0.1122958734631538
1630067143448,0.4372894763946533,0.0268510542809963,0.0638553574681282,0.1299317181110382
1630067143541,0.4691744148731231,0.0334224551916122,0.0608298256993293,0.1417537629604339
1630067143635,0.5036735534667969,0.0364351868629455,0.0759720206260681,0.1534037739038467
1630067143760,0.5319392681121826,0.0389421842992305,0.1087236031889915,0.161388874053955
1630067143854,0.5508008003234863,0.0414199270308017,0.1493219137191772,0.171687439084053
1630067144010,0.5621316432952881,0.0436445288360118,0.1857592016458511,0.1906653046607971
1630067144072,0.5687465071678162,0.0463140569627285,0.2102581560611724,0.2018207162618637
1630067144135,0.5775858163833618,0.052760899066925,0.222420796751976,0.2188804596662521
1630067144326,0.5889528393745422,0.0658644959330558,0.2266766130924224,0.2395676225423813
1630067144435,0.6027920246124268,0.0725791975855827,0.22891166806221,0.2614614069461822
1630067144467,0.6190850734710693,0.081975370645523,0.2316203713417053,0.2829273343086242
1630067144545,0.6372299194335938,0.0925753787159919,0.234141856431961,0.3012188673019409
1630067144638,0.6561216115951538,0.0998240038752555,0.2349404841661453,0.3112033009529114
1630067144763,0.674645721912384,0.0977724120020866,0.2320928871631622,0.311338871717453
1630067144826,0.6902974247932434,0.0836724936962127,0.224182516336441,0.3068661987781524
1630067144966,0.6978709101676941,0.0607632212340831,0.2104649990797042,0.3060323297977447
1630067145091,0.692861795425415,0.0382821783423423,0.1914355754852295,0.3122203946113586
1630067145156,0.692861795425415,0.0255519822239875,0.1670949906110763,0.3122203946113586
1630067145281,0.692861795425415,0.0277502126991748,0.1358014643192291,0.3122203946113586
1630067145328,0.692861795425415,0.0332265272736549,0.0968914702534675,0.3122203946113586
1630067145453,0.692861795425415,0.0297758448868989,0.0542899370193481,0.3122203946113586
1630067145641,0.692861795425415,0.0254727881401777,0.0170937795192003,0.3122203946113586
1630067145719,0.3188050985336303,0.0132027314975857,-0.0059909131377935,-0.0850398167967796
1630067145781,0.3339123427867889,-0.0184339899569749,-0.012245088815689,-0.0628977566957473
1630067145875,0.3369358777999878,0.0092459069564938,-0.0047906339168548,-0.0409744046628475
1630067146016,0.3284169137477875,0.0568597912788391,0.0121041731908917,-0.0181770510971546
1630067146094,0.3145068883895874,0.1118108108639717,0.0341859571635723,0.0028783620800822
1630067146190,0.3011872172355652,0.1552604436874389,0.0562841184437274,0.0185547620058059
1630067146299,0.2924734950065613,0.1782179325819015,0.0743446052074432,0.0296926144510507
1630067146424,0.2898487448692322,0.1834145635366439,0.0864146724343299,0.0377085171639919
1630067146487,0.2920409440994262,0.178630992770195,0.0915439054369926,0.0414084009826183
1630067146612,0.2956877946853637,0.1696609109640121,0.0896264761686325,0.0394060723483562
1630067146674,0.2966935336589813,0.1579663902521133,0.0825308263301849,0.0350910723209381
1630067146768,0.2933242619037628,0.1436429321765899,0.0737843438982963,0.0335154309868812
1630067146940,0.2859311699867248,0.1355633288621902,0.0657765194773674,0.0431258790194988
1630067147034,0.2765575647354126,0.1288484334945678,0.0582556389272213,0.0533963739871978
1630067147161,0.2673264741897583,0.122200883924961,0.0511897355318069,0.0625966787338256
1630067147208,0.2616971433162689,0.1176180094480514,0.046418409794569,0.0770701915025711
1630067147301,0.2631869614124298,0.1175595521926879,0.0452006869018077,0.0955995917320251
1630067147489,0.2714439332485199,0.1174343526363372,0.0435901433229446,0.113817848265171
1630067147504,0.2805284857749939,0.1078218594193458,0.0353071577847003,0.1259382665157318
1630067147661,0.2865583002567291,0.0827912911772728,0.0166025701910257,0.125828206539154
1630067147817,0.2965317964553833,0.0139865856617689,-0.0324899032711982,0.1264677047729492
1630067147895,0.3049671053886413,-0.0069121816195547,-0.0452922470867633,0.1284051090478897
1630067148036,0.3139612078666687,-0.0152374804019927,-0.0421548448503017,0.1122456789016723
1630067148146,0.3208586871623993,-0.0162447337061166,-0.0201859716325998,0.0985410511493682
1630067148241,0.3245600461959839,-0.0124652748927474,0.0188740957528352,0.0887007415294647
1630067148273,0.3278045058250427,-0.0033029522746801,0.0658320486545562,0.0772482976317405
1630067148398,0.3335883319377899,0.011073981411755,0.109145663678646,0.0772482976317405
1630067148460,0.3427388668060303,0.0281486622989177,0.1416693180799484,0.0772482976317405
1630067148632,0.3499715328216553,0.0448452457785606,0.1630385965108871,0.0772482976317405
1630067148726,0.3490566909313202,0.0573856122791767,0.1735711693763733,0.0656301379203796
1630067148804,0.3380982577800751,0.0625964403152465,0.1723780781030655,0.0334319248795509
1630067148960,0.3243526220321655,0.0588229112327098,0.1611005067825317,-0.026364816352725
1630067148991,0.3193526864051819,0.0483838990330696,0.147665187716484,-0.1233702600002288
1630067149100,0.3261581063270569,0.0389259308576583,0.1405482292175293,-0.1233702600002288
1630067149228,0.336500734090805,0.0379770584404468,0.1403895020484924,-0.1233702600002288
1630067149338,0.3388695418834686,0.0455875694751739,0.1409018039703369,-0.1233702600002288
1630067149400,0.33531454205513,0.0492451637983322,0.1368324905633926,-0.1233702600002288
1630067149510,0.3262453079223633,0.0514882281422615,0.1282641291618347,-0.1233702600002288
1630067149635,0.3158965706825256,0.0531434640288353,0.1156921088695526,-0.1233702600002288
1630067149713,0.3108566105365753,0.05577839538455,0.0986614897847175,-0.1233702600002288
1630067149869,0.3122153580188751,0.0591160953044891,0.0779204368591308,-0.1233702600002288
1630067149963,0.3159761428833008,0.0614482797682285,0.05646563321352,-0.1233702600002288
1630067150088,0.317617654800415,0.0613347478210926,0.0387153662741184,-0.1233702600002288
1630067150134,0.3189335465431213,0.0575954094529151,0.0283441543579101,-0.1233702600002288
1630067150248,0.3265475332736969,0.0493720434606075,0.0309668034315109,-0.1233702600002288
1630067150341,0.3470177054405212,0.0369391143321991,0.0570541955530643,-0.1233702600002288
1630067150529,0.3470177054405212,0.0186375956982374,0.1100111901760101,-0.1233702600002288
1630067150591,0.3470177054405212,0.0197775121778249,0.1729003489017486,-0.1233702600002288
1630067150654,0.3470177054405212,0.0220034513622522,0.2245659530162811,-0.1233702600002288
1630067150716,0.3470177054405212,0.0006574566359631,0.255074679851532,-0.1233702600002288
1630067150841,0.2160039395093917,-0.0597260259091854,0.2671479284763336,-0.1233702600002288
1630067150966,0.237236201763153,-0.0937508568167686,0.2709082961082458,0.0447991006076335
1630067151076,0.2532329559326172,-0.1221345067024231,0.2738570272922516,0.0423637554049491
1630067151173,0.2678185999393463,-0.1400255560874939,0.2773568630218506,0.0305338054895401
1630067151251,0.2795891165733337,-0.1462208926677703,0.2795212268829345,0.0060066548176109
1630067151345,0.2830835282802582,-0.1407088935375213,0.2785290777683258,-0.0260270461440086
1630067151501,0.2755162417888641,-0.1244616881012916,0.2748045027256012,-0.0563354603946208
1630067151548,0.2605020701885223,-0.100668653845787,0.2706091403961181,-0.078114315867424
1630067151657,0.2440153658390045,-0.0748237967491149,0.2667377889156341,-0.0886578634381294
1630067151798,0.2440153658390045,-0.0512674897909164,0.2614491283893585,-0.0886578634381294
1630067151923,0.2440153658390045,-0.0320519767701625,0.2497986704111099,-0.0886578634381294
1630067151969,0.2440153658390045,-0.032982762902975,0.2273842990398407,-0.0886578634381294
1630067152079,0.2544577419757843,-0.0365542657673358,0.1854260563850402,-0.0886578634381294
1630067152160,0.2608963847160339,-0.0381105467677116,0.1383546292781829,-0.1114240959286689
1630067152269,0.2619812786579132,-0.0332687944173812,0.104472704231739,-0.1330150067806244
1630067152394,0.2573714554309845,-0.0188493244349956,0.0953923761844635,-0.1550426036119461
1630067152472,0.2487936466932296,0.0046931449323892,0.1046911925077438,-0.188600942492485
1630067152566,0.2345978766679763,0.0338668413460254,0.1191530898213386,-0.2395148873329162
1630067152660,0.2083342224359512,0.0654026493430137,0.1033269092440605,-0.29554283618927
1630067152722,0.1627167016267776,0.0972359627485275,0.0762513801455497,-0.3299115598201751
1630067152878,0.1627167016267776,0.1271232068538665,0.043583832681179,-0.3299115598201751
1630067153019,0.1627167016267776,0.1161605566740036,0.0142641514539718,-0.3299115598201751
1630067153130,0.1627167016267776,0.0885597988963127,-0.0087228612974286,-0.3299115598201751
1630067153162,0.1627167016267776,0.0429454818367958,-0.0278773363679647,-0.3299115598201751
1630067153318,0.1627167016267776,-0.0183386206626892,-0.0504068993031978,-0.3299115598201751
1630067153396,0.3149826228618622,-0.0930380746722221,-0.0888232216238975,-0.3299115598201751
1630067153552,0.3183355927467346,-0.1042213067412376,-0.1582211107015609,0.0344540141522884
1630067153615,0.330775499343872,-0.1160580590367317,-0.1557531505823135,0.056990448385477
1630067153693,0.3496160507202148,-0.127742201089859,-0.1569521278142929,0.0813217982649803
1630067153787,0.3657794594764709,-0.1402121484279632,-0.1557558625936508,0.1096834316849708
1630067153865,0.3719768226146698,-0.1535849273204803,-0.1548644304275512,0.1338362395763397
1630067153974,0.366055816411972,-0.1644280850887298,-0.1578467488288879,0.1432936787605285
1630067154099,0.351959079504013,-0.1682772934436798,-0.1646037101745605,0.1364619731903076
1630067154255,0.334526389837265,-0.165570855140686,-0.1698269695043563,0.11896912753582
1630067154333,0.3184915781021118,-0.1611668765544891,-0.1704794764518737,0.1002315655350685
1630067154427,0.3068974912166595,-0.1587035208940506,-0.1663990169763565,0.0873293057084083
1630067154521,0.3006983995437622,-0.1647296994924545,-0.1575563848018646,0.0837395340204238
1630067154646,0.2994978725910187,-0.1683706492185592,-0.1442939639091491,0.0910166501998901
1630067154755,0.3016687333583832,-0.1625905334949493,-0.1314445436000824,0.1173721775412559
1630067154833,0.3004224002361297,-0.1468746066093444,-0.124725192785263,0.1250167489051818
1630067154927,0.2991621792316437,-0.1257281452417373,-0.1336031407117843,0.129176989197731
1630067155005,0.2963559627532959,-0.1042826548218727,-0.1407471895217895,0.1307770311832428
1630067155130,0.2869647145271301,-0.0825418308377265,-0.1413014382123947,0.1302074044942855
1630067155227,0.2669935226440429,-0.0742197409272193,-0.1388580203056335,0.1242181286215782
1630067155383,0.2382454574108123,-0.0629696771502494,-0.1384647935628891,0.1077987030148506
1630067155430,0.2093574106693267,-0.0481426976621151,-0.1378204226493835,0.0818579941987991
1630067155492,0.1930949985980987,-0.0315524563193321,-0.1307874470949173,0.0595508404076099
1630067155586,0.1955463588237762,-0.0169664155691862,-0.1138741225004196,0.0578535608947277
1630067155711,0.2161804139614105,-0.0056860195472836,-0.0888126716017723,0.0849591791629791
1630067155804,0.2481531798839569,0.0055270614102482,-0.0593300089240074,0.1328710615634918
1630067155961,0.2481531798839569,0.0010185635183006,-0.0285418406128883,0.1328710615634918
1630067156039,0.2481531798839569,0.0022135076578706,-0.0184182859957218,0.1328710615634918
1630067156148,0.2481531798839569,6.929101800778881e-05,-0.0328319855034351,0.1328710615634918
1630067156244,0.2481531798839569,-0.0164722148329019,-0.0653241649270057,0.1328710615634918
1630067156338,0.2481531798839569,-0.0488968230783939,-0.0989961102604866,0.1328710615634918
1630067156432,0.1629483997821808,-0.0887544900178909,-0.0918317064642906,0.1328710615634918
1630067156557,0.158117264509201,-0.1217182204127311,-0.0767863765358924,0.0100031327456235
1630067156635,0.1543031930923462,-0.1495232433080673,-0.0586077608168125,0.0838519111275672
1630067156729,0.1543659269809723,-0.1399008631706237,-0.0447649583220481,0.1295277625322342
1630067156822,0.1575458496809005,-0.1365371197462082,-0.0390088334679603,0.1475296318531036
1630067156963,0.1636839061975479,-0.1356912404298782,-0.0398405343294143,0.1442775279283523
1630067157025,0.1722001731395721,-0.1356394588947296,-0.0443759299814701,0.1317768990993499
1630067157169,0.1851324886083603,-0.1374308764934539,-0.0514090508222579,0.1242227703332901
1630067157294,0.1992154419422149,-0.1399620920419693,-0.0599177181720733,0.1287371665239334
1630067157356,0.2067031115293502,-0.1405050754547119,-0.064288817346096,0.1407310962677002
1630067157419,0.2042479813098907,-0.1347698718309402,-0.0560966357588768,0.1488045454025268
1630067157575,0.1949240267276764,-0.1298357993364334,-0.0289011728018522,0.1460427045822143
1630067157669,0.1888007521629333,-0.1265605837106704,0.0127094462513923,0.1334239095449447
1630067157762,0.1827922612428665,-0.1247026473283767,0.0536238998174667,0.1328141540288925
1630067157872,0.176669031381607,-0.1248003616929054,0.0822554007172584,0.1241765692830085
1630067157966,0.1679800897836685,-0.1287545263767242,0.0972418263554573,0.1059862524271011
1630067158044,0.1700286716222763,-0.1373981833457946,0.104065366089344,0.0974616184830665
1630067158156,0.1726298928260803,-0.1454672366380691,0.110152468085289,0.077802874147892
1630067158343,0.1740878075361251,-0.1514161378145218,0.1200614646077156,0.0521313734352588
1630067158421,0.1736222505569458,-0.1549958288669586,0.1332696378231048,0.0298913642764091
1630067158453,0.1698226332664489,-0.1573836058378219,0.1456034332513809,0.019658874720335
1630067158562,0.1609888970851898,-0.1594701111316681,0.154483214020729,0.0200389418751001
1630067158640,0.14057557284832,-0.1594646275043487,0.1611070334911346,0.0162011366337537
1630067158765,0.1052876561880111,-0.1578487008810043,0.1694477051496505,-0.0113177485764026
1630067158843,0.0657499209046363,-0.1590726971626281,0.1792050004005432,-0.0771947354078292
1630067159046,0.041251853108406,-0.1695923060178756,0.1832648515701294,-0.1800703704357147
1630067159109,0.0421485677361488,-0.1900826394557953,0.1722778975963592,-0.2968604862689972
1630067159141,0.0421485677361488,-0.2134807407855987,0.1429426968097686,-0.2968604862689972
1630067159270,0.0421485677361488,-0.2068370282649994,0.1021887138485908,-0.2968604862689972
1630067159426,0.0421485677361488,-0.1884378939867019,0.0625921785831451,-0.2968604862689972
1630067159426,0.0421485677361488,-0.1645823121070861,0.0315687768161296,-0.2968604862689972
1630067159598,0.0421485677361488,-0.1498090326786041,0.0061365240253508,-0.2968604862689972
1630067159691,0.0421485677361488,-0.1587760299444198,-0.0219405386596918,-0.2968604862689972
1630067159785,0.2117737978696823,-0.1794488877058029,-0.0566136129200458,0.0104795536026358
1630067159926,0.1936278045177459,-0.2014932930469513,-0.0935045033693313,0.0270201582461595
1630067160019,0.1781456172466278,-0.2159532457590103,-0.122966282069683,0.0341852977871894
1630067160066,0.1699932664632797,-0.2142746895551681,-0.1377615928649902,0.0344820357859134
1630067160225,0.1738444715738296,-0.1962382048368454,-0.1398836523294448,0.0294422935694456
1630067160303,0.1884900778532028,-0.1711934804916381,-0.1412506252527237,0.0213792622089386
1630067160397,0.2091706693172454,-0.1502213478088379,-0.1503139436244964,0.0147905200719833
1630067160538,0.2278511673212051,-0.13838592171669,-0.1659575849771499,0.0098323468118906
1630067160616,0.2380177080631256,-0.1319962739944458,-0.1777631789445877,0.0035505797713994
1630067160694,0.2365571707487106,-0.1255921423435211,-0.177480861544609,-0.0068388725630939
1630067160944,0.2257702201604843,-0.1165480762720108,-0.1665567755699157,-0.0195702854543924
1630067160991,0.2123865485191345,-0.1031338348984718,-0.1500903666019439,-0.0307303592562675
1630067161100,0.1902404874563217,-0.0846891403198242,-0.1302981525659561,-0.0375170409679412
1630067161136,0.1861742585897445,-0.0586728751659393,-0.1084178537130355,-0.0472878888249397
1630067161181,0.1934330463409423,-0.0258323159068822,-0.0870071426033973,-0.0655721649527549
1630067161275,0.2065772414207458,0.0084469160065054,-0.0701681077480316,-0.0912043750286102
1630067161462,0.2211446464061737,0.0373453497886657,-0.0620489828288555,-0.1187826246023178
1630067161634,0.2290941327810287,0.0564028471708297,-0.064193807542324,-0.1358198821544647
1630067161649,0.2365943491458892,0.0656038895249366,-0.0642025917768478,-0.152374118566513
1630067161712,0.2395177334547042,0.0686986818909645,-0.0697381794452667,-0.1669372469186782
1630067161821,0.2345535010099411,0.0710290744900703,-0.0783210098743438,-0.1794145405292511
1630067161918,0.2196207791566848,0.0744272023439407,-0.0875778049230575,-0.19482983648777
1630067162059,0.1974357515573501,0.0781024768948555,-0.0944740027189254,-0.2154867053031921
1630067162168,0.1764494776725769,0.0792530998587608,-0.0972920060157775,-0.2372222691774368
1630067162309,0.1700737476348877,0.076135829091072,-0.0940036550164222,-0.2501891851425171
1630067162356,0.1867477297782898,0.0815339982509613,-0.0839784666895866,-0.2533094584941864
1630067162481,0.2204920947551727,0.0847534388303756,-0.0720050781965255,-0.2586476504802704
1630067162574,0.2598338723182678,0.0841644927859306,-0.0671341121196746,-0.2774014174938202
1630067162652,0.2598338723182678,0.0785721018910408,-0.0770881995558738,-0.2774014174938202
1630067162777,0.2598338723182678,0.0671845823526382,-0.0770881995558738,-0.2774014174938202
1630067162809,0.2598338723182678,0.0486092902719974,-0.0770881995558738,-0.2774014174938202
1630067162902,0.2598338723182678,0.0285699535161256,-0.0770881995558738,-0.2774014174938202
1630067163012,0.2598338723182678,0.0133913019672036,-0.0770881995558738,-0.2774014174938202
1630067163155,0.2598338723182678,0.0029378987383097,0.119156002998352,-0.2774014174938202
1630067163311,0.2598338723182678,-0.0097975730895996,0.0788782835006713,-0.0131607837975025
1630067163373,0.055630899965763,-0.0301902443170547,0.0427112616598606,-0.0177359860390424
1630067163483,0.0912513583898544,-0.0548819378018379,0.0114630367606878,-0.0128796566277742
1630067163576,0.131661906838417,-0.0774332880973815,-0.0138675412163138,-0.0055925110355019
1630067163623,0.1733153462409973,-0.0928186774253845,-0.0339860953390598,-0.0025740519631654
1630067163764,0.1733153462409973,-0.0911600068211555,-0.0496804900467395,-0.0025740519631654
1630067163889,0.1733153462409973,-0.0911600068211555,-0.0613697879016399,-0.0025740519631654
1630067163951,0.1733153462409973,-0.0911600068211555,-0.0685953497886657,-0.0025740519631654
1630067164029,0.1733153462409973,-0.0911600068211555,-0.0716511309146881,-0.0025740519631654
1630067164201,0.1733153462409973,-0.1153644248843193,-0.0724135264754295,-0.0025740519631654
1630067164248,0.1733153462409973,-0.147099569439888,-0.0710409507155418,-0.0025740519631654
1630067164373,0.1733153462409973,-0.1755795776844024,-0.0911091715097427,-0.0025740519631654
1630067164498,0.1733153462409973,-0.1957491636276245,-0.1023604199290275,-0.0111053548753261
1630067164607,0.1967845410108566,-0.2096018195152282,-0.0995407551527023,-0.0139988670125603
1630067164670,0.2266987562179565,-0.2215352058410644,-0.0902977287769317,-0.0059773600660264
1630067164748,0.2585466206073761,-0.2296858429908752,-0.0817636847496032,0.0077607384882867
1630067164826,0.2585466206073761,-0.2296858429908752,-0.0741857141256332,0.0077607384882867
1630067164967,0.2585466206073761,-0.2296858429908752,-0.063390165567398,0.0077607384882867
1630067165076,0.2585466206073761,-0.2296858429908752,-0.0508897751569747,0.0077607384882867
1630067165189,0.2585466206073761,-0.2296858429908752,-0.0371075272560119,0.0077607384882867
1630067165314,0.2585466206073761,-0.2296858429908752,-0.0221557654440403,0.0077607384882867
1630067165361,0.2585466206073761,-0.2296858429908752,-0.0062563004903495,0.0077607384882867
1630067165423,0.2585466206073761,0.2182233184576034,0.0093958377838134,0.0077607384882867
1630067165548,0.2585466206073761,0.2327535897493362,0.0240691341459751,0.0077607384882867
1630067165689,0.2585466206073761,0.2426309138536453,0.0395339168608188,0.0077607384882867
1630067165767,0.2585466206073761,0.2540513575077057,0.0557758770883083,0.0077607384882867
1630067165876,0.2585466206073761,0.2707168459892273,0.066679373383522,0.0077607384882867
1630067166017,0.2585466206073761,0.2881187498569488,0.0737216770648956,0.0077607384882867
1630067166095,0.2585466206073761,0.2881187498569488,0.0317352376878261,0.0077607384882867
1630067166176,0.2585466206073761,0.2881187498569488,0.0283056497573852,0.0077607384882867
1630067166301,0.2585466206073761,0.2881187498569488,0.1174715608358383,0.0077607384882867
1630067166379,0.2585466206073761,0.2881187498569488,0.1998399794101715,0.0077607384882867
1630067166504,0.2585466206073761,0.2881187498569488,0.2539539039134979,0.0077607384882867
1630067166597,0.2585466206073761,0.2881187498569488,0.2539539039134979,0.0077607384882867
1630067166676,0.2585466206073761,0.3045828640460968,0.2539539039134979,0.0077607384882867
1630067166785,0.2585466206073761,0.3178694546222687,0.2539539039134979,0.0077607384882867
1630067166894,0.2585466206073761,0.327818363904953,0.2539539039134979,0.0077607384882867
1630067167035,0.2585466206073761,0.3369199633598327,0.2535035610198974,0.0077607384882867
1630067167097,0.2585466206073761,0.3486709892749786,0.2609734237194061,0.0077607384882867
1630067167225,0.2585466206073761,0.3486709892749786,0.2724091112613678,0.0077607384882867
1630067167303,0.2585466206073761,0.3486709892749786,0.2836922109127044,0.0077607384882867
1630067167428,0.2585466206073761,0.3486709892749786,0.2836922109127044,0.0077607384882867
1630067167616,0.2585466206073761,0.3486709892749786,0.299293041229248,0.0077607384882867
1630067167678,0.2585466206073761,0.3486709892749786,0.3289900422096252,0.0077607384882867
1630067167741,0.2585466206073761,0.3486709892749786,0.3569192588329315,0.0077607384882867
1630067167850,0.2585466206073761,0.3486709892749786,0.3671967387199402,0.0077607384882867
1630067167912,0.2585466206073761,0.3486709892749786,0.3539449572563171,0.0077607384882867
1630067168037,0.2585466206073761,0.3486709892749786,0.3247984945774078,0.0077607384882867
1630067168100,0.2585466206073761,0.3486709892749786,0.3247984945774078,0.0077607384882867
1630067168212,0.2585466206073761,0.3486709892749786,0.3247984945774078,0.0077607384882867
1630067168306,0.2585466206073761,0.3486709892749786,0.3247984945774078,0.0077607384882867
1630067168384,0.2585466206073761,0.3486709892749786,0.3247984945774078,0.0077607384882867
1630067168524,0.2585466206073761,0.3219872415065765,0.3066474199295044,0.0077607384882867
1630067168571,0.2585466206073761,0.2771136462688446,0.2849910259246826,0.0077607384882867
1630067168743,0.2585466206073761,0.2422375977039337,0.2556894719600677,0.0077607384882867
1630067168868,0.2585466206073761,0.2126203924417495,0.2114403694868087,0.0077607384882867
1630067168931,0.2585466206073761,0.1848888844251632,0.1981169581413269,0.0077607384882867
1630067169055,0.2585466206073761,0.158078521490097,0.1722046881914138,0.0077607384882867
1630067169102,0.1026510000228881,0.1326715052127838,0.1397733390331268,0.0077607384882867
1630067169212,0.1239305734634399,0.109083354473114,0.1105496063828468,0.0077607384882867
1630067169352,0.1447233706712722,0.087047204375267,0.0907520800828933,0.0077607384882867
1630067169430,0.1539830416440963,0.0664702579379081,0.0798004493117332,0.0077607384882867
1630067169555,0.1500936895608902,0.0478983893990516,0.072184033691883,0.0077607384882867
1630067169633,0.135600596666336,0.0330785512924194,0.0647472664713859,0.0077607384882867
1630067169774,0.117680087685585,-0.0485630892217159,0.0586806572973728,0.0077607384882867
1630067169852,0.1034231781959533,-0.1007445231080055,0.055162776261568,0.0077607384882867
1630067169962,0.1034231781959533,-0.122417040169239,0.055162776261568,0.0077607384882867
1630067170071,0.1034231781959533,-0.1312933415174484,0.0462390780448913,0.0077607384882867
1630067170133,0.1034231781959533,-0.1453510522842407,0.028475971892476,0.0077607384882867
1630067170278,0.1034231781959533,-0.1596315503120422,0.0021455916576087,0.0077607384882867
1630067170357,0.1086931005120277,-0.1728071421384811,-0.027458531782031,0.0077607384882867
1630067170419,0.110809288918972,-0.181862011551857,-0.0508308596909046,0.0077607384882867
1630067170544,0.1100058108568191,-0.1850487291812896,-0.0594653785228729,0.0077607384882867
1630067170685,0.103863812983036,-0.1827111095190048,-0.0500206500291824,0.0077607384882867
1630067170794,0.0855614468455314,-0.1754483729600906,-0.0317458398640155,0.0077607384882867
1630067170841,0.0480445586144924,-0.1621490716934204,-0.0173219721764326,0.0077607384882867
1630067170950,-0.0022968701086938,-0.1414560824632644,-0.0133416997268795,0.0077607384882867
1630067171091,-0.0022968701086938,-0.1135460883378982,-0.0133416997268795,0.0077607384882867
1630067171153,-0.0022968701086938,-0.0842081382870674,-0.0133416997268795,0.0077607384882867
1630067171310,-0.0022968701086938,-0.0842081382870674,-0.0133416997268795,0.0077607384882867
1630067171388,-0.0022968701086938,-0.0842081382870674,-0.0133416997268795,0.0077607384882867
1630067171544,-0.0022968701086938,-0.0842081382870674,-0.0133416997268795,0.0077607384882867
1630067171559,-0.0022968701086938,-0.0842081382870674,-0.0133416997268795,0.0077607384882867
1630067171638,-0.0022968701086938,-0.0842081382870674,-0.0133416997268795,0.0077607384882867
1630067171778,-0.0022968701086938,-0.0842081382870674,-0.0133416997268795,0.0077607384882867
1630067171872,-0.0022968701086938,-0.0842081382870674,-0.0133416997268795,0.0077607384882867
1630067171966,-0.0022968701086938,-0.0842081382870674,-0.0133416997268795,0.0077607384882867
1630067172106,-0.0022968701086938,-0.0842081382870674,-0.0133416997268795,0.0077607384882867
1630067172171,-0.0022968701086938,-0.0842081382870674,-0.0133416997268795,0.0077607384882867
1630067172328,-0.0022968701086938,-0.0842081382870674,-0.0133416997268795,0.0077607384882867
1630067172515,-0.0022968701086938,-0.0842081382870674,-0.3388309776782989,0.0077607384882867
1630067172578,-0.0022968701086938,-0.0842081382870674,-0.3494361340999603,0.0077607384882867
1630067172656,-0.0022968701086938,-0.0842081382870674,-0.3352368474006653,0.0077607384882867
1630067172796,-0.0022968701086938,-0.0842081382870674,-0.3012346625328064,0.0077607384882867
1630067172890,-0.0022968701086938,-0.0842081382870674,-0.2614121437072754,0.0077607384882867
1630067173031,-0.0022968701086938,0.0003084602649323,-0.2281168848276138,0.0077607384882867
1630067173078,-0.0022968701086938,0.0005108730401843,-0.2089673578739166,-0.1185168102383613
1630067173158,-0.0022968701086938,-0.005529819522053,-0.2055998295545578,-0.1338046193122863
1630067173267,-0.0022968701086938,-0.0114088114351034,-0.2123148739337921,-0.1314267367124557
1630067173392,0.2445671558380127,-0.0114088114351034,-0.2123148739337921,-0.108272947371006
1630067173470,0.2351105511188507,-0.0114088114351034,-0.2123148739337921,-0.108272947371006
1630067173595,0.2351105511188507,-0.0114088114351034,-0.2123148739337921,-0.108272947371006
1630067173689,0.2351105511188507,-0.0114088114351034,-0.2063175290822982,-0.108272947371006
1630067173767,0.2351105511188507,-0.0114088114351034,-0.1973179578781128,-0.108272947371006
1630067173954,0.2351105511188507,-0.0114088114351034,-0.1825360655784607,-0.108272947371006
1630067174001,0.2351105511188507,-0.0114088114351034,-0.1606378257274627,-0.108272947371006
1630067174142,0.2351105511188507,-0.0114088114351034,-0.1554503738880157,-0.108272947371006
1630067174238,0.2351105511188507,-0.0024613796267658,-0.1534665673971176,-0.108272947371006
1630067174347,0.2475221902132034,-0.0015222377842292,-0.1612065583467483,-0.1068399399518966
1630067174472,0.2245578169822693,-0.0033122189342975,-0.1795674860477447,-0.1089415997266769
1630067174504,0.2398381382226944,-0.0048863789997994,-0.2021110355854034,-0.1088627874851226
1630067174582,0.2689779996871948,-0.0109132407233119,-0.2155815809965133,-0.1088627874851226
1630067174707,0.298766940832138,-0.0201538018882274,-0.2101205885410308,-0.1088627874851226
1630067174847,0.3282971084117889,-0.0261212158948183,-0.1897265613079071,-0.1088627874851226
1630067174941,0.3594876229763031,-0.0251338016241788,-0.174592912197113,-0.1088627874851226
1630067175097,0.3825174570083618,-0.0170278642326593,-0.1495139747858047,-0.1088627874851226
1630067175162,0.3825174570083618,-0.0094175701960921,-0.1212378814816474,-0.1088627874851226
1630067175318,0.3825174570083618,-0.0094175701960921,-0.0924047380685806,-0.1088627874851226
1630067175428,0.3825174570083618,-0.0094175701960921,-0.0931627303361892,-0.1088627874851226
1630067175506,0.3825174570083618,-0.0094175701960921,-0.0975088402628898,-0.1088627874851226
1630067175662,0.3825174570083618,-0.0094175701960921,-0.0914021655917167,-0.1088627874851226
1630067175756,0.3825174570083618,-0.0094175701960921,-0.0896806195378303,-0.1088627874851226
1630067175787,0.3825174570083618,-0.0094175701960921,-0.090057723224163,-0.1088627874851226
1630067175912,0.4063555896282196,-0.0149740353226661,-0.0901988819241523,-0.1088627874851226
1630067176115,0.4254075288772583,-0.022276809439063,-0.084904059767723,-0.1088627874851226
1630067176180,0.4335945844650268,-0.0208990704268217,-0.0801438987255096,-0.1088627874851226
1630067176258,0.4335945844650268,-0.0055139036849141,-0.0758611559867858,-0.1088627874851226
1630067176368,0.4335945844650268,-0.0055139036849141,-0.0714434683322906,-0.1088627874851226
1630067176430,0.4335945844650268,-0.0055139036849141,-0.0716449916362762,-0.1088627874851226
1630067176508,0.4335945844650268,-0.0055139036849141,-0.0842746570706367,-0.1088627874851226
1630067176696,0.4335945844650268,-0.0055139036849141,-0.1121481955051422,-0.1088627874851226
1630067176790,0.4335945844650268,-0.0055139036849141,-0.147995263338089,-0.1088627874851226
1630067176883,0.4335945844650268,-0.0055139036849141,-0.1770162135362625,-0.1088627874851226
1630067176977,0.4335945844650268,-0.0055139036849141,-0.1934290379285812,-0.1088627874851226
1630067177086,0.4335945844650268,-0.0055139036849141,-0.2012676149606704,-0.1088627874851226
1630067177133,0.4335945844650268,-0.0055139036849141,-0.2012676149606704,-0.1088627874851226
1630067177247,0.4335945844650268,-0.0055139036849141,-0.2012676149606704,-0.1088627874851226
1630067177403,0.4335945844650268,-0.0055139036849141,-0.2012676149606704,-0.1088627874851226
1630067177434,0.4335945844650268,-0.0055139036849141,-0.2012676149606704,-0.1088627874851226
1630067177543,0.4335945844650268,-0.0055139036849141,-0.2012676149606704,-0.1088627874851226
1630067177684,0.4335945844650268,-0.0055139036849141,-0.2012676149606704,-0.1088627874851226
1630067177731,0.4335945844650268,-0.0055139036849141,-0.2012676149606704,-0.1088627874851226
1630067177887,0.4335945844650268,-0.0055139036849141,-0.2012676149606704,-0.1088627874851226
1630067177965,0.4335945844650268,-0.0055139036849141,-0.2012676149606704,-0.1088627874851226
1630067178075,0.4335945844650268,-0.2732497751712799,-0.2012676149606704,-0.1088627874851226
1630067178156,0.4335945844650268,-0.2891277074813843,-0.2012676149606704,-0.1088627874851226
1630067178296,0.4335945844650268,-0.2910568416118622,-0.2012676149606704,-0.1088627874851226
1630067178374,0.4335945844650268,-0.2854750454425812,-0.2012676149606704,-0.1088627874851226
1630067178546,0.4335945844650268,-0.2741215825080871,0.1312694102525711,-0.1088627874851226
1630067178624,0.4335945844650268,-0.2548618018627167,0.1360961943864822,-0.1088627874851226
1630067178687,0.4335945844650268,-0.2340128868818283,0.1180490404367446,-0.1088627874851226
1630067178796,0.4335945844650268,-0.2208530157804489,0.1180490404367446,-0.1088627874851226
1630067178859,0.4335945844650268,-0.2030892521142959,0.1180490404367446,-0.1088627874851226
1630067178937,0.4335945844650268,-0.1987399756908416,0.1180490404367446,-0.1088627874851226
1630067179109,0.4335945844650268,-0.1990894228219986,0.1180490404367446,-0.1088627874851226
1630067179189,0.4335945844650268,-0.1943260282278061,0.1047552376985549,-0.1088627874851226
1630067179283,0.4335945844650268,-0.178869754076004,0.0921789780259132,-0.1088627874851226
1630067179376,0.4335945844650268,-0.1556783616542816,0.0773478969931602,-0.1088627874851226
1630067179533,0.4335945844650268,-0.11745236068964,0.0588519088923931,-0.1088627874851226
1630067179579,0.4335945844650268,-0.0856376811861991,0.0387265123426914,-0.1088627874851226
1630067179720,0.4335945844650268,-0.0642529502511024,0.0285063777118921,-0.1088627874851226
1630067179829,0.4335945844650268,-0.0539859533309936,0.0034832425881177,-0.1088627874851226
1630067179892,-0.1033814400434494,-0.0520048961043357,-0.0392870642244815,-0.1088627874851226
1630067179986,-0.1033814400434494,-0.052747905254364,-0.0891134366393089,-0.1088627874851226
1630067180079,-0.1033814400434494,-0.0516226179897785,-0.1274098604917526,-0.1088627874851226
1630067180175,-0.1033814400434494,-0.0452403239905834,-0.1443253308534622,-0.1088627874851226
1630067180347,-0.1033814400434494,-0.0345311053097248,-0.1453064680099487,-0.1088627874851226
1630067180394,-0.1033814400434494,-0.0216303449124097,-0.1453064680099487,-0.1088627874851226
1630067180472,-0.1033814400434494,-0.0081227170303463,-0.1453064680099487,-0.1088627874851226
1630067180597,-0.1033814400434494,0.0039072427898645,-0.1469332575798034,-0.1088627874851226
1630067180675,-0.1033814400434494,0.0126706762239336,-0.1506995558738708,-0.1088627874851226
1630067180800,-0.1033814400434494,0.0159551613032817,-0.1364648640155792,-0.1088627874851226
1630067180956,-0.1033814400434494,0.0130783058702945,-0.1430803686380386,-0.1088627874851226
1630067181019,-0.1033814400434494,0.005797691643238,-0.1418418735265731,-0.1088627874851226
1630067181144,-0.1033814400434494,-0.0005161598091945,-0.1331015229225158,-0.1088627874851226
1630067181178,-0.1033814400434494,0.0012537513393908,-0.1124241575598716,-0.1088627874851226
1630067181318,-0.1033814400434494,0.0131801795214414,-0.098557598888874,-0.1088627874851226
1630067181412,-0.1033814400434494,0.0284312721341848,-0.0854964032769203,-0.1088627874851226
1630067181552,-0.1033814400434494,0.0362659692764282,-0.0768768042325973,-0.1088627874851226
1630067181631,-0.1033814400434494,0.030961250886321,-0.0744987800717353,-0.1088627874851226
1630067181724,-0.1033814400434494,0.0135342609137296,-0.0711509138345718,-0.1088627874851226
1630067181818,-0.1033814400434494,-0.0087991785258054,-0.0527604781091213,-0.1088627874851226
1630067181896,-0.1033814400434494,-0.0282809194177389,-0.0313547030091285,-0.1088627874851226
1630067181990,-0.1033814400434494,-0.0416776314377784,-0.0115391872823238,-0.1088627874851226
1630067182180,-0.1033814400434494,-0.0519545339047908,0.0076534370891749,-0.1088627874851226
1630067182242,-0.1033814400434494,-0.0635225623846054,0.0036612385883927,-0.1088627874851226
1630067182336,-0.1033814400434494,-0.0770656019449234,-0.0218472052365541,-0.1088627874851226
1630067182445,-0.1033814400434494,-0.0870818123221397,-0.0360885336995124,-0.1088627874851226
1630067182586,-0.1033814400434494,-0.0983530580997467,-0.0467571467161178,-0.1088627874851226
1630067182633,-0.1033814400434494,-0.1099807545542717,-0.0520674660801887,-0.1088627874851226
1630067182742,-0.1033814400434494,-0.1263002753257751,-0.0522087961435318,-0.1088627874851226
1630067182836,-0.1033814400434494,-0.1462048441171646,-0.0456404536962509,-0.1088627874851226
1630067182945,-0.1033814400434494,-0.1608728617429733,-0.037869669497013,-0.1088627874851226
1630067183039,-0.1033814400434494,-0.160633310675621,-0.0289806574583053,-0.1088627874851226
1630067183148,-0.1033814400434494,-0.146077960729599,-0.0172428302466869,-0.1088627874851226
1630067183292,-0.1033814400434494,-0.1279462426900863,-0.0072628487832844,-0.1088627874851226
1630067183371,-0.1033814400434494,-0.116904504597187,-0.0067702764645218,-0.1088627874851226
1630067183417,-0.1033814400434494,-0.1160907223820686,-0.0179951190948486,-0.1088627874851226
1630067183564,-0.1033814400434494,-0.1206263825297355,-0.0343069694936275,-0.1088627874851226
1630067183705,-0.1033814400434494,-0.1228469982743263,-0.0462489984929561,-0.1088627874851226
1630067183769,-0.1033814400434494,-0.1196276247501373,-0.051308162510395,-0.1088627874851226
1630067183848,-0.1033814400434494,-0.1119092777371406,-0.0526456572115421,-0.1088627874851226
1630067183941,-0.1033814400434494,-0.1119092777371406,-0.0523243956267833,-0.1088627874851226
1630067184050,-0.1033814400434494,-0.1114754006266594,-0.0426739901304245,-0.1088627874851226
1630067184159,-0.1033814400434494,-0.1097082197666168,-0.0363742932677269,-0.1088627874851226
1630067184286,-0.1033814400434494,-0.1067980974912643,-0.0355885364115238,-0.1088627874851226
1630067184380,-0.1033814400434494,-0.1055591255426406,-0.0402418039739131,-0.1088627874851226
1630067184476,-0.1033814400434494,-0.1089483126997947,-0.04846902936697,-0.1088627874851226
1630067184597,-0.1033814400434494,-0.1176888421177864,-0.0584514550864696,-0.1088627874851226
1630067184661,-0.1033814400434494,-0.136307418346405,-0.0728886276483535,-0.1088627874851226
1630067184755,-0.1033814400434494,-0.1684729307889938,-0.1058301031589508,-0.1088627874851226
1630067184865,-0.1033814400434494,-0.1909365355968475,-0.1535409092903137,-0.1088627874851226
1630067184974,-0.1033814400434494,-0.1821419447660446,-0.1979025900363922,-0.1088627874851226
1630067185069,-0.1033814400434494,-0.146001398563385,-0.2313601076602935,-0.1088627874851226
1630067185162,-0.1033814400434494,-0.1043892651796341,-0.2529200911521911,-0.1088627874851226
1630067185272,-0.1033814400434494,-0.0713143721222877,-0.2553394138813019,-0.1088627874851226
1630067185383,-0.1033814400434494,-0.0496989972889423,-0.2340149581432342,-0.1088627874851226
1630067185462,-0.1033814400434494,-0.0323355197906494,-0.2009359151124954,-0.1088627874851226
1630067185571,-0.1033814400434494,-0.0198509879410266,-0.1715269088745117,-0.1088627874851226
1630067185665,-0.1033814400434494,-0.0154831651598215,-0.1519517600536346,-0.1088627874851226
1630067185775,-0.1033814400434494,-0.0205342303961515,-0.1453866511583328,-0.1088627874851226
