timestamp,TP9,AF7,AF8,TP10
1630067051927,0.2398087084293365,0.6307891607284546,0.1434015482664108,0.4966176450252533
1630067052020,0.2398087084293365,0.6307891607284546,0.1434015482664108,0.4966176450252533
1630067052114,0.2398087084293365,0.6307891607284546,0.1434015482664108,0.4966176450252533
1630067052195,0.2398087084293365,0.6307891607284546,0.1434015482664108,0.4966176450252533
1630067052367,0.2398087084293365,0.6307891607284546,0.1434015482664108,0.4966176450252533
1630067052445,0.2398087084293365,0.6307891607284546,0.1434015482664108,0.4966176450252533
1630067052539,0.2398087084293365,0.6307891607284546,0.1434015482664108,0.4966176450252533
1630067052617,0.2398087084293365,0.6307891607284546,0.1434015482664108,0.4966176450252533
1630067052711,0.2398087084293365,0.6307891607284546,0.1434015482664108,0.4966176450252533
1630067052789,0.2398087084293365,0.6307891607284546,0.1434015482664108,0.4966176450252533
1630067052992,0.2398087084293365,0.6307891607284546,0.1434015482664108,0.4966176450252533
1630067053054,0.2398087084293365,0.6307891607284546,0.1434015482664108,0.4966176450252533
1630067053166,0.2398087084293365,0.6307891607284546,0.0848300531506538,0.4966176450252533
1630067053228,0.2398087084293365,0.6307891607284546,0.1343112885951995,0.4966176450252533
1630067053338,0.2398087084293365,0.6307891607284546,0.2848526537418365,0.4966176450252533
1630067053463,0.2398087084293365,0.6307891607284546,0.4499939680099487,0.4966176450252533
1630067053588,0.2398087084293365,0.6307891607284546,0.5674205422401428,0.4966176450252533
1630067053728,0.2398087084293365,0.6307891607284546,0.6065048575401306,0.4966176450252533
1630067053759,0.2398087084293365,0.6307891607284546,0.6083701848983765,0.4966176450252533
1630067053822,0.2398087084293365,0.6307891607284546,0.6083701848983765,0.4966176450252533
1630067053994,0.2398087084293365,0.6307891607284546,0.6083701848983765,0.4966176450252533
1630067054025,0.2398087084293365,0.6307891607284546,0.6083701848983765,0.4966176450252533
1630067054201,0.2398087084293365,0.6307891607284546,0.6118594408035278,0.4966176450252533
1630067054263,0.2398087084293365,0.6307891607284546,0.6184011697769165,0.4966176450252533
1630067054357,0.2398087084293365,0.6307891607284546,0.6188412308692932,0.4966176450252533
1630067054435,0.2398087084293365,0.6307891607284546,0.6207035779953003,0.4966176450252533
1630067054545,0.2398087084293365,0.6307891607284546,0.6207035779953003,0.4966176450252533
1630067054638,0.2398087084293365,0.6307891607284546,0.6207035779953003,0.4966176450252533
1630067054763,0.2398087084293365,-0.1401837915182113,0.6207035779953003,0.7830011248588562
1630067054888,0.2398087084293365,-0.1128841713070869,0.6207035779953003,0.8076987266540527
1630067054998,0.2398087084293365,-0.051600906997919,0.6207035779953003,0.8319144248962402
1630067055076,0.2398087084293365,0.0299401637166738,0.5986790657043457,0.8319144248962402
1630067055156,0.2398087084293365,0.1939670592546463,0.5082753896713257,0.8319144248962402
1630067055266,0.2398087084293365,0.1939670592546463,0.3890978097915649,0.8319144248962402
1630067055406,0.2398087084293365,0.1939670592546463,0.4744831919670105,0.8319144248962402
1630067055485,0.2398087084293365,0.1939670592546463,0.6535212993621826,0.8319144248962402
1630067055578,0.2398087084293365,0.1939670592546463,0.7429664134979248,0.8319144248962402
1630067055672,0.2398087084293365,0.1939670592546463,0.7651987075805664,0.8319144248962402
1630067055750,0.2398087084293365,0.1939670592546463,0.7651987075805664,0.8319144248962402
1630067055875,0.2398087084293365,0.1939670592546463,0.7664532661437988,0.8319144248962402
1630067056000,0.2398087084293365,0.1939670592546463,0.7705767750740051,0.8319144248962402
1630067056078,0.2398087084293365,0.1939670592546463,0.8058128952980042,0.8141014575958252
1630067056190,0.2398087084293365,0.2512716054916382,0.8778524398803711,0.8141014575958252
1630067056268,0.2398087084293365,0.3696958124637604,0.9313905239105223,0.8141014575958252
1630067056408,0.2398087084293365,0.4637625813484192,0.9479448795318604,0.8141014575958252
1630067056527,0.2398087084293365,0.5597193241119385,0.9479448795318604,0.8141014575958252
1630067056592,0.2398087084293365,0.7103304266929626,0.947361171245575,0.8141014575958252
1630067056749,0.2398087084293365,0.8072142004966736,0.947361171245575,0.8141014575958252
1630067056813,0.2398087084293365,0.8072142004966736,0.947361171245575,0.8141014575958252
1630067056890,0.2398087084293365,0.8072142004966736,0.947361171245575,0.8141014575958252
1630067057032,0.2398087084293365,0.8072142004966736,0.9467037916183472,0.8141014575958252
1630067057131,0.2398087084293365,0.8072142004966736,0.9146506190299988,0.8141014575958252
1630067057241,0.2398087084293365,0.8072142004966736,0.8480948805809021,0.8141014575958252
1630067057335,0.2398087084293365,0.8072142004966736,0.7955561280250549,0.8141014575958252
1630067057383,0.2398087084293365,0.8072142004966736,0.7573919892311096,0.8141014575958252
1630067057540,0.2398087084293365,0.8072142004966736,0.8440608978271484,0.8141014575958252
1630067057619,0.2398087084293365,0.8072142004966736,0.9095686674118042,0.8141014575958252
1630067057681,0.2398087084293365,0.8015709519386292,0.9133102297782898,0.8141014575958252
1630067057811,0.2398087084293365,0.790586531162262,0.908343493938446,0.8141014575958252
1630067057915,0.2398087084293365,0.790586531162262,0.718112051486969,0.8141014575958252
1630067058022,0.2398087084293365,0.790586531162262,0.7187024354934692,0.8141014575958252
1630067058131,0.2398087084293365,0.790586531162262,0.7254713177680969,0.8141014575958252
1630067058195,0.2398087084293365,0.790586531162262,0.7282791137695312,0.8141014575958252
1630067058291,0.2398087084293365,0.790586531162262,0.7290547490119934,0.8141014575958252
1630067058399,0.2398087084293365,0.790586531162262,0.7290547490119934,0.8141014575958252
1630067058525,0.2398087084293365,0.790586531162262,0.7290547490119934,0.8141014575958252
1630067058620,0.2398087084293365,0.790586531162262,0.7290547490119934,0.8141014575958252
1630067058700,0.2398087084293365,0.790586531162262,0.7290547490119934,0.8141014575958252
1630067058799,0.2398087084293365,0.790586531162262,0.7290547490119934,0.8141014575958252
1630067058956,0.2398087084293365,0.790586531162262,0.7290547490119934,0.8141014575958252
1630067059040,0.2398087084293365,0.790586531162262,0.7148540019989014,0.8141014575958252
1630067059160,0.2398087084293365,0.790586531162262,0.6826932430267334,0.8141014575958252
1630067059191,0.2398087084293365,0.790586531162262,0.5523295402526855,0.8141014575958252
1630067059359,0.2398087084293365,0.790586531162262,0.6156601905822754,0.8141014575958252
1630067059484,0.2398087084293365,0.790586531162262,0.6322207450866699,0.8141014575958252
1630067059516,0.2398087084293365,0.3222915232181549,0.6369350552558899,0.8141014575958252
1630067059625,0.2398087084293365,0.3559039235115051,0.6421169638633728,0.8141014575958252
1630067059719,0.2398087084293365,0.3559039235115051,0.6571702361106873,0.8141014575958252
1630067059828,0.2398087084293365,0.134894847869873,0.6634008884429932,0.8141014575958252
1630067059936,0.2398087084293365,0.134894847869873,0.6813452839851379,0.8141014575958252
1630067060080,0.2398087084293365,0.134894847869873,0.7300997376441956,0.8141014575958252
1630067060144,0.2398087084293365,0.134894847869873,0.7548385858535767,0.8141014575958252
1630067060281,0.2398087084293365,0.134894847869873,0.7615821957588196,0.8141014575958252
1630067060328,0.2398087084293365,0.134894847869873,0.7618900537490845,0.8141014575958252
1630067060453,0.2398087084293365,0.134894847869873,0.7618900537490845,0.8141014575958252
1630067060547,0.2398087084293365,0.134894847869873,0.7618900537490845,0.8141014575958252
1630067060641,0.2398087084293365,0.134894847869873,0.7641924619674683,0.8141014575958252
1630067060734,0.2398087084293365,0.134894847869873,0.766951858997345,0.8141014575958252
1630067060890,0.2398087084293365,0.134894847869873,0.7344476580619812,0.8141014575958252
1630067060937,0.2398087084293365,0.134894847869873,0.7199372053146362,0.8141014575958252
1630067061050,0.2398087084293365,0.134894847869873,0.7199372053146362,0.8141014575958252
1630067061206,0.2398087084293365,0.134894847869873,0.7199372053146362,0.8141014575958252
1630067061268,0.3229626417160034,0.0613770931959152,0.7205907106399536,0.8141014575958252
1630067061362,0.3818709254264831,0.0738893970847129,0.7208481431007385,0.0943578854203224
1630067061487,0.4294457137584686,0.0807009264826774,0.7208481431007385,0.2264368534088134
1630067061581,0.4704205393791199,0.0807009264826774,0.7154881954193115,0.3258272409439087
1630067061660,0.5099915862083435,0.0807009264826774,0.6764432787895203,0.3741666972637176
1630067061755,0.5379067659378052,0.0807009264826774,0.6144514083862305,0.3836317658424377
1630067061850,0.5429702997207642,0.0807009264826774,0.53235924243927,0.3839558660984039
1630067061993,0.5429702997207642,0.1168335899710655,0.4748969972133636,0.3862336874008178
1630067062128,0.5429702997207642,0.1474195420742035,0.4748969972133636,0.3862336874008178
1630067062255,0.5429702997207642,0.1572557687759399,0.4748969972133636,0.3862336874008178
1630067062287,0.5466926097869873,0.1649960726499557,0.4673896729946136,0.3863977193832397
1630067062381,0.557000994682312,0.1740462183952331,0.4101896584033966,0.3894564807415008
1630067062458,0.5496637225151062,0.1795490086078643,0.3219230473041534,0.3954170942306518
1630067062553,0.5408684611320496,0.2601634860038757,0.2835719287395477,0.3671733438968658
1630067062711,0.5298854112625122,0.3338332176208496,0.2763317227363586,0.3623282313346863
1630067062876,0.5236701965332031,0.3733584582805633,0.3404611647129059,0.3623282313346863
1630067062940,0.5225860476493835,0.5280201435089111,0.5633702278137207,0.3623282313346863
1630067062993,0.5225860476493835,0.7419025301933289,0.5633702278137207,0.3586328327655792
1630067063049,0.5225860476493835,0.7419025301933289,0.5633702278137207,0.3227117955684662
1630067063145,0.5225860476493835,0.7419025301933289,0.5633702278137207,0.2452853918075561
1630067063288,0.5092189908027649,0.7419025301933289,0.5619871616363525,0.1366329789161682
1630067063397,0.4520106017589569,0.7411567568778992,0.5602245926856995,0.0254079028964042
1630067063490,0.3727821707725525,0.7406864762306213,0.5512601137161255,-0.0897615104913711
1630067063587,0.3406646847724914,0.7406864762306213,0.546807050704956,-0.1936915069818496
1630067063725,0.3255510330200195,0.7406864762306213,0.5623235106468201,-0.2028495669364929
1630067063806,0.3255510330200195,0.7406864762306213,0.559268057346344,-0.2028495669364929
1630067063980,0.3255510330200195,0.7406864762306213,0.5460472702980042,-0.2028495669364929
1630067064009,0.3255510330200195,0.7406864762306213,0.5239486694335938,-0.2028495669364929
1630067064111,0.3255510330200195,0.7424924969673157,0.5034626722335815,-0.2028495669364929
1630067064180,0.3255510330200195,0.7424924969673157,0.545089840888977,-0.2028495669364929
1630067064295,0.3255510330200195,0.7424924969673157,0.6146940588951111,-0.2028495669364929
1630067064388,0.3255510330200195,0.7421399354934692,0.671621561050415,-0.2028495669364929
1630067064501,0.3255510330200195,0.7421399354934692,0.7142466306686401,-0.2028495669364929
1630067064610,0.3255510330200195,0.7421399354934692,0.7204006314277649,-0.2028495669364929
1630067064719,0.3255510330200195,0.7421399354934692,0.7213550209999084,-0.2028495669364929
1630067064797,0.3255510330200195,0.7421399354934692,0.7214545607566833,-0.2028495669364929
1630067064922,0.3255510330200195,0.7421399354934692,0.7241306900978088,-0.2028495669364929
1630067064985,0.3255510330200195,0.7421399354934692,0.7352242469787598,-0.2028495669364929
1630067065175,0.3255510330200195,0.1652272194623947,0.7722097039222717,-0.2028495669364929
1630067065269,0.3255510330200195,0.1720669567584991,0.7989436984062195,-0.2028495669364929
1630067065335,0.3255510330200195,0.2009445428848266,0.8078194260597229,-0.2028495669364929
1630067065431,0.3255510330200195,0.2613856494426727,0.8078194260597229,-0.2028495669364929
1630067065541,0.3255510330200195,0.3742944300174713,0.8078194260597229,-0.2028495669364929
1630067065603,0.3255510330200195,0.3159824013710022,0.8078194260597229,-0.2028495669364929
1630067065728,0.3255510330200195,0.3159824013710022,0.8078194260597229,-0.2028495669364929
1630067065822,0.3255510330200195,0.3159824013710022,0.8078194260597229,-0.2028495669364929
1630067065916,0.3255510330200195,0.3159824013710022,0.8041960000991821,-0.2028495669364929
1630067066043,0.3255510330200195,0.3159824013710022,0.7314125895500183,-0.2028495669364929
1630067066105,0.3255510330200195,0.3159824013710022,0.595370888710022,-0.2028495669364929
1630067066246,0.3255510330200195,0.3159824013710022,0.4683351516723633,-0.2028495669364929
1630067066355,0.3255510330200195,0.3159824013710022,0.4333857297897339,-0.2028495669364929
1630067066449,0.3255510330200195,0.3159824013710022,0.4277905523777008,-0.2028495669364929
1630067066574,0.3255510330200195,0.3159824013710022,0.4257827997207641,-0.2028495669364929
1630067066699,0.3255510330200195,0.305442065000534,0.4257827997207641,-0.2028495669364929
1630067066761,0.3255510330200195,0.305442065000534,0.4257827997207641,-0.2028495669364929
1630067066808,0.3255510330200195,0.305442065000534,0.4257827997207641,-0.2028495669364929
1630067066949,0.3255510330200195,0.305442065000534,0.4257827997207641,-0.2028495669364929
1630067067046,0.3255510330200195,0.305442065000534,0.4257827997207641,-0.2028495669364929
1630067067166,0.3255510330200195,0.305442065000534,0.4257827997207641,-0.2028495669364929
1630067067260,0.3255510330200195,0.305442065000534,0.4257827997207641,-0.2028495669364929
1630067067354,0.3255510330200195,0.305442065000534,0.4257827997207641,-0.2028495669364929
1630067067432,0.3255510330200195,0.305442065000534,0.4257827997207641,-0.2028495669364929
1630067067588,0.3255510330200195,0.305442065000534,0.4257827997207641,-0.2028495669364929
1630067067697,0.3255510330200195,0.305442065000534,0.4257827997207641,-0.2028495669364929
1630067067760,0.3255510330200195,0.305442065000534,0.4257827997207641,-0.2028495669364929
1630067067854,0.3255510330200195,0.7084957361221313,0.4257827997207641,-0.2028495669364929
1630067067916,0.3255510330200195,0.7119938731193542,0.4257827997207641,-0.2028495669364929
1630067068075,0.3255510330200195,0.7134571075439453,0.4257827997207641,-0.2028495669364929
1630067068164,0.3255510330200195,0.7167279720306396,0.4257827997207641,-0.2028495669364929
1630067068289,0.3255510330200195,0.7214844822883606,0.4257827997207641,-0.2028495669364929
1630067068336,0.3255510330200195,0.7214844822883606,0.4257827997207641,-0.2028495669364929
1630067068446,0.3255510330200195,0.7297670245170593,0.4257827997207641,-0.2028495669364929
1630067068539,0.3255510330200195,0.7297670245170593,0.4257827997207641,-0.2028495669364929
1630067068617,0.3255510330200195,0.7297670245170593,0.4257827997207641,-0.2028495669364929
1630067068789,0.3255510330200195,0.7297670245170593,0.4257827997207641,-0.2028495669364929
1630067068883,0.3255510330200195,0.7297670245170593,0.4257827997207641,-0.2028495669364929
1630067069004,0.3255510330200195,0.7297670245170593,0.5163476467132568,-0.2028495669364929
1630067069144,0.3255510330200195,0.7297670245170593,0.4567456841468811,-0.2028495669364929
1630067069238,0.3255510330200195,0.7293189764022827,0.4790637195110321,-0.2028495669364929
1630067069285,0.3255510330200195,0.7042285799980164,0.4795407652854919,-0.2028495669364929
1630067069425,1.2047338485717771,0.6216809749603271,0.4795407652854919,-0.2028495669364929
1630067069550,1.2047338485717771,0.5093092322349548,0.4795407652854919,-0.2028495669364929
1630067069644,1.2047338485717771,0.4758444130420685,0.4795407652854919,-0.2028495669364929
1630067069660,1.2047338485717771,0.4648434519767761,0.4795407652854919,-0.2028495669364929
1630067069832,1.2047338485717771,0.4553745090961456,0.4795407652854919,-0.2028495669364929
1630067069863,1.2047338485717771,0.4542598128318786,0.4830897748470306,-0.2028495669364929
1630067070085,1.2047338485717771,0.4410199820995331,0.5481337308883667,-0.2028495669364929
1630067070147,1.2047338485717771,0.3884567320346832,0.6932329535484314,-0.2028495669364929
1630067070178,1.2047338485717771,0.2977533042430877,0.7699798941612244,-0.2028495669364929
1630067070288,1.2047338485717771,0.2609392702579498,0.7818362712860107,-0.2028495669364929
1630067070460,1.2047338485717771,0.2504409849643707,0.7818362712860107,-0.2028495669364929
1630067070569,1.2047338485717771,0.2391309291124344,0.7746282815933228,-0.2028495669364929
1630067070678,1.2047338485717771,0.1968360841274261,0.7488600015640259,-0.2028495669364929
1630067070756,1.2047338485717771,0.1252132952213287,0.7245531678199768,-0.2028495669364929
1630067070881,1.2047338485717771,0.0592843368649482,0.7124343514442444,-0.2028495669364929
1630067070959,1.2047338485717771,0.0508424080908298,0.7092973589897156,-0.2028495669364929
1630067070991,1.2047338485717771,0.0508424080908298,0.7095156908035278,-0.2028495669364929
1630067071135,1.2047338485717771,0.0481914468109607,0.7145043611526489,-0.2028495669364929
1630067071229,1.2047338485717771,0.0561524778604507,0.7189962267875671,-0.2028495669364929
1630067071354,1.2047338485717771,0.1470288783311844,0.7174175381660461,-0.2028495669364929
1630067071447,1.2047338485717771,0.3074330687522888,0.7156456708908081,-0.2028495669364929
1630067071869,1.2047338485717771,0.4210199117660522,0.7141449451446533,-0.2028495669364929
1630067071885,1.2047338485717771,0.4210199117660522,0.7115852236747742,-0.2028495669364929
1630067071885,1.2047338485717771,0.4210199117660522,0.6776614785194397,-0.2028495669364929
1630067071963,1.2047338485717771,0.4210199117660522,0.5484563112258911,-0.2028495669364929
1630067071994,1.2047338485717771,0.4210199117660522,0.3405562043190002,-0.2028495669364929
1630067072041,1.2047338485717771,0.4210199117660522,0.2272505015134811,-0.2028495669364929
1630067072103,1.2047338485717771,0.4455157220363617,0.1997264176607132,-0.2028495669364929
1630067072201,1.2047338485717771,0.4455157220363617,0.1923011839389801,-0.2028495669364929
1630067072361,1.2047338485717771,0.4455157220363617,0.169881597161293,-0.2028495669364929
1630067072439,1.2047338485717771,0.4455157220363617,0.1340167969465255,-0.2028495669364929
1630067072565,1.2047338485717771,0.4455157220363617,0.1340167969465255,-0.2028495669364929
1630067072675,1.2047338485717771,0.4455157220363617,0.1340167969465255,-0.2028495669364929
1630067072749,1.2047338485717771,0.4455157220363617,0.1340167969465255,-0.2028495669364929
1630067072877,1.2047338485717771,0.4455157220363617,0.1340167969465255,-0.2028495669364929
1630067072988,1.2047338485717771,0.4455157220363617,0.1340167969465255,-0.2028495669364929
1630067073064,1.2047338485717771,0.4455157220363617,0.1340167969465255,-0.2028495669364929
1630067073141,1.2047338485717771,0.4455157220363617,0.1340167969465255,-0.2028495669364929
1630067073262,1.2047338485717771,0.4455157220363617,0.1340167969465255,-0.2028495669364929
1630067073371,1.2047338485717771,0.4455157220363617,0.1340167969465255,-0.2028495669364929
1630067073418,1.2047338485717771,0.4455157220363617,0.1340167969465255,-0.2028495669364929
1630067073558,1.2047338485717771,-0.158936396241188,0.1340167969465255,-0.2028495669364929
1630067073683,1.2047338485717771,-0.1135397553443908,-0.1628504991531372,-0.2028495669364929
1630067073793,1.2047338485717771,-0.0638999938964843,0.0100902579724788,-0.2028495669364929
1630067073858,1.2047338485717771,-0.0061448169872164,0.1060847714543342,-0.2028495669364929
1630067073983,0.3768061995506286,0.0288370866328477,0.1503457427024841,0.3673495948314667
1630067074062,0.38099005818367,0.0346685051918029,0.1617237329483032,0.3673495948314667
1630067074124,0.3998417556285858,0.0510525964200496,0.1630464196205139,0.3673495948314667
1630067074263,0.3998417556285858,0.1209076792001724,0.1781167238950729,0.3673495948314667
1630067074357,0.3998417556285858,0.2686857879161834,0.2623890340328216,0.3706325590610504
1630067074453,0.3998417556285858,0.4826255738735199,0.3684192597866058,0.3706325590610504
1630067074576,0.3998417556285858,0.6104772686958313,0.4277904033660888,0.3706325590610504
1630067074653,0.3998417556285858,0.6664732098579407,0.474036306142807,0.3706325590610504
1630067074731,0.3998417556285858,0.6664732098579407,0.5679346323013306,0.3706325590610504
1630067074921,0.3998417556285858,0.6635648608207703,0.6629539728164673,0.3706325590610504
1630067075016,0.3998417556285858,0.6635648608207703,0.7597262263298035,0.3706325590610504
1630067075078,0.3998417556285858,0.6635648608207703,0.8268693685531616,0.3706325590610504
1630067075171,0.3998417556285858,0.6635648608207703,0.8280863165855408,0.353340744972229
1630067075233,0.3989069759845733,0.6635648608207703,0.8280863165855408,0.3381763100624084
1630067075427,0.3989069759845733,0.6635648608207703,0.8280863165855408,0.2906458973884582
1630067075474,0.3989069759845733,0.6623071432113647,0.8280863165855408,0.2373159229755401
1630067075599,0.3989069759845733,0.6623071432113647,0.8280863165855408,0.1932563483715057
1630067075755,0.3989069759845733,0.6623071432113647,0.8280863165855408,0.1932563483715057
1630067075787,0.3989069759845733,0.6623071432113647,0.8280863165855408,0.1932563483715057
1630067075865,0.3989069759845733,0.6623071432113647,0.8280863165855408,0.1932563483715057
1630067075978,0.3989069759845733,0.6619404554367065,0.8280863165855408,0.1932563483715057
1630067076072,0.3989069759845733,0.6433948874473572,0.8280863165855408,0.1932563483715057
1630067076199,0.3989069759845733,0.1594047099351883,0.8274320363998413,0.1932563483715057
1630067076355,0.3989069759845733,0.2416876703500747,0.8260335922241211,0.1932563483715057
1630067076466,0.3989069759845733,0.2416876703500747,0.8214222192764282,0.1932563483715057
1630067076577,0.3989069759845733,0.2416876703500747,0.7886850237846375,0.1932563483715057
1630067076609,0.3989069759845733,0.2418857812881469,0.6928433179855347,0.1932563483715057
1630067076733,0.3989069759845733,0.2556709051132202,0.5026431679725647,0.1932563483715057
1630067076799,0.3989069759845733,0.277956485748291,0.4349541068077087,0.1932563483715057
1630067076892,0.3989069759845733,0.2996397614479065,0.4555508196353912,0.1932563483715057
1630067077000,0.3989069759845733,0.3260570466518402,0.5134409070014954,0.1932563483715057
1630067077148,0.3989069759845733,0.3868469893932342,0.5734941363334656,0.1932563483715057
1630067077266,0.3989069759845733,0.5277604460716248,0.5734941363334656,0.1932563483715057
1630067077359,0.3989069759845733,0.6160995960235596,0.5734941363334656,0.1932563483715057
1630067077422,0.3989069759845733,0.6261931657791138,0.5734941363334656,0.1932563483715057
1630067077530,0.3989069759845733,0.6356343030929565,0.5734941363334656,0.1932563483715057
1630067077626,0.3989069759845733,0.6396623849868774,0.5734941363334656,0.1932563483715057
1630067077729,0.3989069759845733,0.6409446597099304,0.5734941363334656,0.1932563483715057
1630067077776,0.3989069759845733,0.6405641436576843,0.5734941363334656,0.1932563483715057
1630067077932,0.3989069759845733,0.6400913000106812,0.5732507705688477,0.1932563483715057
1630067078060,0.3989069759845733,0.6411912441253662,0.5696834921836853,0.1932563483715057
1630067078249,0.3989069759845733,0.6488578915596008,0.5473455190658569,0.1932563483715057
1630067078327,0.3989069759845733,0.6671384572982788,0.5434780716896057,0.1932563483715057
1630067078389,0.3989069759845733,0.6879954934120178,0.5336899757385254,0.1932563483715057
1630067078498,0.3989069759845733,0.7021340131759644,0.5336899757385254,0.1932563483715057
1630067078545,0.3989069759845733,0.7257826924324036,0.5336899757385254,0.1932563483715057
1630067078670,0.3989069759845733,0.7643775343894958,0.5336899757385254,0.1932563483715057
1630067078905,0.3989069759845733,0.7800197005271912,0.5336899757385254,0.1932563483715057
1630067079076,0.3989069759845733,0.7636442184448242,0.5336899757385254,0.1932563483715057
1630067079217,0.3989069759845733,0.6930698156356812,0.5336899757385254,0.1932563483715057
1630067079326,0.3989069759845733,0.6668693423271179,0.2895494401454925,0.1932563483715057
1630067079498,0.3989069759845733,0.6665744781494141,0.2973085343837738,0.1932563483715057
1630067079608,0.3989069759845733,0.6665744781494141,0.3085898458957672,0.1932563483715057
1630067079654,0.3346323370933532,0.6665744781494141,0.3085898458957672,0.1932563483715057
1630067079670,0.3602088987827301,0.6665744781494141,0.3085898458957672,0.1932563483715057
1630067079733,0.3882310092449188,0.6665744781494141,0.3144161701202392,0.2771673798561096
1630067079779,0.4193722307682037,0.6541579365730286,0.3156643509864807,0.3001192212104797
1630067080078,0.4524834752082824,0.6265895366668701,0.2006797194480896,0.383803516626358
1630067080156,0.5066531896591187,0.5843836069107056,0.2025871723890304,0.4467043578624725
1630067080251,0.5467470288276672,0.5374844670295715,0.2028645873069763,0.4829567074775696
1630067080284,0.5575525760650635,0.5003110766410828,0.2258390486240387,0.4995421767234802
1630067080346,0.5582236051559448,0.4761838316917419,0.2570250630378723,0.52591872215271
1630067080487,0.5582236051559448,0.4274912774562835,0.2722861170768738,0.5370170474052429
1630067080534,0.5685047507286072,0.3556796014308929,0.2610632181167602,0.5370170474052429
1630067080768,0.5957868695259094,0.2976084351539612,0.2551257312297821,0.5370170474052429
1630067080815,0.5999875664710999,0.2231392413377761,0.2460805475711822,0.5370170474052429
1630067080924,0.5999875664710999,0.1231282129883766,0.2230372577905655,0.5370170474052429
1630067081002,0.5999875664710999,0.0861442014575004,0.1776019185781479,0.530056893825531
1630067081037,0.5999875664710999,0.1075993999838829,0.1038096323609352,0.530056893825531
1630067081177,0.5999875664710999,0.1925847977399826,0.0408932454884052,0.530056893825531
1630067081240,0.5999875664710999,0.1925847977399826,-0.0126080205664038,0.530056893825531
1630067081318,0.5999875664710999,0.1925847977399826,-0.0510225109755992,0.530056893825531
1630067081349,0.5973812937736511,0.1925847977399826,-0.0773863419890403,0.515769898891449
1630067081412,0.5643572807312012,0.1925847977399826,-0.0999871864914894,0.4765000641345978
1630067081459,0.48532634973526,0.1925847977399826,-0.1121943369507789,0.4765000641345978
1630067081599,0.3781811594963074,0.1925847977399826,-0.121314987540245,0.4765000641345978
1630067081693,0.2945114970207214,0.1911412328481674,-0.1439728140830993,0.4765000641345978
1630067081771,0.2607317268848419,0.1836758106946945,-0.1962237656116485,0.4765000641345978
1630067081880,0.2607317268848419,0.1746868342161178,-0.2438551485538482,0.4765000641345978
1630067081959,0.2607317268848419,0.1716697663068771,-0.2438551485538482,0.4765000641345978
1630067082115,0.2607317268848419,0.1716697663068771,-0.2438551485538482,0.4765000641345978
1630067082177,0.2607317268848419,0.1716697663068771,-0.2438551485538482,0.4765000641345978
1630067082299,0.2607317268848419,0.1716697663068771,-0.2438551485538482,0.4765000641345978
1630067082408,0.2607317268848419,0.1716697663068771,-0.2438551485538482,0.4765000641345978
1630067082471,0.2607317268848419,0.1716697663068771,-0.2438551485538482,0.4765000641345978
1630067082533,0.2607317268848419,0.1716697663068771,-0.2438551485538482,0.4765000641345978
1630067082861,0.2607317268848419,0.1716697663068771,-0.2438551485538482,0.4765000641345978
1630067082893,0.2607317268848419,0.1716697663068771,-0.2438551485538482,0.4765000641345978
1630067082986,0.2607317268848419,0.1716697663068771,-0.2438551485538482,0.4765000641345978
1630067083018,0.2607317268848419,0.1716697663068771,-0.2438551485538482,0.4765000641345978
1630067083080,0.2607317268848419,0.1716697663068771,0.1848145276308059,0.4765000641345978
1630067083174,0.2607317268848419,0.1716697663068771,0.4651701748371124,0.4765000641345978
1630067083268,0.2607317268848419,0.1716697663068771,0.6254237294197083,0.4765000641345978
1630067083392,0.2607317268848419,0.1716697663068771,0.668075442314148,0.4765000641345978
1630067083502,0.2607317268848419,0.1716697663068771,0.6681259870529175,0.4765000641345978
1630067083611,0.2607317268848419,0.1716697663068771,0.6681259870529175,0.4765000641345978
1630067083705,0.2607317268848419,0.1716697663068771,0.6689800024032593,0.4765000641345978
1630067083783,0.2607317268848419,0.1716697663068771,0.6689800024032593,0.4765000641345978
1630067083892,0.2607317268848419,0.1716697663068771,0.6689800024032593,0.4765000641345978
1630067084099,0.2607317268848419,0.1716697663068771,0.6689800024032593,0.4765000641345978
1630067084177,0.2607317268848419,0.1716697663068771,0.6689800024032593,0.4765000641345978
1630067084223,0.2607317268848419,0.1716697663068771,0.6689800024032593,0.4765000641345978
1630067084317,0.2607317268848419,0.1716697663068771,0.6674157977104187,0.4765000641345978
1630067084395,0.2607317268848419,0.1716697663068771,0.6674157977104187,0.4765000641345978
1630067084505,0.2607317268848419,0.1716697663068771,0.6674157977104187,0.4765000641345978
1630067084692,0.2607317268848419,0.1716697663068771,0.6674157977104187,0.4765000641345978
1630067084723,0.2607317268848419,0.1716697663068771,0.6674157977104187,0.4765000641345978
1630067084864,0.2607317268848419,0.1716697663068771,0.6460118889808655,0.4765000641345978
1630067084958,0.2607317268848419,0.1716697663068771,0.6651234030723572,0.4765000641345978
1630067085101,0.2607317268848419,0.1716697663068771,0.5900164246559143,0.4765000641345978
1630067085132,0.2607317268848419,0.1716697663068771,0.5763623714447021,0.4765000641345978
1630067085241,0.2607317268848419,0.1716697663068771,0.5545502305030823,0.4765000641345978
1630067085335,0.2607317268848419,0.1716697663068771,0.5545502305030823,0.4765000641345978
1630067085444,0.2607317268848419,0.1207727342844009,0.5545502305030823,0.4765000641345978
1630067085507,0.2607317268848419,0.1207727342844009,0.5545502305030823,0.857441782951355
1630067085663,0.2607317268848419,0.1207727342844009,0.5545502305030823,0.857441782951355
1630067085741,0.912348449230194,0.1207727342844009,0.559586226940155,0.857441782951355
1630067085866,0.912348449230194,0.1439507752656936,0.5703765153884888,0.8905518054962158
1630067085944,0.912348449230194,0.2750208675861358,0.5703765153884888,0.9238322377204896
1630067086072,0.912348449230194,0.3829720318317413,0.5703765153884888,0.9294286966323853
1630067086228,0.912348449230194,0.4133707582950592,0.5703765153884888,0.9294286966323853
1630067086228,0.912348449230194,0.4173439145088196,0.5738278031349182,0.9294286966323853
1630067086368,0.912348449230194,0.4245103895664215,0.5738278031349182,0.9294286966323853
1630067086556,0.912348449230194,0.4281676709651947,0.5429328083992004,0.9294286966323853
1630067086618,0.912348449230194,0.4152640700340271,0.4692267477512359,0.9294286966323853
1630067086696,0.912348449230194,0.4191085994243622,0.401297003030777,0.9294286966323853
1630067086759,0.912348449230194,0.4214156866073608,0.3791094720363617,0.9444466829299928
1630067086931,0.912348449230194,0.4240417778491974,0.368497371673584,0.9329577684402466
1630067086993,1.027175784111023,0.4231978058815002,0.3519057631492615,0.9385542273521424
1630067087074,1.011247992515564,0.4190608859062195,0.344377726316452,0.9342093467712402
1630067087230,1.0118820667266846,0.4337499439716339,0.3420016467571258,0.9285079836845398
1630067087293,1.0118820667266846,0.4384814500808716,0.340913325548172,0.9206380248069764
1630067087371,1.0118820667266846,0.4426681697368622,0.2887849807739258,0.9195477366447448
1630067087480,1.0118820667266846,0.4426681697368622,0.2951098680496216,0.9171139001846312
1630067087590,1.0118820667266846,0.4475858211517334,0.4136585295200348,0.8809573650360107
1630067087746,1.0118820667266846,0.3846510648727417,0.5832387208938599,0.8710729479789734
1630067087808,1.0118820667266846,0.321111798286438,0.6644083857536316,0.8662304878234863
1630067087902,1.0118820667266846,0.314521312713623,0.7175015807151794,0.8662304878234863
1630067087980,1.0118820667266846,0.3120352625846863,0.7545881867408752,0.8662304878234863
1630067088108,1.0118820667266846,0.3120352625846863,0.8105466961860657,0.8662304878234863
1630067088311,1.0118820667266846,0.3120352625846863,0.8580576181411743,0.8662304878234863
1630067088483,1.0118820667266846,0.3120352625846863,0.8580576181411743,0.8562266230583191
1630067088530,1.0118820667266846,0.307465523481369,0.8580576181411743,0.8337894678115845
1630067088530,1.0118820667266846,0.3120352625846863,0.8580576181411743,0.8337894678115845
1630067088561,1.0118820667266846,0.2590291798114776,0.8580576181411743,0.8337894678115845
1630067088717,1.0118820667266846,0.1887135952711105,0.8580576181411743,0.8337894678115845
1630067088858,1.0118820667266846,0.1887135952711105,0.8580576181411743,0.8337894678115845
1630067088998,1.0118820667266846,0.1887135952711105,0.8580576181411743,0.8337894678115845
1630067089049,1.0118820667266846,0.1887135952711105,0.8580576181411743,0.8337894678115845
1630067089127,1.0118820667266846,0.1887135952711105,0.8580576181411743,0.8337894678115845
1630067089221,1.0118820667266846,0.462780237197876,0.8560481667518616,0.8337894678115845
1630067089268,1.0118820667266846,0.4898028969764709,0.8446076512336731,0.8337894678115845
1630067089377,1.0118820667266846,0.5356505513191223,0.8493629693984985,0.3891112506389618
1630067089643,1.0118820667266846,0.5748350620269775,0.8410319089889526,0.396476536989212
1630067089658,1.0118820667266846,0.5776841044425964,0.8240001797676086,0.3968870043754577
1630067089705,0.5543801188468933,0.5776841044425964,0.7825220227241516,0.3996991515159607
1630067089799,0.611414909362793,0.5776841044425964,0.7198591828346252,0.4273227751255035
1630067090002,0.6146745085716248,0.5776841044425964,0.7198591828346252,0.5073690414428711
1630067090100,0.6206764578819275,0.5776841044425964,0.7198591828346252,0.5357815623283386
1630067090209,0.6214109659194946,0.5776841044425964,0.7198591828346252,0.5525332689285278
1630067090256,0.6222968101501465,0.5776841044425964,0.7198591828346252,0.5525332689285278
1630067090318,0.6250201463699341,0.5776841044425964,0.7198591828346252,0.5580730438232422
1630067090443,0.6304494738578796,0.5726084113121033,0.7002054452896118,0.5745452046394348
1630067090553,0.6487992405891418,0.5637055039405823,0.6562624573707581,0.5947228074073792
1630067090646,0.6539052724838257,0.5517823696136475,0.6148494482040405,0.623374342918396
1630067090740,0.6539052724838257,0.4969353675842285,0.5780149102210999,0.623374342918396
1630067090834,0.6539052724838257,0.4332791268825531,0.5541155338287354,0.622103750705719
1630067090990,0.6536957621574402,0.5798154473304749,0.5628023147583008,0.622103750705719
1630067091084,0.6517580151557922,0.5684812664985657,0.3263276517391205,0.6177119612693787
1630067091209,0.6458604335784912,0.5221977829933167,0.3263276517391205,0.6118766069412231
1630067091240,0.6397802829742432,0.4707426428794861,0.3263276517391205,0.6117219924926758
1630067091349,0.6206586956977844,0.46109738945961,0.2969543039798736,0.6117219924926758
1630067091443,0.5376220941543579,0.46109738945961,0.292965292930603,0.6096646189689636
1630067091568,0.412045270204544,0.46109738945961,0.2876198589801788,0.5732637643814087
1630067091615,0.3059175610542297,0.46109738945961,0.2839275598526001,0.5059216022491455
1630067091755,0.3059175610542297,0.46109738945961,0.3288220465183258,0.4628687500953674
1630067091818,0.3059175610542297,0.46109738945961,0.3289980292320251,0.4628687500953674
1630067091974,0.3059175610542297,0.4660512208938598,0.3325072824954986,0.4628687500953674
1630067092068,0.3059175610542297,0.4931709468364715,0.3388015031814575,0.4628687500953674
1630067092255,0.3059175610542297,0.503182053565979,0.3446255922317505,0.4628687500953674
1630067092318,0.3059175610542297,0.5141368508338928,0.3625913858413696,0.549439013004303
1630067092365,0.4712334275245666,0.5387400388717651,0.3799726366996765,0.5558245778083801
1630067092412,0.6147653460502625,0.483043760061264,0.1870948374271392,0.5674229860305786
1630067092583,0.6147653460502625,0.4870180487632751,0.2559596002101898,0.579024612903595
1630067092724,0.6147653460502625,0.4918298423290252,0.3105978369712829,0.5821549892425537
1630067092786,0.6147653460502625,0.4918298423290252,0.3105978369712829,0.5821549892425537
1630067092896,0.6147653460502625,0.4918298423290252,0.3105978369712829,0.5821549892425537
1630067092990,0.6147653460502625,0.4918298423290252,0.3105978369712829,0.5821549892425537
1630067093070,0.6147653460502625,0.5378871560096741,0.4957227110862732,0.5821549892425537
1630067093258,0.6147653460502625,0.6444610357284546,0.6651763916015625,0.9495185613632202
1630067093305,0.9936048984527588,0.6702651977539062,0.7525094151496887,1.0378941297531128
1630067093320,1.0430641174316406,0.6702651977539062,0.7687786221504211,1.0667017698287964
1630067093476,1.0441441535949707,0.6702651977539062,0.7706314325332642,1.0667017698287964
1630067093508,1.055820345878601,0.6702651977539062,0.7729278206825256,1.0667017698287964
1630067093726,1.0800718069076538,0.6702651977539062,0.7738924026489258,1.0624866485595703
1630067093851,1.0927956104278564,0.6702651977539062,0.7738924026489258,1.05315101146698
1630067093867,1.096124291419983,0.6574281454086304,0.772803783416748,1.0403084754943848
1630067093976,1.0891356468200684,0.6564744114875793,0.7687547206878662,1.0383305549621582
1630067094058,1.0893049240112305,0.6564744114875793,0.7687547206878662,1.045402765274048
1630067094167,1.0893049240112305,0.6564744114875793,0.7669205665588379,1.045402765274048
1630067094292,1.0897748470306396,0.6564744114875793,0.7669205665588379,1.045402765274048
1630067094386,1.090467929840088,0.6564744114875793,0.7680098414421082,1.045402765274048
1630067094542,1.090467929840088,0.6564744114875793,0.7699607610702515,1.045402765274048
1630067094573,1.090467929840088,0.6564744114875793,0.7700665593147278,1.045402765274048
1630067094698,1.090467929840088,0.6536364555358887,0.7697768807411194,1.0375316143035889
1630067094808,1.0844391584396362,0.5493706464767456,0.7475863695144653,1.0165678262710571
1630067094870,1.06479012966156,0.3832390308380127,0.6588437557220459,0.962751567363739
1630067095108,0.992708146572113,0.3021144270896911,0.532703161239624,0.8708404302597046
1630067095154,0.8730712532997131,0.2928446233272552,0.4179222285747528,0.7739615440368652
1630067095232,0.7620059251785278,0.3089155256748199,0.2948482632637024,0.7388115525245667
1630067095295,0.7329267263412476,0.3218365311622619,0.2003218829631805,0.7136546969413757
1630067095373,0.7826223969459534,0.3175378143787384,0.1964776515960693,0.6850075125694275
1630067095529,0.8570370078086853,0.2723576724529266,0.2364762127399444,0.6519317626953125
1630067095701,0.9163262844085692,0.2866230309009552,0.3201281428337097,0.6469647288322449
1630067095717,0.9333816170692444,0.3355012238025665,0.3923539519309997,0.6529015302658081
1630067095904,0.9431713223457336,0.3552610874176025,0.4688591361045837,0.6682000160217285
1630067095904,0.9443933963775636,0.3552610874176025,0.4392133355140686,0.6695025563240051
1630067096078,0.938054382801056,0.3552610874176025,0.4518795311450958,0.6672412157058716
1630067096172,0.934345841407776,0.3552610874176025,0.4396814703941345,0.6605488061904907
1630067096235,0.934345841407776,0.3552610874176025,0.4348576366901397,0.6569374203681946
1630067096344,0.934345841407776,0.3552610874176025,0.4395404756069183,0.6569374203681946
1630067096391,0.934345841407776,0.3552610874176025,0.4546672701835632,0.6569374203681946
1630067096578,0.934345841407776,0.3552610874176025,0.4630157351493835,0.6569374203681946
1630067096625,0.934345841407776,0.3552610874176025,0.4630157351493835,0.6562492847442627
1630067096766,0.934345841407776,0.3523819744586944,0.4630157351493835,0.6542372703552246
1630067096875,0.9337027072906494,0.3323814272880554,0.4630157351493835,0.6455734968185425
1630067096938,0.9313016533851624,0.3109959959983825,0.4630157351493835,0.640440046787262
1630067097035,0.9313016533851624,0.2679688334465027,0.4630157351493835,0.640440046787262
1630067097191,0.9313016533851624,0.2679688334465027,0.4632456004619598,0.640440046787262
1630067097207,0.9313016533851624,0.2679688334465027,0.4581596255302429,0.640440046787262
1630067097316,0.9313016533851624,0.2679688334465027,0.4446605145931244,0.640440046787262
1630067097472,0.9313016533851624,0.2679688334465027,0.4872156679630279,0.640440046787262
1630067097535,0.9313016533851624,0.356962114572525,0.5472301244735718,0.3546046316623688
1630067097738,0.8408640027046204,0.3856362402439117,0.5750415921211243,0.3708710670471191
1630067097738,0.8478962182998657,0.3913792371749878,0.5770738124847412,0.3916688561439514
1630067097894,0.8478962182998657,0.3913792371749878,0.5801275372505188,0.3916688561439514
1630067097972,0.8478962182998657,0.3913792371749878,0.5801275372505188,0.3916688561439514
1630067098050,0.8478962182998657,0.3913792371749878,0.5801275372505188,0.3916688561439514
1630067098129,0.8478962182998657,0.3913792371749878,0.5801275372505188,0.3916688561439514
1630067098253,0.8478962182998657,0.3913792371749878,0.5895719528198242,0.3916688561439514
1630067098378,0.8478962182998657,0.3913792371749878,0.5895719528198242,0.3916688561439514
1630067098472,0.8478962182998657,0.3913792371749878,0.5895719528198242,0.3916688561439514
1630067098535,0.8478962182998657,0.3913792371749878,0.5900466442108154,0.3916688561439514
1630067098691,0.8478962182998657,0.3913792371749878,0.6002845168113708,0.3916688561439514
1630067098753,0.8478962182998657,0.3913792371749878,0.6278212070465088,0.3853297829627991
1630067098816,0.8368276357650757,0.3913792371749878,0.6465165019035339,0.3549487590789795
1630067099003,0.8368276357650757,0.3913792371749878,0.6461748480796814,0.3549487590789795
1630067099084,0.8368276357650757,0.3913792371749878,0.6399125456809998,0.3549487590789795
1630067099100,0.8368276357650757,0.3913792371749878,0.6101290583610535,0.3549487590789795
1630067099246,0.8368276357650757,0.3913792371749878,0.5825027227401733,0.3549487590789795
1630067099372,0.8368276357650757,0.3391481637954712,0.5200179219245911,0.3549487590789795
1630067099465,0.8368276357650757,0.3407876491546631,0.5200179219245911,0.3549487590789795
1630067099544,0.5701115131378174,0.3454808592796325,0.5227065086364746,0.1959449350833892
1630067099654,0.5701977610588074,0.3497566282749176,0.5233153700828552,0.1959449350833892
1630067099754,0.5701977610588074,0.3497566282749176,0.5059128403663635,0.1959449350833892
1630067099938,0.5701977610588074,0.3510020077228546,0.4750337302684784,0.1959449350833892
1630067099969,0.5701977610588074,0.3517112135887146,0.4286348223686218,0.1959449350833892
1630067100046,0.5934009552001953,0.3517112135887146,0.3756868243217468,0.2126974612474441
1630067100154,0.640091598033905,0.3517112135887146,0.3639574646949768,0.2698724567890167
1630067100252,0.6687988042831421,0.3517112135887146,0.3771060109138489,0.313382089138031
1630067100405,0.6691555380821228,0.3517112135887146,0.3708000779151916,0.3735506534576416
1630067100485,0.6691555380821228,0.3517112135887146,0.3499113321304321,0.4293397068977356
1630067100606,0.6691555380821228,0.2463700622320175,0.3544257581233978,0.4636310935020447
1630067100654,0.6691555380821228,0.1617752611637115,0.3428568243980407,0.4935209453105926
1630067100808,0.6475918889045715,0.0590567775070667,0.3407830893993377,0.4986639320850372
1630067100855,0.6237226128578186,-0.0417517945170402,0.3407830893993377,0.5029497742652893
1630067100979,0.616113543510437,-0.1113348081707954,0.3407830893993377,0.5029497742652893
1630067101074,0.6101188063621521,-0.112799048423767,0.3407830893993377,0.5056487917900085
1630067101184,0.5971335172653198,-0.0704134404659271,0.3407830893993377,0.5214548110961914
1630067101281,0.5936087369918823,-0.0029611100908368,0.3422514796257019,0.5214548110961914
1630067101359,0.5917376279830933,0.0318738110363483,0.3522832691669464,0.5214548110961914
1630067101561,0.5917376279830933,0.0556674934923648,0.3769428730010986,0.5214548110961914
1630067101624,0.5889061689376831,0.069315381348133,0.4197251200675964,0.5214548110961914
1630067101690,0.585868775844574,0.1488188207149505,0.4419401884078979,0.5214548110961914
1630067101765,0.5536978244781494,0.2675508260726928,0.4419401884078979,0.517055094242096
1630067101938,0.464004635810852,0.4362873136997223,0.4393003582954407,0.4988913834095001
1630067101999,0.4280079901218414,0.541380763053894,0.4227171242237091,0.4925925135612488
1630067102138,0.3960450887680053,0.5655685067176819,0.3884347081184387,0.4734174311161041
1630067102201,0.3782176673412323,0.5686726570129395,0.3155038952827453,0.4252997040748596
1630067102361,0.3776633143424988,0.5692681670188904,0.2574183940887451,0.3412758111953735
1630067102407,0.3331582844257355,0.5692681670188904,0.2426592707633972,0.3412758111953735
1630067102473,0.2080350667238235,0.5692681670188904,0.2360885888338089,0.3412758111953735
1630067102593,-0.0078849708661437,0.5697546601295471,0.2297334372997284,0.3412758111953735
1630067102715,-0.0078849708661437,0.6188304424285889,0.2256529033184051,0.3412758111953735
1630067102876,-0.0078849708661437,0.6188304424285889,0.8883448243141174,0.3412758111953735
1630067102954,-0.0078849708661437,0.6188304424285889,0.9012016654014589,0.3412758111953735
1630067103064,-0.0078849708661437,0.6188304424285889,0.9012016654014589,0.3412758111953735
1630067103128,-0.0078849708661437,0.6188304424285889,0.9012016654014589,0.3412758111953735
1630067103282,-0.0078849708661437,0.6188304424285889,0.9012016654014589,0.3412758111953735
1630067103360,-0.0078849708661437,0.6188304424285889,0.9012016654014589,0.3412758111953735
1630067103422,-0.0078849708661437,0.6188304424285889,0.9049975872039796,0.3412758111953735
1630067103563,-0.0078849708661437,0.6073653101921082,0.9180346131324768,0.3412758111953735
1630067103641,-0.0078849708661437,0.5665416121482849,0.9291560649871826,0.3412758111953735
1630067103745,-0.0078849708661437,0.5452030301094055,0.9361250400543212,0.3412758111953735
1630067103901,-0.0078849708661437,0.5258399248123169,0.9361250400543212,0.3412758111953735
1630067103949,-0.0078849708661437,0.5073259472846985,0.9361250400543212,0.3412758111953735
1630067103977,-0.0078849708661437,0.5073259472846985,0.9361250400543212,0.3412758111953735
1630067104147,-0.0078849708661437,0.5073259472846985,0.9361250400543212,0.3412758111953735
1630067104262,-0.0078849708661437,0.5073259472846985,0.9361250400543212,0.3412758111953735
1630067104371,-0.0078849708661437,0.5073259472846985,0.9207140803337096,0.3412758111953735
1630067104449,-0.0078849708661437,0.5073259472846985,0.8329415321350098,0.3412758111953735
1630067104559,-0.0078849708661437,0.7529966235160828,0.7643465995788574,0.3412758111953735
1630067104605,-0.0078849708661437,0.7529966235160828,0.7517831325531006,0.3412758111953735
1630067104748,-0.0078849708661437,0.7529966235160828,0.7473834753036499,0.3412758111953735
1630067104842,-0.0078849708661437,0.7529966235160828,0.7461060285568237,0.3412758111953735
1630067105030,-0.0078849708661437,0.7618309259414673,0.7390207648277283,0.3412758111953735
1630067105061,-0.0078849708661437,0.7779706716537476,0.7200435996055603,0.3412758111953735
1630067105139,-0.0078849708661437,0.782311737537384,0.6951730847358704,0.3412758111953735
1630067105251,-0.0078849708661437,0.782311737537384,0.6528359055519104,0.3412758111953735
1630067105392,-0.0078849708661437,0.782311737537384,0.5087651610374451,0.3412758111953735
1630067105454,0.6825113892555237,0.782311737537384,0.5087651610374451,0.3412758111953735
1630067105533,0.6825113892555237,0.782311737537384,0.5087651610374451,0.3412758111953735
1630067105736,0.6825113892555237,0.782311737537384,0.5087651610374451,0.3412758111953735
1630067105751,0.6825113892555237,0.782311737537384,0.5087651610374451,0.3412758111953735
1630067105814,0.6825113892555237,0.7738353610038757,0.5092284083366394,0.3412758111953735
1630067105986,0.6825113892555237,0.6839585304260254,0.5851675868034363,0.3412758111953735
1630067106064,0.6825113892555237,0.5623244643211365,0.6550841331481934,0.3412758111953735
1630067106189,0.6825113892555237,0.5109946131706238,0.6751706004142761,0.3412758111953735
1630067106239,0.6825113892555237,0.4878073930740356,0.6565490961074829,0.3412758111953735
1630067106378,0.6825113892555237,0.4760482311248779,0.628272294998169,0.3412758111953735
1630067106534,0.6825113892555237,0.4572038650512695,0.6284932494163513,0.3412758111953735
1630067106550,0.6825113892555237,0.4366931021213531,0.6514248251914978,0.3412758111953735
1630067106784,0.6825113892555237,0.3751464188098907,0.6907868981361389,0.3412758111953735
1630067106800,0.6825113892555237,0.3751464188098907,0.7066326141357422,0.3412758111953735
1630067106878,0.6825113892555237,0.3751464188098907,0.7066326141357422,0.3412758111953735
1630067106940,0.6825113892555237,0.3751464188098907,0.7066326141357422,0.3412758111953735
1630067107065,0.6825113892555237,0.3751464188098907,0.7066326141357422,0.3412758111953735
1630067107174,0.6825113892555237,0.3751464188098907,0.7066326141357422,0.3412758111953735
1630067107313,0.6825113892555237,0.3751464188098907,0.7066326141357422,0.3412758111953735
1630067107454,0.6825113892555237,0.3751464188098907,0.815240204334259,0.3412758111953735
1630067107469,0.6825113892555237,0.3751464188098907,0.8285102248191833,0.3412758111953735
1630067107547,0.6825113892555237,0.3751464188098907,0.8224488496780396,0.3412758111953735
1630067107750,0.6825113892555237,0.3751464188098907,0.8157879710197449,0.3412758111953735
1630067107844,0.6825113892555237,0.3751464188098907,0.8035174012184143,0.3412758111953735
1630067107875,0.6825113892555237,0.3751464188098907,0.7850762605667114,0.3412758111953735
1630067108032,0.6825113892555237,0.3751464188098907,0.7682320475578308,0.3412758111953735
1630067108078,0.6825113892555237,0.3751464188098907,0.7887760996818542,0.3412758111953735
1630067108156,0.6825113892555237,0.3751464188098907,0.7884665727615356,0.3412758111953735
1630067108255,0.6825113892555237,0.3751464188098907,0.7867268323898315,0.3412758111953735
1630067108443,0.6825113892555237,0.3751464188098907,0.78290855884552,0.3412758111953735
1630067108599,0.6825113892555237,0.3751464188098907,0.7801151871681213,0.3412758111953735
1630067108646,0.6825113892555237,0.3751464188098907,0.7801151871681213,0.3412758111953735
1630067108786,0.6825113892555237,0.3751464188098907,0.7801151871681213,0.3412758111953735
1630067108833,0.6825113892555237,0.3751464188098907,0.7801151871681213,0.3412758111953735
1630067108896,0.6825113892555237,0.3751464188098907,0.7758691310882568,0.3412758111953735
1630067108989,0.6825113892555237,0.3751464188098907,0.6901265382766724,0.3412758111953735
1630067109114,0.6825113892555237,0.3751464188098907,0.5551531910896301,0.3412758111953735
1630067109273,0.6825113892555237,0.3751464188098907,0.5551531910896301,0.3412758111953735
1630067109320,0.6825113892555237,0.3751464188098907,0.5551531910896301,0.3412758111953735
1630067109382,0.6825113892555237,0.3751464188098907,0.5551531910896301,0.3412758111953735
1630067109492,0.6825113892555237,0.3751464188098907,0.5551531910896301,0.3412758111953735
1630067109617,0.6825113892555237,0.3751464188098907,0.5551531910896301,0.3412758111953735
1630067109789,0.6825113892555237,0.3751464188098907,0.5551531910896301,0.3412758111953735
1630067109851,0.6825113892555237,0.3751464188098907,0.5551531910896301,0.3412758111953735
1630067109945,0.6825113892555237,0.2541278302669525,0.5551531910896301,0.3412758111953735
1630067110038,0.6825113892555237,0.2541278302669525,0.0009263748070225,0.3412758111953735
1630067110117,0.6825113892555237,0.2541278302669525,0.0009263748070225,0.3412758111953735
1630067110259,0.4879897534847259,0.2541278302669525,0.0009263748070225,0.3412758111953735
1630067110306,0.5040673613548279,0.2583452463150024,0.0009263748070225,0.3412758111953735
1630067110444,0.5419633984565735,0.2681686878204345,0.0165388323366642,0.3412758111953735
1630067110569,0.5901821255683899,0.2780742347240448,0.0621011555194854,0.3412758111953735
1630067110663,0.5901821255683899,0.2866791784763336,0.1145344525575637,0.3412758111953735
1630067110694,0.5901821255683899,0.2952848076820373,0.1572951823472976,0.3412758111953735
1630067110850,0.5901821255683899,0.3537831604480743,0.1728279888629913,0.3412758111953735
1630067111006,0.5901821255683899,0.6089110374450684,0.207471489906311,0.3412758111953735
1630067111022,0.5901821255683899,0.870332658290863,0.2956330180168152,0.3412758111953735
1630067111131,0.5901821255683899,0.972851812839508,0.3800817131996155,0.3412758111953735
1630067111209,0.5901821255683899,0.9870375394821168,0.3877981603145599,0.3412758111953735
1630067111384,0.5901821255683899,0.9870375394821168,0.3712761402130127,0.3412758111953735
1630067111509,0.5363786816596985,0.9870375394821168,0.3652683198451996,0.3412758111953735
1630067111587,0.4677948951721191,0.9870375394821168,0.3652683198451996,0.3412758111953735
1630067111696,0.4082163572311401,0.9870375394821168,0.3652683198451996,0.3412758111953735
1630067111743,0.4082163572311401,0.9870375394821168,0.5830597281455994,0.3412758111953735
1630067111806,0.4082163572311401,0.9870375394821168,0.6022219061851501,0.3412758111953735
1630067111915,0.4082163572311401,0.9870375394821168,0.6130357384681702,0.3412758111953735
1630067112058,0.4082163572311401,0.9870375394821168,0.6130357384681702,0.3412758111953735
1630067112198,0.4082163572311401,0.9870375394821168,0.6130357384681702,0.3412758111953735
1630067112292,0.7182381749153137,0.9870375394821168,0.6130357384681702,0.3412758111953735
1630067112417,0.7255244851112366,0.9870375394821168,0.6130357384681702,0.3412758111953735
1630067112511,0.7331883907318115,0.9870375394821168,0.6130357384681702,0.3412758111953735
1630067112542,0.7331883907318115,0.9833986759185792,0.6115655303001404,0.3412758111953735
1630067112698,0.7331883907318115,0.927220106124878,0.6057528853416443,0.3412758111953735
1630067112776,0.7331883907318115,0.8024373650550842,0.5567435026168823,0.3412758111953735
1630067112980,0.7331883907318115,0.6841089129447937,0.5567435026168823,0.3412758111953735
1630067113011,0.7331883907318115,0.6259146928787231,0.5567435026168823,0.5758983492851257
1630067113136,0.7331883907318115,0.5790438055992126,0.5567435026168823,0.5931317806243896
1630067113198,0.7331883907318115,0.5280233025550842,0.5567435026168823,0.5931317806243896
1630067113261,0.7556694746017456,0.555173397064209,0.5356375575065613,0.5931317806243896
1630067113451,0.7816627621650696,0.5648172497749329,0.4579921066761017,0.5931317806243896
1630067113498,0.7499706149101257,0.5585559010505676,0.3309285342693329,0.5738232135772705
1630067113591,0.742152988910675,0.5539392828941345,0.1940802484750747,0.5803661346435547
1630067113701,0.7306974530220032,0.5527377724647522,0.1792532205581665,0.532054603099823
1630067113795,0.7089434862136841,0.5442982912063599,0.2138600200414657,0.532054603099823
1630067113999,0.6550191044807434,0.524752676486969,0.2389247864484787,0.532054603099823
1630067114032,0.5895595550537109,0.5005388855934143,0.2411173731088638,0.5379010438919067
1630067114110,0.5605431199073792,0.4880336821079254,0.2310767173767089,0.5379010438919067
1630067114219,0.5660889744758606,0.4880336821079254,0.2068279534578323,0.5386322140693665
1630067114313,0.6083479523658752,0.4880336821079254,0.1897938847541809,0.5472813248634338
1630067114344,0.6396529078483582,0.4880336821079254,0.1799591332674026,0.5657663345336914
1630067114516,0.6560874581336975,0.4852215647697449,0.1799591332674026,0.5606951117515564
1630067114594,0.6597055196762085,0.4796547889709472,0.1799591332674026,0.5492968559265137
1630067114715,0.6597055196762085,0.4682218432426452,0.2051477432250976,0.5401285886764526
1630067114794,0.6564045548439026,0.4336586594581604,0.2401717454195022,0.5401285886764526
1630067114950,0.6531454920768738,0.3995376229286194,0.3022978901863098,0.5401285886764526
1630067114997,0.6120321750640869,0.3654971718788147,0.3612281382083893,0.5401285886764526
1630067115094,0.6847927570343018,0.4801754057407379,0.3957849144935608,0.5401285886764526
1630067115250,0.8869873285293579,0.6654052138328552,0.4916259348392486,0.5344434976577759
1630067115343,1.0654746294021606,0.8159549832344055,0.6433770060539246,0.6811932325363159
1630067115453,1.1915013790130615,0.9039145708084106,0.7934063076972961,0.8695254325866699
1630067115562,1.2534723281860352,0.9438819289207458,0.8737898468971252,0.9717718362808228
1630067115593,1.264084815979004,0.9509775042533876,0.8832522034645081,0.9841201305389404
1630067115718,1.264084815979004,0.9524943828582764,0.8832522034645081,0.9841201305389404
1630067115812,1.264084815979004,0.9524943828582764,0.8832522034645081,0.9841201305389404
1630067116000,1.264084815979004,0.9524943828582764,0.8832522034645081,0.9841201305389404
1630067116031,1.264084815979004,0.9524943828582764,0.8832522034645081,0.9841201305389404
1630067116096,1.264084815979004,0.9524943828582764,0.8848787546157837,0.9804598093032836
1630067116221,1.264084815979004,0.9524943828582764,0.8864008784294128,0.9804598093032836
1630067116346,1.264084815979004,0.9618738889694214,0.8894327282905579,0.9804598093032836
1630067116440,1.264084815979004,0.9792789816856384,0.8894327282905579,0.9804598093032836
1630067116549,1.264084815979004,0.9792789816856384,0.8835604786872864,0.9804598093032836
1630067116580,1.264084815979004,0.9792789816856384,0.8805420398712158,0.9804598093032836
1630067116690,1.264084815979004,0.9792789816856384,0.8805420398712158,0.9786551594734192
1630067116799,1.2586581707000732,0.9792789816856384,0.8999386429786682,0.973759651184082
1630067116940,1.2065118551254272,1.0936790704727173,0.9302256107330322,0.9677172899246216
1630067117065,1.2065118551254272,1.077583074569702,0.9233423471450806,0.9677172899246216
1630067117177,1.2065118551254272,1.0489176511764526,0.8681617379188538,0.9677172899246216
1630067117208,1.2065118551254272,1.024710774421692,0.7865389585494995,0.9677172899246216
1630067117333,1.2065118551254272,1.0136455297470093,0.7115598917007446,0.9677172899246216
1630067117395,1.2065118551254272,1.0135269165039062,0.6972425580024719,0.9677172899246216
1630067117567,1.2065118551254272,1.018721580505371,0.6952060461044312,0.9677172899246216
1630067117661,1.2065118551254272,1.035940408706665,0.6942763328552246,0.9677172899246216
1630067117755,1.2065118551254272,1.053436040878296,0.6912746429443359,0.9677172899246216
1630067117848,1.2065118551254272,1.0709329843521118,0.7217369675636292,0.9677172899246216
1630067117911,1.2065118551254272,1.092543363571167,0.7260082960128784,0.9677172899246216
1630067118020,0.4867706596851349,1.092543363571167,0.7218483090400696,0.9677172899246216
1630067118243,0.4867706596851349,1.092543363571167,0.7145054340362549,0.9677172899246216
1630067118259,0.4867706596851349,1.092543363571167,0.711754560470581,0.9677172899246216
1630067118430,0.5031483769416809,1.0096083879470823,0.6793259978294373,0.9677172899246216
1630067118446,0.4930546581745147,1.092543363571167,0.699594259262085,0.9677172899246216
1630067118555,0.5375407934188843,0.9052750468254088,0.6115774512290955,0.9677172899246216
1630067118696,0.574388861656189,0.8619460463523865,0.5510732531547546,0.9677172899246216
1630067118774,0.6001725792884827,0.8544557094573975,0.5385956764221191,0.9677172899246216
1630067118961,0.6076737642288208,0.8544557094573975,0.5398445725440979,0.9167153835296632
1630067118977,0.6139674186706543,0.8544557094573975,0.5403616428375244,0.9167153835296632
1630067119167,0.6335765719413757,0.8544557094573975,0.5416724681854248,0.9167153835296632
1630067119167,0.6335765719413757,0.8544557094573975,0.5524032711982727,0.9167153835296632
1630067119260,0.6335765719413757,0.8544557094573975,0.5591762065887451,0.9167153835296632
1630067119385,0.6310559511184692,0.8330402374267578,0.5859823822975159,0.9167153835296632
1630067119510,0.5860334634780884,0.7744264006614685,0.5778447389602661,0.903510570526123
1630067119573,0.5015151500701904,0.250064343214035,0.519949734210968,0.25333371758461
1630067119698,0.4775704145431518,0.250064343214035,0.5106410384178162,0.25333371758461
1630067119745,0.4687565267086029,0.250064343214035,0.5104789733886719,0.25333371758461
1630067119823,0.4679718613624573,0.250064343214035,0.5104789733886719,0.25333371758461
1630067120010,0.466153085231781,0.250064343214035,0.5104789733886719,0.25333371758461
1630067120120,0.4634464681148529,0.2090907990932464,0.6014891266822815,0.25333371758461
1630067120171,0.4634464681148529,0.1951719373464584,0.6575539112091064,0.25333371758461
1630067120265,0.4634464681148529,0.2069651484489441,0.7139607071876526,0.25333371758461
1630067120374,0.4634464681148529,0.2456094771623611,0.7162719964981079,0.25333371758461
1630067120468,0.4634464681148529,0.2700941562652588,0.7162719964981079,0.25333371758461
1630067120655,0.4634464681148529,0.2948431074619293,0.7162719964981079,0.25333371758461
1630067120702,0.4634464681148529,0.3391580879688263,0.7162719964981079,0.25333371758461
1630067120811,0.3411906659603119,0.3913049399852752,0.7212392687797546,0.4778172671794891
1630067120921,0.3456056416034698,0.4058992266654968,0.7398868203163147,0.4778172671794891
1630067120968,0.3456056416034698,0.4097550809383392,0.7341642379760742,0.4778172671794891
1630067121077,0.3456056416034698,0.4159106314182281,0.7681086659431458,0.4778172671794891
1630067121251,0.3456056416034698,0.4190680086612701,0.7945564985275269,0.4778172671794891
1630067121392,0.3456056416034698,0.4218757450580597,0.7969195246696472,0.4778172671794891
1630067121454,0.3968335092067718,0.4275029897689819,0.7969195246696472,0.4778172671794891
1630067121532,0.4695318043231964,0.436204195022583,0.7969195246696472,0.4997992515563965
1630067121579,0.5097747445106506,0.4438941180706024,0.7969195246696472,0.6305273175239563
1630067121642,0.5119726061820984,0.4438941180706024,0.7969195246696472,0.7439905405044556
1630067121860,0.5392478108406067,0.4438941180706024,0.7887880206108093,0.8245464563369751
1630067121939,0.5661316514015198,0.4766259789466858,0.7380322217941284,0.8811656832695007
1630067122001,0.5712264180183411,0.4852139055728912,0.6826393604278564,0.8829450011253357
1630067122160,0.5729419589042664,0.4727829396724701,0.6610631942749023,0.8829450011253357
1630067122238,0.5725721120834351,0.472489446401596,0.6610631942749023,0.8829450011253357
1630067122332,0.5725721120834351,0.4750525057315826,0.6610631942749023,0.8808920383453369
1630067122457,0.5725721120834351,0.472586840391159,0.6469148993492126,0.8808920383453369
1630067122535,0.5725721120834351,0.472586840391159,0.5955148935317993,0.8808920383453369
1630067122644,0.5725721120834351,0.472586840391159,0.5065229535102844,0.8808920383453369
1630067122753,0.5725721120834351,0.5239881277084351,0.4825489223003387,0.8808920383453369
1630067122847,0.5725721120834351,0.6941781044006348,0.4665427207946777,0.8808920383453369
1630067122894,0.5725721120834351,0.8866989016532898,0.4944710731506347,0.8808920383453369
1630067123019,0.5624809265136719,0.9596062898635864,0.5337944030761719,0.8808920383453369
1630067123143,0.5394949913024902,0.9596062898635864,0.5744273662567139,0.8808920383453369
1630067123209,0.5038477182388306,0.9596062898635864,0.5916547179222107,0.8703001737594604
1630067123318,0.4643771350383758,0.9596062898635864,0.5918115377426147,0.8371689319610596
1630067123428,0.4147481024265289,0.9596062898635864,0.5926477909088135,0.799258291721344
1630067123521,0.3421525955200195,0.958805501461029,0.5966594219207764,0.6936014890670776
1630067123631,0.3085851669311523,0.9498093128204346,0.6031143665313721,0.6192346811294556
1630067123756,0.3085851669311523,0.9356200695037842,0.6176815032958984,0.6192346811294556
1630067123896,0.3085851669311523,0.92811518907547,0.6262728571891785,0.6192346811294556
1630067123928,0.3085851669311523,0.9259093403816224,0.6262728571891785,0.6192346811294556
1630067124068,0.3085851669311523,0.9259093403816224,0.6262728571891785,0.6192346811294556
1630067124146,0.3085851669311523,0.9259093403816224,0.6262728571891785,0.6192346811294556
1630067124289,0.3085851669311523,0.9284015893936156,0.6262728571891785,0.6192346811294556
1630067124367,0.3085851669311523,0.9437522888183594,0.6262728571891785,0.6192346811294556
1630067124477,0.3085851669311523,0.9612307548522948,0.6262728571891785,0.6192346811294556
1630067124570,0.3085851669311523,0.522633969783783,0.610662043094635,0.6192346811294556
1630067124695,0.3085851669311523,0.522633969783783,0.6025381088256836,0.6192346811294556
1630067124742,0.3085851669311523,0.522633969783783,0.5704271197319031,0.6192346811294556
1630067124945,0.3085851669311523,0.522633969783783,0.549645185470581,0.6192346811294556
1630067124992,0.3085851669311523,0.522633969783783,0.5475808382034302,0.6192346811294556
1630067125086,0.3085851669311523,0.522633969783783,0.5430213212966919,0.6192346811294556
1630067125148,0.3085851669311523,0.522633969783783,0.5285786986351013,0.6192346811294556
1630067125324,0.3085851669311523,0.522633969783783,0.5049363374710083,0.6192346811294556
1630067125496,0.3085851669311523,0.4728942215442657,0.4647575914859772,0.6192346811294556
1630067125527,0.3085851669311523,0.5307078957557678,0.4394418001174927,0.6192346811294556
1630067125621,0.3085851669311523,0.5387702584266663,0.4320883154869079,0.6192346811294556
1630067125668,0.3085851669311523,0.5457975268363953,0.4211591184139251,0.6192346811294556
1630067125762,0.3085851669311523,0.5809049606323242,0.4091725945472717,0.6192346811294556
1630067125871,0.3085851669311523,0.617215633392334,0.3948662877082824,0.6192346811294556
1630067125949,0.3085851669311523,0.6270469427108765,0.3560719788074493,0.6192346811294556
1630067126074,1.0997986793518066,0.5017700791358948,0.3064510226249695,0.7266631722450256
1630067126186,1.0997986793518066,0.5017700791358948,0.2479122430086136,0.7266631722450256
1630067126311,1.0997986793518066,0.5142803192138672,0.3134715259075165,0.7266631722450256
1630067126357,1.0997986793518066,0.5343894958496094,0.3301179111003876,0.7266631722450256
1630067126467,1.0997986793518066,0.5859745144844055,0.3645380735397339,0.7266631722450256
1630067126560,1.0997986793518066,0.6090336441993713,0.3856032490730285,0.7266631722450256
1630067126717,1.0997986793518066,0.6144987940788269,0.3856032490730285,0.7266631722450256
1630067126779,1.0997986793518066,0.6144987940788269,0.3856032490730285,0.7266631722450256
1630067126857,1.0997986793518066,0.6144987940788269,0.3856032490730285,0.7266631722450256
1630067126967,1.0997986793518066,0.610470175743103,0.3856032490730285,0.7266631722450256
1630067127076,1.0997986793518066,0.6000396013259888,0.3803951442241668,0.7266631722450256
1630067127203,1.0997986793518066,0.5687927007675171,0.3638387024402618,0.7266631722450256
1630067127328,1.0997986793518066,0.5351747274398804,0.3885405659675598,0.7266631722450256
1630067127391,1.0997986793518066,0.5025081634521484,0.4330819547176361,0.7266631722450256
1630067127484,1.0997986793518066,0.4492017328739166,0.437259703874588,0.7266631722450256
1630067127688,1.0997986793518066,0.4172977209091186,0.418953001499176,0.7266631722450256
1630067127734,1.0997986793518066,0.404292345046997,0.4154402613639831,0.7266631722450256
1630067127812,1.0997986793518066,0.404152899980545,0.4131197333335876,0.7266631722450256
1630067127922,1.0997986793518066,0.4196605682373047,0.4233078360557556,0.7266631722450256
1630067128047,1.0997986793518066,0.4196605682373047,0.4415619075298309,0.7266631722450256
1630067128109,1.0997986793518066,0.3894714117050171,0.4464333057403564,0.7266631722450256
1630067128253,1.0997986793518066,0.1680611371994018,0.5097121596336365,0.7266631722450256
1630067128300,1.0997986793518066,0.1680611371994018,0.5142609477043152,0.7266631722450256
1630067128440,1.0997986793518066,0.1680611371994018,0.5172910690307617,0.7266631722450256
1630067128581,1.0997986793518066,0.1680611371994018,0.5172910690307617,0.7266631722450256
1630067128628,1.0997986793518066,0.1680611371994018,0.5172910690307617,0.7266631722450256
1630067128737,1.0997986793518066,0.1680611371994018,0.5172910690307617,0.7266631722450256
1630067128815,1.0997986793518066,0.1680611371994018,0.5172910690307617,0.7266631722450256
1630067128893,1.0997986793518066,0.1680611371994018,0.5085263848304749,0.7266631722450256
1630067128987,1.0997986793518066,0.2580971717834472,0.4859881103038788,0.7266631722450256
1630067129143,1.0997986793518066,0.2619645595550537,0.4693085849285126,0.7266631722450256
1630067129253,1.0997986793518066,0.2655231058597564,0.4577359855175018,0.7266631722450256
1630067129331,1.0997986793518066,0.2679018080234527,0.4553484916687011,0.7266631722450256
1630067129456,1.0997986793518066,0.0877357199788093,0.4428657293319702,0.7266631722450256
1630067129534,1.0997986793518066,0.1491543501615524,0.4528273344039917,0.7266631722450256
1630067129659,1.0997986793518066,0.2303348630666732,0.4990352392196655,0.7266631722450256
1630067129737,1.0997986793518066,0.2303348630666732,0.4959407448768616,0.7266631722450256
1630067129846,1.0997986793518066,0.2303348630666732,0.4487915635108948,0.7266631722450256
1630067129940,1.0997986793518066,0.2303348630666732,0.3805234730243683,0.7266631722450256
1630067130096,1.0997986793518066,0.2303348630666732,0.3408862948417663,0.7266631722450256
1630067130177,1.0997986793518066,0.2303348630666732,0.3289049863815307,0.7266631722450256
1630067130208,1.0997986793518066,0.2303348630666732,0.3289049863815307,0.7266631722450256
1630067130396,1.0997986793518066,0.2303348630666732,0.3283495903015136,0.7266631722450256
1630067130458,1.0997986793518066,0.2303348630666732,0.324992686510086,0.7266631722450256
1630067130521,1.0997986793518066,0.2303348630666732,0.3233263194561004,0.7266631722450256
1630067130630,1.0997986793518066,0.2170069962739944,0.3225725591182709,0.7266631722450256
1630067130694,1.0997986793518066,0.2086055725812912,0.309482991695404,0.7266631722450256
1630067130819,1.0997986793518066,0.2086055725812912,0.309482991695404,0.7266631722450256
1630067130959,1.0997986793518066,0.2086055725812912,0.309482991695404,0.7266631722450256
1630067131022,1.0997986793518066,0.2086055725812912,0.309482991695404,0.7266631722450256
1630067131164,1.0997986793518066,0.2086055725812912,0.309482991695404,0.7266631722450256
1630067131305,1.0997986793518066,0.2086055725812912,0.309482991695404,0.7266631722450256
1630067131336,1.0997986793518066,0.2086055725812912,0.309482991695404,0.7266631722450256
1630067131430,1.0997986793518066,0.2086055725812912,0.309482991695404,0.7266631722450256
1630067131571,1.0997986793518066,0.2086055725812912,0.309482991695404,0.7266631722450256
1630067131664,1.0997986793518066,0.6438031196594238,0.309482991695404,0.7266631722450256
1630067131774,0.6087247729301453,0.6806085705757141,0.309482991695404,0.7266631722450256
1630067131914,0.6418780088424683,0.7161574363708496,0.309482991695404,-0.203160747885704
1630067131961,0.7042760252952576,0.7443134188652039,0.309482991695404,0.0547979697585105
1630067132086,0.782538890838623,0.7603946924209595,0.309482991695404,0.2327757179737091
1630067132214,0.782538890838623,0.7682883143424988,0.309482991695404,0.2327757179737091
1630067132292,0.782538890838623,0.7682883143424988,0.309482991695404,0.2327757179737091
1630067132386,0.782538890838623,0.7682883143424988,0.309482991695404,0.2327757179737091
1630067132480,0.782538890838623,0.7682883143424988,0.309482991695404,0.2327757179737091
1630067132558,0.782538890838623,0.7682883143424988,0.309482991695404,0.2327757179737091
1630067132620,0.782538890838623,0.7682883143424988,0.309482991695404,0.2327757179737091
1630067132808,0.782538890838623,0.7682883143424988,0.309482991695404,0.2327757179737091
1630067132870,0.782538890838623,0.7641440629959106,0.309482991695404,0.2327757179737091
1630067132933,0.774880051612854,0.747497022151947,0.309482991695404,0.2327757179737091
1630067133073,0.7384240627288818,0.7135515809059143,0.309482991695404,0.2327757179737091
1630067133263,0.7093319892883301,0.6602650880813599,0.309482991695404,0.2327757179737091
1630067133310,0.7093319892883301,0.6155393123626709,0.309482991695404,0.2327757179737091
1630067133435,0.7093319892883301,0.6155393123626709,0.309482991695404,0.2327757179737091
1630067133482,0.7093319892883301,0.6155393123626709,0.309482991695404,0.2327757179737091
1630067133560,0.7093319892883301,0.6155393123626709,0.309482991695404,0.2327757179737091
1630067133732,0.7093319892883301,0.6155393123626709,0.309482991695404,0.2327757179737091
1630067133779,0.7093319892883301,0.6155393123626709,0.5032932758331299,0.2327757179737091
1630067133888,0.7093319892883301,0.6155393123626709,0.5032932758331299,0.2327757179737091
1630067133982,0.7093319892883301,0.6155393123626709,0.5032932758331299,0.2327757179737091
1630067134107,0.7093319892883301,0.6155393123626709,0.5123632550239563,0.2327757179737091
1630067134203,0.7093319892883301,0.6155393123626709,0.535099983215332,0.2327757179737091
1630067134312,0.7093319892883301,0.6155393123626709,0.5514761805534363,0.2327757179737091
1630067134390,0.7093319892883301,0.6155393123626709,0.5523108243942261,0.2327757179737091
1630067134484,0.7093319892883301,0.0552519634366035,0.5523108243942261,0.2327757179737091
1630067134593,0.7093319892883301,0.0552519634366035,0.5523108243942261,0.2327757179737091
1630067134734,0.7093319892883301,0.0552519634366035,0.5523108243942261,0.2327757179737091
1630067134828,0.7093319892883301,0.0552519634366035,0.5523108243942261,0.9606602787971495
1630067134890,0.7093319892883301,0.0705910846590995,0.5523108243942261,0.9606602787971495
1630067135031,0.7093319892883301,0.0868411734700203,0.5523108243942261,0.9606602787971495
1630067135126,0.7093319892883301,0.0992986410856247,0.5298250913619995,0.9606602787971495
1630067135237,0.7093319892883301,0.1086299866437912,0.4470186829566955,0.9606602787971495
1630067135377,0.7093319892883301,0.1086299866437912,0.3168238401412964,0.9606602787971495
1630067135502,1.0233964920043943,0.1086299866437912,0.1816584467887878,0.968769907951355
1630067135565,1.0233964920043943,0.1086299866437912,0.1280397027730941,1.0057398080825806
1630067135612,1.0233964920043943,0.1144040077924728,0.106655053794384,1.0724056959152222
1630067135721,1.0233964920043943,0.1207788065075874,0.1004779115319252,1.0814684629440308
1630067135815,1.0233964920043943,0.2523664236068725,0.0706342235207557,1.0814684629440308
1630067135940,1.0233964920043943,0.4548481106758117,0.1326590925455093,1.0814684629440308
1630067136065,1.0233964920043943,0.5565894246101379,0.185295283794403,1.0787804126739502
1630067136111,1.0233964920043943,0.5846483111381531,0.2223559617996215,1.0787804126739502
1630067136224,1.0233964920043943,0.5846483111381531,0.2244371175765991,1.076798915863037
1630067136364,1.010509014129639,0.5846483111381531,0.2244371175765991,1.0674656629562378
1630067136489,0.9862451553344728,0.5846483111381531,0.2244371175765991,1.0662841796875
1630067136567,0.990302562713623,0.5846483111381531,0.2244371175765991,1.0662841796875
1630067136630,0.990302562713623,0.6003324389457703,0.2256288677453994,1.0688244104385376
1630067136786,0.990302562713623,0.6125198602676392,0.260957270860672,1.0694056749343872
1630067136849,0.990302562713623,0.6125198602676392,0.3218265771865845,1.068756937980652
1630067136927,0.9635896682739258,0.6125198602676392,0.3834217488765716,1.0489983558654783
1630067137099,0.9484519362449646,0.6535099148750305,0.4667465686798095,1.0229406356811523
1630067137164,0.9751694798469543,0.7090981006622314,0.5602390766143799,1.0123895406723022
1630067137227,0.9813235998153688,0.7341075539588928,0.6291535496711731,0.9473514556884766
1630067137305,0.9740030765533448,0.7563621997833252,0.6497658491134644,0.898027777671814
1630067137476,0.963771402835846,0.7623860239982605,0.6647618412971497,0.898027777671814
1630067137539,0.969292938709259,0.7623860239982605,0.6647618412971497,0.898027777671814
1630067137664,0.9722159504890442,0.7393919229507446,0.6647618412971497,0.898027777671814
1630067137773,0.9676573872566224,0.6947932243347168,0.6647618412971497,0.898027777671814
1630067137851,0.9534528255462646,0.6970803141593933,0.6647618412971497,0.898027777671814
1630067137961,0.952040672302246,0.695847749710083,0.6647618412971497,0.898027777671814
1630067138008,0.952040672302246,0.695847749710083,0.6647618412971497,0.898027777671814
1630067138149,0.952040672302246,0.695847749710083,0.6647618412971497,0.898027777671814
1630067138326,0.952040672302246,0.6926939487457275,0.6647618412971497,0.898027777671814
1630067138404,0.952040672302246,0.6917763352394104,0.6647618412971497,0.898027777671814
1630067138482,0.9502217769622804,0.6917763352394104,0.6481040716171265,0.898027777671814
1630067138638,0.9402689337730408,0.6917763352394104,0.5963087677955627,0.898027777671814
1630067138701,0.9181252121925354,0.6799883246421814,0.5963087677955627,0.898027777671814
1630067138748,0.8982170820236206,0.6466296911239624,0.5963087677955627,0.898027777671814
1630067138857,0.8982170820236206,0.6085818409919739,0.5963087677955627,0.898027777671814
1630067139013,0.8982170820236206,0.5648536086082458,0.5963087677955627,0.898027777671814
1630067139076,0.8982170820236206,0.5648536086082458,0.5963087677955627,0.898027777671814
1630067139188,0.8982170820236206,0.5648536086082458,0.5963087677955627,0.898027777671814
1630067139266,0.8982170820236206,0.5648536086082458,0.5963087677955627,0.898027777671814
1630067139359,0.8982170820236206,0.5648536086082458,0.5963087677955627,0.898027777671814
1630067139516,0.8982170820236206,0.5648536086082458,0.5963087677955627,0.898027777671814
1630067139578,0.8982170820236206,0.5648536086082458,0.5963087677955627,0.898027777671814
1630067139672,0.8982170820236206,0.5648536086082458,0.5963087677955627,0.898027777671814
1630067139844,0.8982170820236206,0.5648536086082458,0.5963087677955627,0.898027777671814
1630067139906,0.8982170820236206,0.5648536086082458,0.5963087677955627,0.898027777671814
1630067139953,0.8982170820236206,0.5648536086082458,0.5963087677955627,0.898027777671814
1630067140141,0.8982170820236206,0.5648536086082458,0.5963087677955627,0.898027777671814
1630067140221,0.8982170820236206,0.5648536086082458,0.5963087677955627,0.898027777671814
1630067140268,0.8982170820236206,0.5648536086082458,0.5963087677955627,0.898027777671814
1630067140424,0.8982170820236206,0.5648536086082458,0.5963087677955627,0.898027777671814
1630067140455,0.6496453881263733,0.5648536086082458,0.1640548110008239,0.6657363176345825
1630067140549,0.6739566922187805,0.5648536086082458,0.2178306579589843,0.6767962574958801
1630067140737,0.7097805738449097,0.5648536086082458,0.2562033534049988,0.7018334865570068
1630067140815,0.7230985164642334,0.5648536086082458,0.2833343744277954,0.710720419883728
1630067140877,0.7292110323905945,0.5648536086082458,0.2833343744277954,0.710720419883728
1630067140971,0.7333488464355469,0.5648536086082458,0.2833343744277954,0.710720419883728
1630067141112,0.7333488464355469,0.5648536086082458,0.2833343744277954,0.710720419883728
1630067141208,0.7333488464355469,0.5648536086082458,0.2833343744277954,0.710720419883728
1630067141380,0.7333488464355469,0.5648536086082458,0.2833343744277954,0.710720419883728
1630067141411,0.7333488464355469,0.5648536086082458,0.2833343744277954,0.710720419883728
1630067141552,0.7333488464355469,0.5648536086082458,0.2833343744277954,0.710720419883728
1630067141630,0.7333488464355469,0.5648536086082458,0.2833343744277954,0.710720419883728
1630067141692,0.6536600589752197,0.5648536086082458,0.2863070070743561,0.7919145226478577
1630067141833,0.6198527812957764,0.190572515130043,0.299020767211914,0.7847273349761963
1630067141958,0.6115860342979431,0.2569948136806488,0.3062954246997833,0.7844007015228271
1630067142052,0.6178652048110962,0.2821208536624908,0.3071168661117553,0.7799345254898071
1630067142179,0.6130431890487671,0.2832448780536651,0.2919407784938812,0.8182331919670105
1630067142211,0.5974822640419006,0.2832448780536651,0.2317826300859451,0.8136337995529175
1630067142336,0.5804235935211182,0.2832448780536651,0.1749377846717834,0.8111148476600647
1630067142429,0.5423454642295837,0.2832448780536651,0.0909289941191673,0.8111148476600647
1630067142570,0.526590883731842,0.2832448780536651,0.0900627970695495,0.8111148476600647
1630067142617,0.5339162349700928,0.2832448780536651,0.0900627970695495,0.8111148476600647
1630067142757,0.5354868769645691,0.2832448780536651,0.0900627970695495,0.8111148476600647
1630067142898,0.5476179122924805,0.2894895374774933,0.0900627970695495,0.8111148476600647
1630067142945,0.5828155279159546,0.3580173552036285,0.1214466467499733,0.8111148476600647
1630067143085,0.6511974334716797,0.4793418943881988,0.1941574215888977,0.8111148476600647
1630067143166,0.7533340454101562,0.6135069131851196,0.261242151260376,0.8111148476600647
1630067143291,0.8099689483642578,0.6762053966522217,0.3400672674179077,0.7210100293159485
1630067143307,0.8319371342658997,0.6850500702857971,0.4068169295787811,0.7210100293159485
1630067143448,0.8584085702896118,0.6733257174491882,0.4549550414085388,0.7379058003425598
1630067143541,0.8738728761672974,0.6751784086227417,0.4970126450061798,0.7719034552574158
1630067143635,0.8764539957046509,0.6748833656311035,0.5326312780380249,0.717286229133606
1630067143760,0.8764539957046509,0.6718769669532776,0.5808890461921692,0.685936450958252
1630067143869,0.8749281167984009,0.6711368560791016,0.6107589602470398,0.674877405166626
1630067144010,0.870968759059906,0.671456515789032,0.6161654591560364,0.674877405166626
1630067144072,0.8675002455711365,0.6902568340301514,0.6161654591560364,0.672244668006897
1630067144154,0.8675002455711365,0.7267876267433167,0.6161654591560364,0.6600642800331116
1630067144342,0.8675002455711365,0.755490243434906,0.6161654591560364,0.654924213886261
1630067144435,0.8675002455711365,0.755490243434906,0.6177274584770203,0.6515612602233887
1630067144451,0.8675002455711365,0.755490243434906,0.6289528608322144,0.649079442024231
1630067144545,0.8675002455711365,0.755490243434906,0.6289528608322144,0.6478520631790161
1630067144638,0.8657069206237793,0.7524353265762329,0.6289528608322144,0.6478520631790161
1630067144748,0.8201324939727783,0.7094493508338928,0.6289528608322144,0.6348530054092407
1630067144826,0.7185342907905579,0.6494371891021729,0.6289528608322144,0.6278523802757263
1630067144982,0.6251392364501953,0.6033263206481934,0.6289528608322144,0.6136337518692017
1630067145107,0.5978594422340393,0.5506303310394287,0.6289528608322144,0.6022890210151672
1630067145156,0.5978594422340393,0.4799789190292358,0.592644989490509,0.6022890210151672
1630067145281,0.5978594422340393,0.397168219089508,0.5466790795326233,0.6022890210151672
1630067145328,0.5978594422340393,0.3692789077758789,0.5171947479248047,0.6022890210151672
1630067145469,0.5978594422340393,0.3873270153999328,0.4718940556049347,0.6022890210151672
1630067145641,0.5978594422340393,0.428827702999115,0.4361072480678558,0.6022890210151672
1630067145719,0.6603326201438904,0.4364805817604065,0.4263918399810791,0.4599784612655639
1630067145781,0.7168410420417786,0.248194083571434,0.4007072746753692,0.5005138516426086
1630067145859,0.7218853235244751,0.248194083571434,0.379156082868576,0.5029456615447998
1630067146016,0.7218853235244751,0.248194083571434,0.3412353098392486,0.5044264197349548
1630067146094,0.7218853235244751,0.2511743307113647,0.2426025420427322,0.5044264197349548
1630067146190,0.7218853235244751,0.2609776854515075,0.1058762893080711,0.5044264197349548
1630067146299,0.7257977724075317,0.2706122696399688,0.074220061302185,0.5046545267105103
1630067146424,0.736638605594635,0.2766441702842712,0.1020246520638465,0.5115642547607422
1630067146503,0.7555261850357056,0.2795498669147491,0.1497881263494491,0.5115642547607422
1630067146612,0.7657202482223511,0.2795498669147491,0.1867918074131012,0.5115642547607422
1630067146690,0.7702630758285522,0.2795498669147491,0.2124445289373397,0.5147401094436646
1630067146768,0.7752699851989746,0.2795498669147491,0.243618831038475,0.5179164409637451
1630067146924,0.7752699851989746,0.2790191173553467,0.2918366193771362,0.4726559519767761
1630067147049,0.7866977453231812,0.2808775305747986,0.3428872525691986,0.424587219953537
1630067147161,0.7904711365699768,0.2689582109451294,0.366586685180664,0.3971674144268036
1630067147208,0.7998082041740417,0.2109995186328888,0.3897464275360107,0.6554270386695862
1630067147317,0.8265506029129028,0.1873570680618286,0.3957089483737945,0.808025062084198
1630067147489,0.8448200821876526,0.2310920357704162,0.3997227251529693,0.8512563109397888
1630067147520,0.8502620458602905,0.2923970818519592,0.4159885346889496,0.8615332245826721
1630067147676,0.8552342057228088,0.3429825901985168,0.4596244692802429,0.8615332245826721
1630067147723,0.8771492838859558,0.3858868181705475,0.4935760796070099,0.8615332245826721
1630067147817,0.927585244178772,0.4354746341705322,0.4981963038444519,0.8615332245826721
1630067147895,0.976012647151947,0.4895463287830353,0.4981963038444519,0.8615332245826721
1630067148036,0.999910295009613,0.5244470238685608,0.4970756471157074,0.937342405319214
1630067148146,1.0044537782669067,0.5672541260719299,0.4957574605941772,0.9603522419929504
1630067148241,1.0073093175888062,0.6145429611206055,0.5007513761520386,0.9611791372299194
1630067148288,1.008272409439087,0.6297142505645752,0.5080167055130005,0.9634392261505128
1630067148398,1.016202688217163,0.6297142505645752,0.4983054101467132,0.9634392261505128
1630067148476,1.0282716751098633,0.6297142505645752,0.4916580021381378,0.9634392261505128
1630067148632,1.0321030616760254,0.6297142505645752,0.4564351737499237,0.9634392261505128
1630067148710,1.0318498611450195,0.6297142505645752,0.4356677234172821,0.9632335305213928
1630067148804,1.0271387100219729,0.6297142505645752,0.3900734782218933,0.9528549313545228
1630067148960,1.0145397186279297,0.6314080357551575,0.3898198306560516,0.9201330542564392
1630067148991,0.9887199401855468,0.6527882814407349,0.4012221992015838,0.8608140349388123
1630067149100,0.9903935194015504,0.6873794794082642,0.4027877748012543,0.8608140349388123
1630067149244,1.002180099487305,0.703137993812561,0.3797000348567962,0.8608140349388123
1630067149338,1.002180099487305,0.7118844985961914,0.3567293584346771,0.8608140349388123
1630067149400,1.002180099487305,0.7118844985961914,0.3729912936687469,0.8608140349388123
1630067149510,0.989335298538208,0.7108458280563354,0.4085789322853088,0.8608140349388123
1630067149619,0.9322920441627502,0.7082894444465637,0.4900884926319122,0.8608140349388123
1630067149713,0.8486372828483582,0.6875675916671753,0.6056193709373474,0.8608140349388123
1630067149869,0.807735800743103,0.6560234427452087,0.6544306874275208,0.8608140349388123
1630067149963,0.798513650894165,0.6155664920806885,0.6731194853782654,0.8608140349388123
1630067150072,0.7978591918945312,0.5844632983207703,0.6776604056358337,0.8608140349388123
1630067150134,0.7929480075836182,0.576167643070221,0.678791880607605,0.8608140349388123
1630067150232,0.7902955412864685,0.576167643070221,0.6790769696235657,0.8608140349388123
1630067150341,0.7902955412864685,0.576167643070221,0.6832796931266785,0.8608140349388123
1630067150513,0.7902955412864685,0.5868194699287415,0.688406229019165,0.8608140349388123
1630067150591,0.7902955412864685,0.5868194699287415,0.688406229019165,0.8608140349388123
1630067150654,0.7902955412864685,0.5655940771102905,0.688406229019165,0.8608140349388123
1630067150732,0.7902955412864685,0.5258591175079346,0.688406229019165,0.8608140349388123
1630067150841,0.8438059687614441,0.4488141536712646,0.688406229019165,0.8608140349388123
1630067150966,0.8590757250785828,0.4488141536712646,0.688406229019165,0.7962352633476257
1630067151060,0.8731204271316528,0.4488141536712646,0.688406229019165,0.8207735419273376
1630067151173,0.8957809209823608,0.4488141536712646,0.6781203746795654,0.8345608711242676
1630067151251,0.9216947555541992,0.4488141536712646,0.6550328135490417,0.8345608711242676
1630067151329,0.9239723086357116,0.4488141536712646,0.5815749168395996,0.8345608711242676
1630067151501,0.9239723086357116,0.4488141536712646,0.5359201431274414,0.8345608711242676
1630067151548,0.9239723086357116,0.4488141536712646,0.5275806784629822,0.8345608711242676
1630067151657,0.9239723086357116,0.4488141536712646,0.5223541855812073,0.8345608711242676
1630067151813,0.9239723086357116,0.4488141536712646,0.5019500255584717,0.8345608711242676
1630067151923,0.9239723086357116,0.4488141536712646,0.4276257455348968,0.8345608711242676
1630067151969,0.9239723086357116,0.359020471572876,0.2799792885780334,0.8345608711242676
1630067152094,0.887308657169342,0.2922388613224029,0.1802655309438705,0.8345608711242676
1630067152160,0.8597449660301208,0.233018010854721,0.1215767711400985,0.7913753986358643
1630067152269,0.8359886407852173,0.2161954939365387,0.0924344733357429,0.7627406716346741
1630067152394,0.8178035616874695,0.2067302465438842,0.0837073847651481,0.7491779923439026
1630067152488,0.7921310663223267,0.1560195684432983,0.06168694794178,0.7147843837738037
1630067152566,0.788801908493042,0.0716482698917388,0.0049584195949137,0.6673227548599243
1630067152644,0.7868118286132812,0.0153692467138171,0.0029428012203425,0.6362073421478271
1630067152722,0.7644712924957275,-0.0175274182111024,0.0299771893769502,0.5505434274673462
1630067152878,0.7644712924957275,-0.0482856966555118,0.1567368060350418,0.5505434274673462
1630067153034,0.7644712924957275,0.0689010918140411,0.2945591509342193,0.5505434274673462
1630067153128,0.7644712924957275,0.1267812997102737,0.4856448471546173,0.5505434274673462
1630067153177,0.7644712924957275,0.1876855492591858,0.6252201795578003,0.5505434274673462
1630067153318,0.7644712924957275,0.2041011303663253,0.6781841516494751,0.5505434274673462
1630067153396,0.7251368761062622,0.1915836036205291,0.6849040389060974,0.5505434274673462
1630067153537,0.8030474781990051,0.195790946483612,0.688795804977417,0.511294960975647
1630067153615,0.8556395173072815,0.2012647688388824,0.6912719011306763,0.6112347841262817
1630067153693,0.8738809823989868,0.209426537156105,0.6963000893592834,0.6484618782997131
1630067153787,0.8738809823989868,0.2360629737377166,0.6984988451004028,0.6484618782997131
1630067153865,0.8762508034706116,0.2729563415050506,0.6984988451004028,0.6484618782997131
1630067153990,0.8790440559387207,0.3056971132755279,0.6984988451004028,0.6484618782997131
1630067154099,0.8790440559387207,0.3158444166183471,0.6984988451004028,0.6484618782997131
1630067154255,0.8790440559387207,0.3158444166183471,0.6984988451004028,0.6484618782997131
1630067154333,0.8790440559387207,0.3158444166183471,0.6984988451004028,0.6539587378501892
1630067154427,0.8790440559387207,0.3158444166183471,0.6984988451004028,0.6605328917503357
1630067154521,0.8790440559387207,0.3110678791999817,0.6984988451004028,0.6629478931427002
1630067154646,0.8774915337562561,0.2886399030685425,0.6990727186203003,0.6629478931427002
1630067154755,0.8749669194221497,0.2830718457698822,0.7098523378372192,0.6611999273300171
1630067154818,0.8704789876937866,0.2534900605678558,0.6687554717063904,0.6550746560096741
1630067154927,0.8559339642524719,0.2229744642972946,0.5435530543327332,0.6449767351150513
1630067155021,0.8427614569664001,0.2346832901239395,0.3686360716819763,0.6376056671142578
1630067155130,0.8330127596855164,0.2697507739067077,0.2307371646165847,0.6149802803993225
1630067155227,0.7744402885437012,0.2608029842376709,0.2162719517946243,0.5398218631744385
1630067155367,0.674658477306366,0.2556918859481811,0.2162719517946243,0.4109926521778106
1630067155430,0.6226965188980103,0.2485740929841995,0.2162719517946243,0.3222472667694092
1630067155492,0.5907827615737915,0.2380108088254928,0.2116083651781082,0.3054253756999969
1630067155586,0.5471389889717102,0.2174635827541351,0.2116083651781082,0.3034884631633758
1630067155711,0.5030326843261719,0.1941021382808685,0.2116083651781082,0.3034884631633758
1630067155820,0.4246750175952911,0.1794690787792205,0.2116083651781082,0.3031762838363647
1630067155945,0.4246750175952911,0.33302041888237,0.2116083651781082,0.3031762838363647
1630067156054,0.4246750175952911,0.3436261117458343,0.398537129163742,0.3031762838363647
1630067156149,0.4246750175952911,0.3436261117458343,0.3828708827495575,0.3031762838363647
1630067156244,0.4246750175952911,0.3436261117458343,0.3486866354942322,0.3031762838363647
1630067156338,0.4246750175952911,0.3408186733722687,0.2381741553544998,0.3031762838363647
1630067156432,0.831041693687439,0.3408186733722687,0.2397520244121551,0.3031762838363647
1630067156557,0.8667812943458557,0.3410558402538299,0.2491299659013748,0.8066089153289795
1630067156635,0.8668989539146423,0.231359526515007,0.2688238024711609,0.8164785504341125
1630067156713,0.8668989539146423,0.231359526515007,0.2763392329216003,0.825800359249115
1630067156822,0.8668989539146423,0.232169896364212,0.2777682542800903,0.88167804479599
1630067156947,0.8668989539146423,0.2334444522857666,0.2828458249568939,0.944851815700531
1630067157025,0.8673556447029114,0.2334444522857666,0.2915869951248169,0.9825353026390076
1630067157169,0.8778177499771118,0.234629601240158,0.2949472069740295,0.9938172698020936
1630067157294,0.8824459910392761,0.2416050881147384,0.2949472069740295,0.9950100779533386
1630067157356,0.8824459910392761,0.2435768544673919,0.2949472069740295,0.995547652244568
1630067157419,0.8824459910392761,0.2209889739751815,0.2949472069740295,0.9970690608024596
1630067157591,0.8824459910392761,0.208662524819374,0.2201726585626602,1.0017744302749634
1630067157653,0.8824459910392761,0.1835517734289169,0.1730624437332153,1.0076535940170288
1630067157762,0.8824459910392761,0.1587010622024536,0.1758320778608322,1.0076535940170288
1630067157872,0.8593623042106628,0.1832430064678192,0.1602906882762909,1.0076535940170288
1630067157966,0.7800157070159912,0.2739112675189972,0.1422966718673706,1.0053664445877075
1630067158059,0.7027052640914917,0.3106977045536041,0.1509490460157394,0.997035264968872
1630067158156,0.6298871636390686,0.3498284220695495,0.1588160097599029,0.940750777721405
1630067158328,0.5796900987625122,0.3498284220695495,0.3356307744979858,0.869111955165863
1630067158406,0.5585052967071533,0.3498284220695495,0.6547475457191467,0.8291943073272705
1630067158453,0.546171247959137,0.3498284220695495,0.8399770855903625,0.8282833695411682
1630067158546,0.5412783622741699,0.3498284220695495,0.881641149520874,0.826892614364624
1630067158640,0.531208872795105,0.3498284220695495,0.881641149520874,0.7839499115943909
1630067158781,0.4972444772720337,0.3432201445102691,0.881641149520874,0.6808272004127502
1630067158843,0.4593936800956726,0.3341127336025238,0.881641149520874,0.5971760153770447
1630067159031,0.4344466626644134,0.3341127336025238,0.881641149520874,0.5327943563461304
1630067159093,0.4149979650974273,0.3341127336025238,0.881641149520874,0.4918307960033417
1630067159141,0.4149979650974273,0.3341127336025238,0.881641149520874,0.4918307960033417
1630067159270,0.4149979650974273,0.3524411618709564,0.881641149520874,0.4918307960033417
1630067159426,0.4149979650974273,0.3443047702312469,0.881641149520874,0.4918307960033417
1630067159426,0.4149979650974273,0.3524411618709564,0.881641149520874,0.4918307960033417
1630067159582,0.4149979650974273,0.3247399926185608,0.881641149520874,0.4918307960033417
1630067159691,0.4149979650974273,0.2404180318117141,0.881641149520874,0.4918307960033417
1630067159785,0.435330182313919,0.2777040004730224,0.8863347172737122,0.3552194237709045
1630067159926,0.5103726387023926,0.3011075258255005,0.8939651846885681,0.4771712720394134
1630067160019,0.6149508357048035,0.3118782937526703,0.8922094702720642,0.5507293939590454
1630067160066,0.7743010520935059,0.3168094456195831,0.8150662779808044,0.6114450693130493
1630067160225,0.8706194758415222,0.3168094456195831,0.687724769115448,0.6689038872718811
1630067160288,0.888642430305481,0.3209944665431976,0.6009063720703125,0.6788879036903381
1630067160413,0.8901067972183228,0.3221347630023956,0.5875658988952637,0.6925901174545288
1630067160522,0.8910660147666931,0.3263514637947082,0.5789384841918945,0.7346770167350769
1630067160616,0.893134355545044,0.3351439535617828,0.574533224105835,0.7694852948188782
1630067160710,0.9003836512565613,0.337462306022644,0.5740095376968384,0.7803072333335876
1630067160944,0.908475697040558,0.2783576846122741,0.578652560710907,0.7886711359024048
1630067161006,0.9105095267295836,0.2606079578399658,0.5796749591827393,0.7888625264167786
1630067161100,0.9105095267295836,0.2606079578399658,0.5796749591827393,0.7888625264167786
1630067161116,0.9105095267295836,0.2666105926036834,0.5796749591827393,0.7888625264167786
1630067161181,0.9105095267295836,0.2662224471569061,0.5641557574272156,0.7887862324714661
1630067161275,0.9091172814369202,0.2641878128051758,0.5455738306045532,0.7822331190109253
1630067161462,0.903859555721283,0.2596225142478943,0.4794405102729797,0.7853589057922363
1630067161634,0.8944172263145447,0.2521674036979675,0.3482805788516998,0.7853589057922363
1630067161649,0.8851463198661804,0.2407180666923523,0.2828287184238434,0.7853589057922363
1630067161696,0.8720985054969788,0.2310426086187362,0.2817044854164123,0.7831712365150452
1630067161821,0.7948540449142456,0.4927616715431213,0.2817044854164123,0.7531012892723083
1630067161918,0.6766723394393921,0.7180243134498596,0.2817044854164123,0.7304885387420654
1630067162059,0.5748541951179504,0.7876610159873962,0.2817044854164123,0.7141803503036499
1630067162168,0.5019354224205017,0.7884133458137512,0.279936820268631,0.6765009164810181
1630067162309,0.4622272253036499,0.7884133458137512,0.2750358879566192,0.5854945182800293
1630067162371,0.4212800562381744,0.7884133458137512,0.2714474499225616,0.470806747674942
1630067162496,0.3779456317424774,0.7884133458137512,0.2610832750797272,0.4206964671611786
1630067162559,0.3337802588939667,0.7884133458137512,0.233779639005661,0.4135049283504486
1630067162652,0.3337802588939667,0.7884133458137512,0.1966321915388107,0.4135049283504486
1630067162777,0.3337802588939667,0.7884133458137512,0.1966321915388107,0.4135049283504486
1630067162824,0.3337802588939667,0.7884133458137512,0.1966321915388107,0.4135049283504486
1630067162902,0.3337802588939667,0.7884133458137512,0.1966321915388107,0.4135049283504486
1630067163012,0.3337802588939667,0.7884133458137512,0.1966321915388107,0.4135049283504486
1630067163155,0.3337802588939667,0.7884133458137512,0.1423797458410263,0.4135049283504486
1630067163311,0.3337802588939667,0.7884133458137512,0.3477846384048462,0.563179075717926
1630067163373,0.4088913202285766,0.7884133458137512,0.4085226655006408,0.6584241390228271
1630067163483,0.5817114114761353,0.7884133458137512,0.4127684533596039,0.7937028408050537
1630067163592,0.7052427530288696,0.6987012624740601,0.4166873693466186,0.8998883366584778
1630067163639,0.7214418649673462,0.4823378920555115,0.4516111016273498,0.9359779953956604
1630067163748,0.7214418649673462,0.1572422683238983,0.5717203617095947,0.9359779953956604
1630067163904,0.7214418649673462,0.1572422683238983,0.7521145343780518,0.9359779953956604
1630067163951,0.7214418649673462,0.1572422683238983,0.9542031288146972,0.9359779953956604
1630067164014,0.7214418649673462,0.1572422683238983,1.1090680360794067,0.9359779953956604
1630067164186,0.7214418649673462,0.1550419181585312,1.1921393871307373,0.9359779953956604
1630067164248,0.7214418649673462,0.111532911658287,1.2096320390701294,0.9359779953956604
1630067164389,0.7214418649673462,-0.031630840152502,1.2096320390701294,0.9359779953956604
1630067164498,0.7214418649673462,-0.1844180822372436,1.2096320390701294,0.9359779953956604
1630067164607,0.7214418649673462,-0.2281408160924911,1.2097893953323364,0.9274898171424866
1630067164670,0.7214418649673462,-0.2458783239126205,1.209981918334961,0.9203962087631226
1630067164748,0.7214418649673462,-0.2788008451461792,1.209981918334961,0.9193023443222046
1630067164826,0.7214418649673462,-0.2788008451461792,1.209981918334961,0.9193023443222046
1630067164967,0.7214418649673462,-0.2788008451461792,1.209981918334961,0.9193023443222046
1630067165076,0.7214418649673462,-0.2788008451461792,1.209981918334961,0.9193023443222046
1630067165189,0.7214418649673462,-0.2788008451461792,1.209981918334961,0.9193023443222046
1630067165314,0.7214418649673462,-0.2788008451461792,1.209981918334961,0.9193023443222046
1630067165361,0.7214418649673462,-0.2788008451461792,1.209981918334961,0.9193023443222046
1630067165423,0.7214418649673462,0.3903964757919311,1.209981918334961,0.9193023443222046
1630067165532,0.7214418649673462,0.4047576189041137,1.209981918334961,0.9193023443222046
1630067165689,0.7214418649673462,0.4271343350410461,1.175401210784912,0.9193023443222046
1630067165767,0.7214418649673462,0.4395410418510437,1.058936595916748,0.9193023443222046
1630067165876,0.7214418649673462,0.4662762582302093,0.8807278871536255,0.9193023443222046
1630067166017,0.7214418649673462,0.4858177900314331,0.7348433136940002,0.9193023443222046
1630067166079,0.7214418649673462,0.4858177900314331,0.6708714962005615,0.9193023443222046
1630067166176,0.7214418649673462,0.4858177900314331,0.6493373513221741,0.9193023443222046
1630067166301,0.7214418649673462,0.4858177900314331,0.416589617729187,0.9193023443222046
1630067166379,0.7214418649673462,0.4858177900314331,0.593639075756073,0.9193023443222046
1630067166504,0.7214418649673462,0.4858177900314331,0.6413233280181885,0.9193023443222046
1630067166613,0.7214418649673462,0.4858177900314331,0.6413233280181885,0.9193023443222046
1630067166676,0.7214418649673462,0.4604087769985199,0.6413233280181885,0.9193023443222046
1630067166769,0.7214418649673462,0.3915153443813324,0.6413233280181885,0.9193023443222046
1630067166879,0.7214418649673462,0.3063055276870727,0.6413233280181885,0.9193023443222046
1630067167019,0.7214418649673462,0.2615205943584442,0.6413233280181885,0.9193023443222046
1630067167113,0.7214418649673462,0.2437042295932769,0.6751481294631958,0.9193023443222046
1630067167225,0.7214418649673462,0.2437042295932769,0.7511216402053833,0.9193023443222046
1630067167288,0.7214418649673462,0.2437042295932769,0.7762085199356079,0.9193023443222046
1630067167428,0.7214418649673462,0.2437042295932769,0.7762085199356079,0.9193023443222046
1630067167600,0.7214418649673462,0.2437042295932769,0.7762085199356079,0.9193023443222046
1630067167662,0.7214418649673462,0.2437042295932769,0.7762085199356079,0.9193023443222046
1630067167741,0.7214418649673462,0.2437042295932769,0.7762085199356079,0.9193023443222046
1630067167850,0.7214418649673462,0.2437042295932769,0.7762085199356079,0.9193023443222046
1630067167897,0.7214418649673462,0.2437042295932769,0.7675312161445618,0.9193023443222046
1630067168037,0.7214418649673462,0.2437042295932769,0.6990876197814941,0.9193023443222046
1630067168100,0.7214418649673462,0.2437042295932769,0.6990876197814941,0.9193023443222046
1630067168212,0.7214418649673462,0.2437042295932769,0.6990876197814941,0.9193023443222046
1630067168321,0.7214418649673462,0.2437042295932769,0.6990876197814941,0.9193023443222046
1630067168384,0.7214418649673462,0.2437042295932769,0.6990876197814941,0.9193023443222046
1630067168524,0.7214418649673462,0.4877168238162994,0.702512264251709,0.9193023443222046
1630067168571,0.7214418649673462,0.4877168238162994,0.7039174437522888,0.9193023443222046
1630067168743,0.7214418649673462,0.4877168238162994,0.6949108839035034,0.9193023443222046
1630067168852,0.7214418649673462,0.4877168238162994,-0.1019395068287849,0.9193023443222046
1630067168946,0.7214418649673462,0.4877168238162994,-0.0154520291835069,0.9193023443222046
1630067169055,0.7214418649673462,0.4877168238162994,0.0381191931664943,0.9193023443222046
1630067169102,0.6883512735366821,0.4877168238162994,0.0574766956269741,0.9193023443222046
1630067169212,0.7354370951652527,0.4877168238162994,0.1158818453550338,0.9193023443222046
1630067169352,0.7950387597084045,0.4885216355323791,0.2167199403047561,0.9193023443222046
1630067169430,0.8260326385498047,0.4912011623382568,0.2962664365768432,0.9193023443222046
1630067169555,0.827796995639801,0.4912011623382568,0.3438536822795868,0.9193023443222046
1630067169633,0.8279064297676086,0.4912011623382568,0.4304547011852264,0.9193023443222046
1630067169790,0.8279064297676086,0.3257399797439575,0.45395028591156,0.9193023443222046
1630067169852,0.8279064297676086,0.1564347743988037,0.45395028591156,0.9193023443222046
1630067169946,0.8279064297676086,0.1474628746509552,0.45395028591156,0.9193023443222046
1630067170055,0.8279064297676086,0.2250014543533325,0.45395028591156,0.9193023443222046
1630067170133,0.8279064297676086,0.2250014543533325,0.45395028591156,0.9193023443222046
1630067170278,0.8279064297676086,0.2250014543533325,0.45395028591156,0.9193023443222046
1630067170357,0.792877733707428,0.2250014543533325,0.45395028591156,0.9193023443222046
1630067170419,0.7684534788131714,0.2250014543533325,0.45395028591156,0.9193023443222046
1630067170544,0.752666711807251,0.2250014543533325,0.45395028591156,0.9193023443222046
1630067170685,0.7410519123077393,0.2250014543533325,0.45395028591156,0.9193023443222046
1630067170778,0.7368930578231812,0.2157286554574966,0.45395028591156,0.9193023443222046
1630067170856,0.7329473495483398,0.1990710198879242,0.45395028591156,0.9193023443222046
1630067170935,0.7180678248405457,0.172353520989418,0.4472356140613556,0.9193023443222046
1630067171091,0.7180678248405457,0.1539625227451324,0.4472356140613556,0.9193023443222046
1630067171169,0.7180678248405457,0.149247407913208,0.4472356140613556,0.9193023443222046
1630067171310,0.7180678248405457,0.149247407913208,0.4472356140613556,0.9193023443222046
1630067171388,0.7180678248405457,0.149247407913208,0.4472356140613556,0.9193023443222046
1630067171528,0.7180678248405457,0.149247407913208,0.4472356140613556,0.9193023443222046
1630067171575,0.7180678248405457,0.149247407913208,0.4472356140613556,0.9193023443222046
1630067171638,0.7180678248405457,0.149247407913208,0.4472356140613556,0.9193023443222046
1630067171778,0.7180678248405457,0.149247407913208,0.4472356140613556,0.9193023443222046
1630067171872,0.7180678248405457,0.149247407913208,0.4472356140613556,0.9193023443222046
1630067171966,0.7180678248405457,0.149247407913208,0.4472356140613556,0.9193023443222046
1630067172106,0.7180678248405457,0.149247407913208,0.4472356140613556,0.9193023443222046
1630067172187,0.7180678248405457,0.149247407913208,0.4472356140613556,0.9193023443222046
1630067172312,0.7180678248405457,0.149247407913208,0.4472356140613556,0.9193023443222046
1630067172453,0.7180678248405457,0.149247407913208,0.4472356140613556,0.9193023443222046
1630067172500,0.7180678248405457,0.149247407913208,0.0631265863776207,0.9193023443222046
1630067172578,0.7180678248405457,0.149247407913208,0.1752668470144271,0.9193023443222046
1630067172671,0.7180678248405457,0.149247407913208,0.2112448215484619,0.9193023443222046
1630067172781,0.7180678248405457,0.149247407913208,0.2189265042543411,0.9193023443222046
1630067172890,0.7180678248405457,0.149247407913208,0.2248448133468628,0.9193023443222046
1630067173031,0.7180678248405457,-0.042645376175642,0.230434775352478,0.9193023443222046
1630067173062,0.7180678248405457,-0.0049809725023806,0.2328028231859207,0.6363531351089478
1630067173173,0.7180678248405457,0.03160285577178,0.2328028231859207,0.6363531351089478
1630067173267,0.7180678248405457,0.0735756009817123,0.2328028231859207,0.6363531351089478
1630067173392,0.6632734537124634,0.0735756009817123,0.2328028231859207,0.6363531351089478
1630067173470,0.6673926711082458,0.0735756009817123,0.2328028231859207,0.6363531351089478
1630067173595,0.6673926711082458,0.0735756009817123,0.2328028231859207,0.6363531351089478
1630067173689,0.6673926711082458,0.0735756009817123,0.2149723917245865,0.6363531351089478
1630067173767,0.6673926711082458,0.0735756009817123,0.2149723917245865,0.6363531351089478
1630067173954,0.6673926711082458,0.0735756009817123,0.2149723917245865,0.6363531351089478
1630067173986,0.6673926711082458,0.0735756009817123,0.2119066566228866,0.6363531351089478
1630067174144,0.6673926711082458,0.0735756009817123,0.2109519690275192,0.6363531351089478
1630067174254,0.6673926711082458,0.062733918428421,0.1731297224760055,0.6363531351089478
1630067174332,0.6550272703170776,0.0571645200252532,0.1730639934539795,0.568693220615387
1630067174488,0.6257480382919312,0.1258475482463836,0.1638396680355072,0.464004784822464
1630067174504,0.6377164721488953,0.1469299048185348,0.1540732681751251,0.3651532232761383
1630067174566,0.6395304203033447,0.1562702506780624,0.1597357839345932,0.3651532232761383
1630067174691,0.6395304203033447,0.162536084651947,0.1818404197692871,0.3651532232761383
1630067174832,0.6355019211769104,0.0294917877763509,0.2196389436721801,0.3651532232761383
1630067174941,0.6169520616531372,0.0367338061332702,0.2961354553699493,0.3651532232761383
1630067175097,0.5177779793739319,0.0377672724425792,0.3585820198059082,0.3651532232761383
1630067175162,0.5177779793739319,0.0825862064957618,0.3781364560127258,0.3651532232761383
1630067175225,0.5177779793739319,0.0825862064957618,0.4016100466251373,0.3651532232761383
1630067175303,0.5177779793739319,0.0825862064957618,0.4283988773822784,0.3651532232761383
1630067175428,0.5177779793739319,0.0825862064957618,0.5122411847114563,0.3651532232761383
1630067175521,0.5177779793739319,0.0825862064957618,0.6250479817390442,0.3651532232761383
1630067175678,0.5177779793739319,0.0825862064957618,0.6946485638618469,0.3651532232761383
1630067175756,0.5177779793739319,0.0825862064957618,0.6966743469238281,0.3651532232761383
1630067175803,0.5177779793739319,0.0825862064957618,0.7055823802947998,0.3651532232761383
1630067175912,0.4965206384658813,0.0617385730147361,0.7120570540428162,0.3651532232761383
1630067176115,0.4366424977779388,-0.0043047522194683,0.7112087607383728,0.3651532232761383
1630067176180,0.318761795759201,-0.0554512664675712,0.7110434174537659,0.3651532232761383
1630067176243,0.318761795759201,-0.0930692702531814,0.7107827067375183,0.3651532232761383
1630067176368,0.318761795759201,-0.0930692702531814,0.7063418626785278,0.3651532232761383
1630067176430,0.318761795759201,-0.0930692702531814,0.704964280128479,0.3651532232761383
1630067176508,0.318761795759201,-0.0930692702531814,0.7047658562660217,0.3651532232761383
1630067176696,0.318761795759201,-0.0930692702531814,0.7047658562660217,0.3651532232761383
1630067176790,0.318761795759201,-0.0930692702531814,0.7047658562660217,0.3651532232761383
1630067176868,0.318761795759201,-0.0930692702531814,0.7047658562660217,0.3651532232761383
1630067176961,0.318761795759201,-0.0930692702531814,0.7021064162254333,0.3651532232761383
1630067177086,0.318761795759201,-0.0930692702531814,0.6871888637542725,0.3651532232761383
1630067177144,0.318761795759201,-0.0930692702531814,0.6871888637542725,0.3651532232761383
1630067177262,0.318761795759201,-0.0930692702531814,0.6871888637542725,0.3651532232761383
1630067177403,0.318761795759201,-0.0930692702531814,0.6871888637542725,0.3651532232761383
1630067177434,0.318761795759201,-0.0930692702531814,0.6871888637542725,0.3651532232761383
1630067177543,0.318761795759201,-0.0930692702531814,0.6871888637542725,0.3651532232761383
1630067177668,0.318761795759201,-0.0930692702531814,0.6871888637542725,0.3651532232761383
1630067177746,0.318761795759201,-0.0930692702531814,0.6871888637542725,0.3651532232761383
1630067177887,0.318761795759201,-0.0930692702531814,0.6871888637542725,0.3651532232761383
1630067177981,0.318761795759201,-0.0930692702531814,0.6871888637542725,0.3651532232761383
1630067178075,0.318761795759201,0.5958758592605591,0.6871888637542725,0.3651532232761383
1630067178140,0.318761795759201,0.6000126004219055,0.6871888637542725,0.3651532232761383
1630067178312,0.318761795759201,0.6011292934417725,0.6871888637542725,0.3651532232761383
1630067178374,0.318761795759201,0.6015523076057434,0.6871888637542725,0.3651532232761383
1630067178546,0.318761795759201,0.6123200058937073,0.0651320591568946,0.3651532232761383
1630067178609,0.318761795759201,0.6449392437934875,0.3615185618400574,0.3651532232761383
1630067178687,0.318761795759201,0.6733888387680054,0.5311852693557739,0.3651532232761383
1630067178796,0.318761795759201,0.6069638133049011,0.5311852693557739,0.3651532232761383
1630067178843,0.318761795759201,0.6069638133049011,0.5311852693557739,0.3651532232761383
1630067178937,0.318761795759201,0.6069638133049011,0.5311852693557739,0.3651532232761383
1630067179109,0.318761795759201,0.6069638133049011,0.5311852693557739,0.3651532232761383
1630067179189,0.318761795759201,0.6069638133049011,0.5311852693557739,0.3651532232761383
1630067179283,0.318761795759201,0.6069638133049011,0.5311852693557739,0.3651532232761383
1630067179392,0.318761795759201,0.6069638133049011,0.5311852693557739,0.3651532232761383
1630067179533,0.318761795759201,0.6009361147880554,0.5311852693557739,0.3651532232761383
1630067179579,0.318761795759201,0.599337100982666,0.5311852693557739,0.3651532232761383
1630067179720,0.318761795759201,0.5919986367225647,0.5311852693557739,0.3651532232761383
1630067179814,0.318761795759201,0.5887420177459717,0.5311852693557739,0.3651532232761383
1630067179892,0.3985101580619812,0.5925339460372925,0.5311852693557739,0.3651532232761383
1630067180001,0.3985101580619812,0.5977860689163208,0.5311852693557739,0.3651532232761383
1630067180095,0.3985101580619812,0.6112922430038452,0.5334978699684143,0.3651532232761383
1630067180191,0.3985101580619812,0.5968707203865051,0.3832570612430572,0.3651532232761383
1630067180347,0.3985101580619812,0.6081305146217346,0.4845072627067566,0.3651532232761383
1630067180410,0.3985101580619812,0.7507673501968384,0.4845072627067566,0.3651532232761383
1630067180472,0.3985101580619812,0.8256998658180237,0.4845072627067566,0.3651532232761383
1630067180597,0.3985101580619812,0.8302810192108154,0.6399911642074585,0.3651532232761383
1630067180691,0.3985101580619812,0.8302810192108154,0.6559078693389893,0.3651532232761383
1630067180800,0.3985101580619812,0.8302810192108154,0.6559078693389893,0.3651532232761383
1630067180941,0.3985101580619812,0.8302810192108154,0.6559078693389893,0.3651532232761383
1630067181019,0.3985101580619812,0.8302810192108154,0.6559078693389893,0.3651532232761383
1630067181145,0.3985101580619812,0.8302810192108154,0.6559078693389893,0.3651532232761383
1630067181178,0.3985101580619812,0.8302810192108154,0.6559078693389893,0.3651532232761383
1630067181318,0.3985101580619812,0.8302943706512451,0.6559078693389893,0.3651532232761383
1630067181396,0.3985101580619812,0.8302943706512451,0.6559078693389893,0.3651532232761383
1630067181537,0.3985101580619812,0.8302943706512451,0.6559078693389893,0.3651532232761383
1630067181646,0.3985101580619812,0.8302943706512451,0.6559078693389893,0.3651532232761383
1630067181724,0.3985101580619812,0.8302943706512451,0.6559078693389893,0.3651532232761383
1630067181818,0.3985101580619812,0.8351803421974182,0.6531866788864136,0.3651532232761383
1630067181896,0.3985101580619812,0.8652406930923462,0.6531866788864136,0.3651532232761383
1630067181974,0.3985101580619812,0.885677695274353,0.6608419418334961,0.3651532232761383
1630067182180,0.3985101580619812,0.8323144912719727,0.6138961911201477,0.3651532232761383
1630067182226,0.3985101580619812,0.8323144912719727,0.595881998538971,0.3651532232761383
1630067182336,0.3985101580619812,0.8323144912719727,0.5830894708633423,0.3651532232761383
1630067182430,0.3985101580619812,0.8323144912719727,0.5830894708633423,0.3651532232761383
1630067182570,0.3985101580619812,0.8323144912719727,0.5830894708633423,0.3651532232761383
1630067182648,0.3985101580619812,0.8323144912719727,0.5830894708633423,0.3651532232761383
1630067182742,0.3985101580619812,0.8323144912719727,0.5830894708633423,0.3651532232761383
1630067182851,0.3985101580619812,0.8323144912719727,0.5830894708633423,0.3651532232761383
1630067182945,0.3985101580619812,0.8323144912719727,0.5830894708633423,0.3651532232761383
1630067183039,0.3985101580619812,0.8323144912719727,0.5830894708633423,0.3651532232761383
1630067183148,0.3985101580619812,0.8323144912719727,0.5830894708633423,0.3651532232761383
1630067183292,0.3985101580619812,0.8323144912719727,0.5830894708633423,0.3651532232761383
1630067183371,0.3985101580619812,0.8323144912719727,0.5830894708633423,0.3651532232761383
1630067183417,0.3985101580619812,0.8323144912719727,0.5830894708633423,0.3651532232761383
1630067183548,0.3985101580619812,0.8033344149589539,0.5734859108924866,0.3651532232761383
1630067183690,0.3985101580619812,0.6254426836967468,0.4858020842075348,0.3651532232761383
1630067183770,0.3985101580619812,0.3803228139877319,0.3261674344539642,0.3651532232761383
1630067183848,0.3985101580619812,0.26549232006073,0.1946148574352264,0.3651532232761383
1630067183956,0.3985101580619812,0.26549232006073,0.3082996904850006,0.3651532232761383
1630067184053,0.3985101580619812,0.2606236338615417,0.3082996904850006,0.3651532232761383
1630067184175,0.3985101580619812,0.2606236338615417,0.3071197271347046,0.3651532232761383
1630067184285,0.3985101580619812,0.2606236338615417,0.3071197271347046,0.3651532232761383
1630067184379,0.3985101580619812,0.2606236338615417,0.3071197271347046,0.3651532232761383
1630067184458,0.3985101580619812,0.2606236338615417,0.3071197271347046,0.3651532232761383
1630067184597,0.3985101580619812,0.2537684142589569,0.2921751141548157,0.3651532232761383
1630067184661,0.3985101580619812,0.4094037711620331,0.2678780853748321,0.3651532232761383
1630067184755,0.3985101580619812,0.4321317374706268,0.367430567741394,0.3651532232761383
1630067184865,0.3985101580619812,0.426107108592987,0.367430567741394,0.3651532232761383
1630067184975,0.3985101580619812,0.4238916337490082,0.367430567741394,0.3651532232761383
1630067185053,0.3985101580619812,0.4011915326118469,0.367430567741394,0.3651532232761383
1630067185164,0.3985101580619812,0.3884858191013336,0.367430567741394,0.3651532232761383
1630067185272,0.3985101580619812,0.3912777006626129,0.367430567741394,0.3651532232761383
1630067185384,0.3985101580619812,0.3749589025974273,0.3734777271747589,0.3651532232761383
1630067185470,0.3985101580619812,0.3971705734729767,0.296409010887146,0.3651532232761383
1630067185571,0.3985101580619812,0.4038005769252777,0.3968169391155243,0.3651532232761383
1630067185665,0.3985101580619812,0.407255619764328,0.41044482588768,0.3651532232761383
1630067185775,0.3985101580619812,0.407255619764328,0.41044482588768,0.3651532232761383
1630067185884,0.3985101580619812,0.407255619764328,0.41044482588768,0.3651532232761383
1630067185996,0.3985101580619812,0.407255619764328,0.41044482588768,0.3651532232761383
1630067186059,0.3985101580619812,0.407255619764328,0.41044482588768,0.7535929679870605
1630067186184,0.3985101580619812,0.3922351002693176,0.41044482588768,0.8010640144348145
1630067186294,0.3985101580619812,0.3285172581672668,0.3963901400566101,0.8010640144348145
1630067186420,0.3985101580619812,0.2503071129322052,0.3908506631851196,0.8010640144348145
1630067186498,0.3985101580619812,0.3472165465354919,0.3908506631851196,0.771462082862854
1630067186654,0.3985101580619812,0.3472165465354919,0.3908506631851196,0.771462082862854
1630067186704,0.3985101580619812,0.3472165465354919,0.4097513258457184,0.771462082862854
1630067186811,0.3985101580619812,0.3472165465354919,0.5002890229225159,0.771462082862854
1630067186911,0.3985101580619812,0.3472165465354919,0.55246901512146,0.771462082862854
1630067187021,0.3985101580619812,0.341617226600647,0.5410204529762268,0.771462082862854
1630067187099,0.3985101580619812,0.3370795547962188,0.512130081653595,0.771462082862854
1630067187239,0.3985101580619812,0.3309348523616791,0.4883437156677246,0.771462082862854
1630067187333,0.3985101580619812,0.3208730220794678,0.4791716933250427,0.771462082862854
1630067187380,0.3985101580619812,0.3094254732131958,0.4782293140888214,0.771462082862854
1630067187505,0.3985101580619812,0.3028271198272705,0.4794139862060547,0.771462082862854
1630067187645,0.3985101580619812,0.3028271198272705,0.4815755784511566,0.771462082862854
1630067187755,0.3985101580619812,0.3028271198272705,0.4815755784511566,0.771462082862854
