timestamp,TP9,AF7,AF8,TP10
1630588169093,0.1087656766176223,-0.0661466717720031,-0.0338094532489776,0.3394511044025421
1630588169231,0.114449419081211,-0.1010574623942375,-0.0295151695609092,0.3421828746795654
1630588169298,0.1230085864663124,-0.1281196326017379,-0.0281147193163633,0.3463244438171386
1630588169445,0.1322277933359146,-0.1546335816383361,-0.0384372472763061,0.3459319770336151
1630588169539,0.1384907364845276,-0.1862238496541977,-0.0687678977847099,0.3393674194812774
1630588169641,0.1435823738574981,-0.2189625203609466,-0.1153733432292938,0.3256300985813141
1630588169707,0.1520918160676956,-0.2393661141395568,-0.1631603688001632,0.3024746775627136
1630588169812,0.1647207885980606,-0.2358942478895187,-0.1954328864812851,0.2712457776069641
1630588169894,0.1693789660930633,-0.2160776853561401,-0.2112923860549926,0.2411118000745773
1630588170064,0.1559778302907943,-0.2022917717695236,-0.2230702042579651,0.2155718207359314
1630588170126,0.1237502545118331,-0.2091024070978164,-0.2379287928342819,0.1900972127914428
1630588170207,0.0869045853614807,-0.2352590560913086,-0.2541650533676147,0.1625345349311828
1630588170343,0.0558135882019996,-0.2666029334068298,-0.266491174697876,0.1433230489492416
1630588170428,0.0322023183107376,-0.288561999797821,-0.2738237679004669,0.1386411041021347
1630588170531,0.0116207115352153,-0.2940087616443634,-0.2840163111686706,0.1445634067058563
1630588170675,-0.0051723159849643,-0.2864528894424438,-0.3033823370933532,0.1455814838409423
1630588170790,-0.0137261617928743,-0.2715587019920349,-0.3326171338558197,0.1406317055225372
1630588170823,-0.0051963306032121,-0.246345043182373,-0.364977478981018,0.1439198404550552
1630588170929,0.0158411283046007,-0.1943288892507553,-0.3832127153873443,0.1657309979200363
1630588171062,0.0219567660242319,-0.113415315747261,-0.3709917366504669,0.1774212270975113
1630588171126,0.0248650033026933,-0.0261430740356445,-0.3343866467475891,0.1812489479780197
1630588171259,0.0169343538582324,0.0449148528277874,-0.2925800681114197,0.1769463419914245
1630588171353,-0.0071649551391601,0.0976769179105758,-0.2608697116374969,0.1717080324888229
1630588171461,-0.0389451086521148,0.1409585326910019,-0.2415148019790649,0.1655723601579666
1630588171558,-0.0600462220609188,0.1790239065885543,-0.2289461344480514,0.1620111912488937
1630588171620,-0.0561296120285987,0.2079600840806961,-0.2174569070339203,0.1590717285871505
1630588171720,-0.0320841185748577,0.2245259284973144,-0.2063145637512207,0.1591333299875259
1630588171861,-0.0005595774855464,0.2313690781593322,-0.1974728256464004,0.1529357582330703
1630588171945,0.0274331495165824,0.2365066856145858,-0.1947418600320816,0.1415844559669494
1630588172056,0.0519047789275646,0.2469088584184646,-0.1969305872917175,0.1236243546009063
1630588172142,0.0519047789275646,0.267661452293396,-0.1956242024898529,0.1236243546009063
1630588172244,0.0519047789275646,0.3021376729011535,-0.1779015064239502,0.1236243546009063
1630588172321,0.0519047789275646,0.347499132156372,-0.1426618695259094,0.1236243546009063
1630588172493,0.0519047789275646,0.3939650952816009,-0.1062129065394401,0.1236243546009063
1630588172589,0.0519047789275646,0.4318187832832336,-0.0864074006676673,0.1236243546009063
1630588172648,0.0519047789275646,0.461863100528717,-0.0858697295188903,0.1236243546009063
1630588172753,0.0519047789275646,0.4879264533519745,-0.0943102017045021,0.1236243546009063
1630588172853,0.0519047789275646,0.5093568563461304,-0.0997267588973045,0.1236243546009063
1630588172962,0.0519047789275646,0.5219805836677551,-0.0991827398538589,0.1236243546009063
1630588173085,0.0519047789275646,0.5246152877807617,-0.0978362187743187,0.1236243546009063
1630588173191,0.0519047789275646,0.5322992205619812,-0.0978621467947959,0.1236243546009063
1630588173301,0.0519047789275646,0.5493268370628357,-0.0860711336135864,0.1236243546009063
1630588173364,0.0519047789275646,0.5756158232688904,-0.0723166987299919,0.1236243546009063
1630588173474,0.0519047789275646,0.6068193912506104,-0.0539888478815555,0.1236243546009063
1630588173562,0.0519047789275646,0.6385506391525269,-0.0329119525849819,0.1236243546009063
1630588173716,0.0519047789275646,0.6673903465270996,-0.0179954934865236,0.1236243546009063
1630588173811,0.0519047789275646,0.6897374391555786,-0.0219077412039041,0.1236243546009063
1630588173879,0.0519047789275646,0.7024523019790649,-0.0522338151931762,0.1236243546009063
1630588173978,0.0519047789275646,0.7037659883499146,-0.1040044054389,0.1236243546009063
1630588174079,0.0519047789275646,0.6955899000167847,-0.1573055237531662,0.1236243546009063
1630588174161,0.0519047789275646,0.6762027144432068,-0.1946597844362259,0.1236243546009063
1630588174314,0.0519047789275646,0.6762027144432068,-0.2209460288286209,0.1236243546009063
1630588174396,0.0519047789275646,0.6762027144432068,-0.2209460288286209,0.1236243546009063
1630588174517,0.0519047789275646,0.6762027144432068,-0.2209460288286209,0.1236243546009063
1630588174597,0.0519047789275646,0.6762027144432068,-0.2209460288286209,0.1236243546009063
1630588174685,0.0519047789275646,-0.2133917957544326,-0.2209460288286209,0.1236243546009063
1630588174786,0.0519047789275646,-0.1988203525543213,-0.1391177028417587,0.1236243546009063
1630588174961,0.0519047789275646,-0.1982102692127227,-0.103000096976757,0.1236243546009063
1630588175000,0.0519047789275646,-0.2159314602613449,-0.0918933600187301,0.1236243546009063
1630588175119,0.0519047789275646,-0.2448989003896713,-0.1043197140097618,0.1236243546009063
1630588175217,0.0519047789275646,-0.2400020658969879,-0.1157770454883575,0.1236243546009063
1630588175302,0.0519047789275646,-0.0966870635747909,-0.0923215597867965,0.1236243546009063
1630588175396,0.0519047789275646,-0.0966870635747909,-0.0139037314802408,0.1236243546009063
1630588175519,0.0519047789275646,-0.0966870635747909,0.09464131295681,0.1236243546009063
1630588175629,0.0519047789275646,-0.0966870635747909,0.1907026767730713,0.1236243546009063
1630588175723,0.0519047789275646,-0.0966870635747909,0.2520762085914612,0.1236243546009063
1630588175794,0.0519047789275646,-0.0966870635747909,0.2788293957710266,0.1236243546009063
1630588175893,0.0519047789275646,-0.0980251803994178,0.2823922336101532,0.1236243546009063
1630588176027,0.0519047789275646,-0.0750646144151687,0.2928391695022583,0.1236243546009063
1630588176124,0.0519047789275646,-0.0513884462416172,0.2996126413345337,0.1236243546009063
1630588176218,0.0519047789275646,-0.0590872392058372,0.3002315461635589,0.1236243546009063
1630588176331,0.0519047789275646,-0.0651191771030426,0.2951430976390838,0.1236243546009063
1630588176425,0.0519047789275646,-0.0646735802292823,0.2899670898914337,0.1236243546009063
1630588176499,0.0519047789275646,-0.0569891482591629,0.290616512298584,0.1236243546009063
1630588176620,0.0519047789275646,-0.0460382923483848,0.2972817122936249,0.1236243546009063
1630588176755,0.0519047789275646,-0.0604669898748397,0.3026741147041321,0.1236243546009063
1630588176829,1.0503071546554563,-0.2495647519826889,0.2964414060115814,1.0269722938537598
1630588176931,0.9993708729743958,-0.265199214220047,0.2671319842338562,0.975095510482788
1630588177028,0.9448850750923156,-0.2749994397163391,0.2057935893535614,0.91234290599823
1630588177124,0.8971694111824036,-0.2758055031299591,0.1125489100813865,0.8527777194976807
1630588177235,0.8546904921531677,-0.2655797004699707,0.0026474588084965,0.8023672103881836
1630588177363,0.815028190612793,-0.2508079707622528,-0.09471146017313,0.7621238827705383
1630588177462,0.7785337567329407,-0.238986924290657,-0.1557803899049759,0.7299942374229431
1630588177556,0.7478304505348206,-0.230846032500267,-0.1817532330751419,0.7028327584266663
1630588177666,0.7235308885574341,-0.2361152321100235,-0.1870411932468414,0.6813395023345947
1630588177730,0.7045722603797913,-0.2198594361543655,-0.1826517730951309,0.6685134172439575
1630588177841,0.6897357702255249,-0.2106689065694809,-0.1772028505802154,0.6640154123306274
1630588177959,0.6785322427749634,-0.2114269584417343,-0.1773337572813034,0.6626418232917786
1630588178061,0.6409426927566528,-0.2172043174505233,-0.1871996819972992,0.6351625919342041
1630588178162,0.5751400589942932,-0.221916988492012,-0.2067494988441467,0.5749534368515015
1630588178255,0.4954043626785278,-0.2251589149236679,-0.2317080646753311,0.5004441738128662
1630588178318,0.4310581088066101,-0.2306877374649047,-0.2527967989444732,0.4453511536121368
1630588178428,0.3944389224052429,-0.2391153126955032,-0.2642252147197723,0.4252313375473022
1630588178590,0.3764421343803406,-0.2459555566310882,-0.2688720822334289,0.427484393119812
1630588178661,0.3680005967617035,-0.2481292486190796,-0.2719997465610504,0.4366438090801239
1630588178749,0.3712420463562011,-0.2476605772972107,-0.2765716910362243,0.449236661195755
1630588178843,0.3853746652603149,-0.249314859509468,-0.2836280167102813,0.4651296138763428
1630588178940,0.4008675813674927,-0.2570329010486603,-0.2944822609424591,0.4789766073226928
1630588179063,0.4089917540550232,-0.2731064856052398,-0.3104328513145447,0.484894722700119
1630588179211,0.408084511756897,-0.295505166053772,-0.3286267518997192,0.479827344417572
1630588179292,0.4046973288059234,-0.3129096329212188,-0.3423807621002197,0.4658537805080414
1630588179367,0.4037758111953735,-0.3031550347805023,-0.3517406582832336,0.447687417268753
1630588179477,0.4055964052677154,-0.2536717057228088,-0.3665071129798889,0.4293044209480285
1630588179543,0.4038292169570923,-0.1862452626228332,-0.3912317156791687,0.4088212847709656
1630588179643,0.3977303504943847,-0.1298298239707946,-0.4177080392837524,0.3817863762378692
1630588179812,0.39508718252182,-0.0934139415621757,-0.4299957752227783,0.3470603227615356
1630588179875,0.401692271232605,-0.0689992681145668,-0.4185107350349426,0.3120807409286499
1630588179980,0.4143524765968323,-0.0466620400547981,-0.3859217464923858,0.2936035394668579
1630588180079,0.4235032498836517,-0.0243165921419858,-0.3255766630172729,0.3025356233119964
1630588180178,0.4259527623653412,-0.005489160772413,-0.2262073457241058,0.3339435756206512
1630588180239,0.4249293208122253,0.0065089464187622,-0.0985515192151069,0.3697105050086975
1630588180410,0.4232415556907654,0.0119746178388595,0.0216613169759511,0.3941466510295868
1630588180514,0.4234313666820526,0.0157731305807828,0.1067786589264869,0.4065495431423187
1630588180581,0.4284498989582062,0.0237979684025049,0.1501523107290268,0.4149330258369446
1630588180714,0.4436704218387604,0.0348679758608341,0.1629963517189026,0.4213154315948486
1630588180774,0.46759232878685,0.0418803691864013,0.1633346527814865,0.421577513217926
1630588180885,0.4909605681896209,0.0377167351543903,0.1630929410457611,0.4149747192859649
1630588181018,0.5042409300804138,0.0191174298524856,0.1664709597826004,0.4073858559131622
1630588181099,0.5053794980049133,-0.0095488596707582,0.1739988774061203,0.4089646339416504
1630588181212,0.4978061020374298,-0.0385478548705577,0.1847883313894271,0.4232785999774933
1630588181315,0.4871338307857513,-0.0594210289418697,0.1967778503894806,0.4436120986938476
1630588181378,0.4779417514801025,-0.0725205987691879,0.2069504559040069,0.45951047539711
1630588181475,0.4739110171794891,-0.0845573171973228,0.2136986702680587,0.4632868766784668
1630588181605,0.4749416708946228,-0.1017837598919868,0.2123233526945114,0.4512549638748169
1630588181702,0.4762406647205353,-0.1262565702199936,0.1935934573411941,0.422122985124588
1630588181811,0.4716675877571106,-0.1539635956287384,0.1473716348409652,0.3796068131923675
1630588181910,0.4626858234405517,-0.1752684414386749,0.0747498795390129,0.3340324759483337
1630588182023,0.4538632035255432,-0.1858797967433929,-0.0048066838644444,0.2990492582321167
1630588182073,0.4443443715572357,-0.187580868601799,-0.0581685118377208,0.277801364660263
1630588182246,0.428189605474472,-0.1800743788480758,-0.0690730661153793,0.2683083415031433
1630588182343,0.3990843594074249,-0.1608143001794815,-0.0480526015162467,0.2664824426174164
1630588182407,0.3591035306453705,-0.1301768124103546,-0.0090547753497958,0.2707537114620209
1630588182517,0.3159769177436828,-0.0935541316866874,0.0353970155119895,0.278156965970993
1630588182616,0.2792551815509796,-0.0577610731124877,0.0718571096658706,0.2788006961345672
1630588182746,0.2541598975658417,-0.0273986645042896,0.0913397967815399,0.2677148580551147
1630588182841,0.2383732348680496,-0.0040045254863798,0.0937494784593582,0.2519636154174804
1630588182934,0.2235426604747772,0.0154518028721213,0.085391417145729,0.2434044480323791
1630588183049,0.2030603736639022,0.0385222919285297,0.0739548429846763,0.2448583841323852
1630588183178,0.1775085031986236,0.0688725262880325,0.0654861181974411,0.24793042242527
1630588183210,0.1516975909471511,0.1025621369481086,0.0629696473479271,0.2470669746398925
1630588183327,0.1311379224061966,0.1327951997518539,0.064868651330471,0.2431082427501678
1630588183479,0.1134824305772781,0.155160054564476,0.0659230947494506,0.2447804063558578
1630588183605,0.0988855883479118,0.1683339774608612,0.0643191635608673,0.2650373578071594
1630588183678,0.0977182760834693,0.1716115623712539,0.0613348335027694,0.3137988448143005
1630588183743,0.1131866723299026,0.1647574603557586,0.0573087818920612,0.3786296248435974
1630588183845,0.1340578645467758,0.1505218148231506,0.0477287024259567,0.4338618814945221
1630588183938,0.1464999765157699,0.1308965981006622,0.0286322906613349,0.4636295437812805
1630588184077,0.1521306186914444,0.1065894961357116,0.0044130943715572,0.4717776477336883
1630588184159,0.1724475920200348,0.0792053490877151,-0.0144895166158676,0.4743624627590179
1630588184277,0.2268824279308319,0.0550122819840908,-0.0188742764294147,0.4835516810417175
1630588184329,0.3033223748207092,0.0416091792285442,-0.0106116747483611,0.4974367022514343
1630588184429,0.3737115263938904,0.0384169705212116,-0.0007261445280164,0.5077459216117859
1630588184525,0.4220809638500213,0.0352341756224632,0.0002819949295371,0.5134960412979126
1630588184663,0.4495357275009155,0.0247310623526573,-0.0097570354118943,0.5214401483535767
1630588184776,0.4653816521167755,0.0069782505743205,-0.0280490238219499,0.5349269509315491
1630588184880,0.4777818024158478,-0.0142383612692356,-0.0477511994540691,0.5497747659683228
1630588184959,0.4883047342300415,-0.0345620363950729,-0.0627143755555152,0.5574001669883728
1630588185037,0.4964039623737335,-0.0472158156335353,-0.0725743845105171,0.5485556721687317
1630588185143,0.501735270023346,-0.0491684004664421,-0.0818552374839782,0.5177915692329407
1630588185300,0.5068413615226746,-0.0456115454435348,-0.0947895050048828,0.4682470858097076
1630588185363,0.5145561099052429,-0.0468131117522716,-0.1141301691532135,0.4167368113994598
1630588185459,0.5238797664642334,-0.0570439398288726,-0.1428062319755554,0.3846841156482696
1630588185566,0.5314574241638184,-0.0731019377708435,-0.1844914406538009,0.3765899538993835
1630588185666,0.5297620296478271,-0.0903376713395118,-0.2361085414886474,0.3767954409122467
1630588185763,0.5108116269111633,-0.1087517961859703,-0.2805113792419433,0.3712676167488098
1630588185881,0.4722817838191986,-0.1321332454681396,-0.292492538690567,0.3606972992420196
1630588185962,0.422746330499649,-0.1623090654611587,-0.2655938267707824,0.3531181812286377
1630588186097,0.3802782297134399,-0.1987234205007553,-0.2211092859506607,0.3481217622756958
1630588186161,0.3566497564315796,-0.2419418543577194,-0.183866873383522,0.3397350609302521
1630588186265,0.3492875397205353,-0.2901023924350738,-0.1625493615865707,0.3271993100643158
1630588186356,0.3489660024642944,-0.3368424773216247,-0.154533714056015,0.3177372515201568
1630588186493,0.3505176305770874,-0.3746263682842254,-0.1543919593095779,0.3189267814159393
1630588186590,0.349416583776474,-0.4062664806842804,-0.1576002985239029,0.3326822221279144
1630588186695,0.3384633362293243,-0.437518447637558,-0.1599060297012329,0.3538748919963836
1630588186797,0.3132392764091491,-0.461804986000061,-0.1596266627311706,0.3751851618289947
1630588186930,0.2820745408535003,-0.4634495675563812,-0.1587350368499755,0.3890961408615112
1630588186963,0.2638832926750183,-0.4352894127368927,-0.1606760770082473,0.3895298540592193
1630588187106,0.2675859928131103,-0.382890522480011,-0.1646342277526855,0.3764371573925018
1630588187215,0.2807142436504364,-0.3171694278717041,-0.1672663539648056,0.3551821708679199
1630588187311,0.2850920855998993,-0.2541511952877044,-0.1715191453695297,0.3322778940200805
1630588187374,0.2789803445339203,-0.2061778157949447,-0.1870967000722885,0.3126305043697357
1630588187482,0.2744506895542145,-0.1732843518257141,-0.219791904091835,0.3000195622444153
1630588187560,0.2783564031124115,-0.145150139927864,-0.2641175389289856,0.296062707901001
1630588187718,0.2882770299911499,-0.1126139014959335,-0.3070418834686279,0.2971204221248626
1630588187798,0.2956543564796448,-0.0774346217513084,-0.3350359499454498,0.2999680340290069
1630588187896,0.2962805032730102,-0.0475574471056461,-0.3323361575603485,0.3063291609287262
1630588187994,0.2929918169975281,-0.0281948707997798,-0.2816360890865326,0.3188642561435699
1630588188078,0.2896235585212707,-0.0182739645242691,-0.194098025560379,0.3316011428833008
1630588188193,0.2877568900585174,-0.0131683768704533,-0.1040069609880447,0.3385883569717407
1630588188318,0.2852729260921478,-0.0070081674493849,-0.0336836613714695,0.3402764201164245
1630588188447,0.2757510840892792,0.0020070387981832,0.0145758548751473,0.3438299298286438
1630588188511,0.2547946274280548,0.0094133084639906,0.0513741113245487,0.3531851172447204
1630588188615,0.2218881100416183,0.0055904923938214,0.0867777466773986,0.3663309514522552
1630588188708,0.184000551700592,-0.0160216148942708,0.1212955638766288,0.3842729032039642
1630588188795,0.151695117354393,-0.0511489734053611,0.1502754092216491,0.4116226434707641
1630588188966,0.1276567876338958,-0.0892758592963218,0.1708279401063919,0.4481487274169922
1630588189033,0.1085488572716713,-0.1235594376921653,0.1853620409965515,0.4842416048049927
1630588189129,0.0996054485440254,-0.1534403413534164,0.1995814889669418,0.510410487651825
1630588189213,0.1108447089791297,-0.1771374940872192,0.2161644697189331,0.5234993100166321
1630588189304,0.1413071602582931,-0.1872600615024566,0.2333048433065414,0.5240913033485413
1630588189413,0.177628681063652,-0.1806729882955551,0.245322048664093,0.5142730474472046
1630588189544,0.2073519825935363,-0.1657245308160781,0.2442819774150848,0.4979732930660248
1630588189646,0.2270263880491256,-0.1532826274633407,0.2260115295648574,0.4823875427246094
1630588189751,0.2387180477380752,-0.1460107564926147,0.1943653225898742,0.4708447158336639
1630588189845,0.2425172477960586,-0.1400582194328308,0.1582653224468231,0.4594635963439941
1630588189944,0.2412915527820587,-0.1300753206014633,0.1261709034442901,0.4435644745826721
1630588190007,0.2393438518047332,-0.117331326007843,0.0979347079992294,0.4265953302383423
1630588190131,0.2403347194194793,-0.10626120865345,0.0662241950631141,0.4140259027481079
1630588190243,0.2472606599330902,-0.0986002832651138,0.0267765428870916,0.4020188152790069
1630588190344,0.2597085833549499,-0.0921165496110916,-0.0136413369327783,0.3800321519374847
1630588190446,0.2761022746562958,-0.081123948097229,-0.0391513518989086,0.3414128124713897
1630588190545,0.2901518642902374,-0.0645289346575737,-0.0411009788513183,0.29264697432518
1630588190609,0.2910540699958801,-0.0511495918035507,-0.0310407038778066,0.2516910135746002
1630588190743,0.2713589966297149,-0.0528750494122505,-0.0233787391334772,0.234649583697319
1630588190877,0.2338375151157379,-0.0749727413058281,-0.0244415216147899,0.242132619023323
1630588190967,0.1871407330036163,-0.1106219664216041,-0.0328706428408622,0.2581400871276855
1630588191046,0.139570727944374,-0.141695886850357,-0.0441201962530612,0.2669522166252136
1630588191147,0.0982916057109832,-0.1499760299921035,-0.0535731203854084,0.2618434429168701
1630588191245,0.0712531879544258,-0.1342631131410598,-0.059516541659832,0.2454679459333419
1630588191397,0.0671729072928428,-0.1140150427818298,-0.0627626851201057,0.2271696031093597
1630588191461,0.0840264335274696,-0.1088155806064605,-0.0663609579205513,0.2138058841228485
1630588191598,0.1119088977575302,-0.1188766583800315,-0.0707565248012542,0.2028639763593673
1630588191664,0.1411367356777191,-0.1250823438167572,-0.0722994282841682,0.1927582919597625
1630588191801,0.1485734730958938,-0.1079989001154899,-0.0663168579339981,0.1924481987953186
1630588191832,0.1526887416839599,-0.0532449074089527,-0.0549139790236949,0.1942811459302902
1630588191994,0.1508469581604004,0.0430373474955558,-0.0417483337223529,0.1973191946744918
1630588192097,0.1429309546947479,0.1696795374155044,-0.0268529430031776,0.1946589201688766
1630588192161,0.1333973258733749,0.2976174652576446,-0.0101444628089666,0.1790340542793274
1630588192261,0.1279569119215011,0.3994524776935577,0.0028118505142629,0.1486339122056961
1630588192354,0.127848133444786,0.4640524387359619,0.0050972402095794,0.1043329983949661
1630588192457,0.1343174129724502,0.4959608018398285,-0.0042501450516283,0.0493453703820705
1630588192582,0.1513679027557373,0.5057902932167053,-0.0200304090976715,-0.018029548227787
1630588192692,0.1825209707021713,0.5049494504928589,-0.0349424742162227,-0.0977479591965675
1630588192797,0.2266073226928711,0.4987878799438476,-0.0430148877203464,-0.1733789592981338
1630588192857,0.2266073226928711,0.4903562366962433,-0.0387455001473426,-0.1733789592981338
1630588192963,0.2266073226928711,0.4820737242698669,-0.0231946501880884,-0.1733789592981338
1630588193054,0.2266073226928711,0.475028932094574,-0.0056236968375742,-0.1733789592981338
1630588193195,0.2266073226928711,0.4686875343322754,0.0028168479911983,-0.1733789592981338
1630588193291,0.6285324692726135,0.4619473218917846,-0.0028986521065235,0.9071277379989624
1630588193394,0.6489030122756958,0.4497887790203094,-0.0204351916909217,0.9117980003356934
1630588193495,0.6341898441314697,0.4214635193347931,-0.046379018574953,0.8859916925430298
1630588193594,0.5953086614608765,0.3615610003471374,-0.0815722495317459,0.8489087820053101
1630588193679,0.5524224638938904,0.2578006386756897,-0.11859692633152,0.8167207837104797
1630588193810,0.5188525319099426,0.1122067421674728,-0.1405862718820572,0.7949368357658386
1630588193914,0.4973728060722351,-0.0452226661145687,-0.1346916258335113,0.7811071276664734
1630588194014,0.4819190800189972,-0.1632454842329025,-0.1073247119784355,0.7695895433425903
1630588194111,0.4650215208530426,-0.2155402153730392,-0.0755027756094932,0.7552112936973572
1630588194173,0.4443666040897369,-0.2343781888484954,-0.052665825933218,0.7353945374488831
1630588194286,0.421991765499115,-0.2456426471471786,-0.0434400402009487,0.711077094078064
1630588194412,0.4000144898891449,-0.2546878457069397,-0.0496637262403965,0.6859148740768433
1630588194512,0.3701331913471222,-0.2588807940483093,-0.0659481585025787,0.660556972026825
1630588194611,0.332175999879837,-0.2566190063953399,-0.0813561007380485,0.6181194186210632
1630588194703,0.2772370874881744,-0.2535852789878845,-0.0868431702256202,0.5503409504890442
1630588194812,0.2162010222673416,-0.2590455710887909,-0.0827581956982612,0.4626413285732269
1630588194912,0.1856851130723953,-0.2811615467071533,-0.0774985551834106,0.3818261623382568
1630588195046,0.2105917930603027,-0.3208458423614502,-0.0808399617671966,0.3386404514312744
1630588195111,0.2682571113109588,-0.3626912236213684,-0.0957097858190536,0.333843469619751
1630588195205,0.3270427882671356,-0.3682717084884643,-0.1229680478572845,0.3442062139511108
1630588195300,0.3855375349521637,-0.2769733369350433,-0.1612547039985656,0.3231889307498932
1630588195395,0.4458889365196228,-0.1104577779769897,-0.2075743824243545,0.2871800065040588
1630588195489,0.4553117454051971,0.0508890636265277,-0.2594930529594421,0.2405923306941986
1630588195625,0.4692400395870209,0.1736332774162292,-0.3134114444255829,0.1966061443090438
1630588195727,0.4906923770904541,0.2783553600311279,-0.3582320809364319,0.1733889579772949
1630588195818,0.5187110900878906,0.4015176892280578,-0.3802173733711242,0.1797686666250229
1630588195964,0.5518152117729187,0.5402780175209045,-0.3753360211849212,0.2046177834272384
1630588195993,0.5900717973709106,0.5680959224700928,-0.3588586449623108,0.2389838695526123
1630588196094,0.6341031193733215,0.5976983308792114,-0.334957093000412,0.2777312397956848
1630588196260,0.6807469725608826,0.6294546127319336,-0.2738197445869446,0.3252947032451629
1630588196329,0.7219052314758301,0.6639318466186523,-0.1508403867483139,0.3878526985645294
1630588196447,0.7486391067504883,0.7018933296203613,-0.0016117768827825,0.3878526985645294
1630588196546,0.7616701722145081,0.7441009283065796,0.1251636147499084,0.3878526985645294
1630588196610,0.7616701722145081,0.7906691431999207,0.2104458212852478,0.3878526985645294
1630588196708,0.7616701722145081,0.8402169942855835,0.2581151127815246,0.3878526985645294
1630588196850,0.7616701722145081,0.8862996101379395,0.2815903723239898,0.3878526985645294
1630588196930,0.7616701722145081,0.9234745502471924,0.2932399213314056,0.3878526985645294
1630588197047,0.7616701722145081,0.9573447108268738,0.299670934677124,0.3878526985645294
1630588197124,0.7616701722145081,0.8879996538162231,0.3047860264778137,0.3878526985645294
1630588197241,0.7616701722145081,0.7928449511528015,0.3103548586368561,0.3878526985645294
1630588197317,0.7616701722145081,0.5904364585876465,0.3166483938694,0.3878526985645294
1630588197465,0.7616701722145081,-0.3281187415122986,0.3255841732025146,0.3878526985645294
1630588197570,0.7616701722145081,-0.1606549471616745,0.3416242897510528,0.3878526985645294
1630588197661,0.7616701722145081,-0.0123265059664845,0.3641077280044555,0.3878526985645294
1630588197761,0.7616701722145081,0.0982561185956001,0.3818967044353485,0.3878526985645294
1630588197854,0.7616701722145081,0.1772598028182983,0.3794656097888946,0.3878526985645294
1630588197936,0.7616701722145081,0.2504468858242035,0.347845584154129,0.3878526985645294
1630588198078,0.7616701722145081,0.3298371136188507,0.2935861945152282,0.3878526985645294
1630588198159,0.7616701722145081,0.4064844846725464,0.2409286648035049,0.3878526985645294
1630588198250,0.7616701722145081,0.4719998836517334,0.2218216657638549,0.3878526985645294
1630588198345,0.7616701722145081,0.5164890885353088,0.2441538274288177,0.3878526985645294
1630588198441,0.7616701722145081,0.5371402502059937,0.2845799624919891,0.3878526985645294
1630588198542,0.7616701722145081,0.5371294617652893,0.3204213678836822,0.3878526985645294
1630588198669,0.7616701722145081,0.5479605793952942,0.3435698747634887,0.3878526985645294
1630588198781,0.7616701722145081,0.5534953474998474,0.3564844727516174,0.3878526985645294
1630588198857,0.7616701722145081,0.5573604106903076,0.3623356521129608,0.3878526985645294
1630588198962,0.7616701722145081,0.5565861463546753,0.3605937957763672,0.3878526985645294
1630588199062,0.7616701722145081,0.547835648059845,0.3491572439670563,0.3878526985645294
1630588199160,0.7616701722145081,0.5351229310035706,0.3281022608280182,0.3878526985645294
1630588199297,0.7616701722145081,0.5302968621253967,0.3006100356578827,0.3878526985645294
1630588199429,0.7616701722145081,0.5420499444007874,0.2717497646808624,0.3878526985645294
1630588199461,0.7616701722145081,0.5587199330329895,0.2489785104990005,0.3878526985645294
1630588199596,0.7616701722145081,0.5598036050796509,0.2352028489112854,0.3878526985645294
1630588199655,0.7616701722145081,0.5342790484428406,0.2223564982414245,0.3878526985645294
1630588199788,0.7616701722145081,0.4835195243358612,0.1941564381122589,0.3878526985645294
1630588199896,0.7616701722145081,0.4230715632438659,0.1402522623538971,0.7981674671173096
1630588200029,0.7616701722145081,0.3713796138763428,0.0695170387625694,0.7981674671173096
1630588200091,0.7616701722145081,0.3392874300479889,0.0092718740925192,0.7981674671173096
1630588200186,0.7616701722145081,0.3279420733451843,-0.0146502992138266,0.7981674671173096
1630588200295,0.7616701722145081,0.3345333337783813,-0.0028403396718204,0.7981674671173096
1630588200358,0.7616701722145081,0.3532342314720154,0.0254946444183588,0.7981674671173096
1630588200531,0.7616701722145081,0.3768340647220611,0.0528044514358043,0.7981674671173096
1630588200595,0.7616701722145081,0.3954590260982513,0.0688565075397491,0.7981674671173096
1630588200689,0.7616701722145081,0.3990103602409363,0.070693626999855,0.7981674671173096
1630588200795,0.7616701722145081,0.3766604661941528,0.0621744208037853,0.7981674671173096
1630588200907,0.7616701722145081,0.3204086422920227,0.0498856492340564,0.7981674671173096
1630588200953,0.7616701722145081,0.2342942059040069,0.0375938825309276,0.7981674671173096
1630588201226,0.7616701722145081,0.0713737234473228,0.0157197043299675,0.7981674671173096
1630588201384,0.7616701722145081,0.0086683128029108,0.0091791860759258,0.7981674671173096
1630588201495,0.7616701722145081,-0.0173702351748943,0.0132062630727887,0.7981674671173096
1630588201577,0.1980097740888595,-0.0398471765220165,0.0115011315792799,0.4122091829776764
1630588201710,0.1722400486469268,-0.0581840425729751,-0.005585853010416,0.3597251176834106
1630588201846,0.1722400486469268,-0.0827755108475685,-0.0400955639779567,0.3597251176834106
1630588201919,0.1722400486469268,-0.1221101954579353,-0.0842318534851074,0.3597251176834106
1630588202008,0.1722400486469268,-0.164422333240509,-0.1273072659969329,0.3597251176834106
1630588202111,0.1722400486469268,-0.1805645078420639,-0.1619464606046676,0.3597251176834106
1630588202212,0.1722400486469268,-0.161091923713684,-0.1864088028669357,0.3597251176834106
1630588202340,0.1722400486469268,-0.1294440180063247,-0.1972821503877639,0.3597251176834106
1630588202444,0.1722400486469268,-0.1098400801420211,-0.1931074857711792,0.3597251176834106
1630588202546,0.1722400486469268,-0.105938047170639,-0.1796182990074157,0.3597251176834106
1630588202611,0.1722400486469268,-0.110227070748806,-0.1655661910772323,0.3597251176834106
1630588202713,0.1722400486469268,-0.1147999912500381,-0.1578049808740615,0.3597251176834106
1630588202811,0.1408764868974685,-0.1162764206528663,-0.1592847555875778,0.3250809013843536
1630588202939,0.1408764868974685,-0.1154453158378601,-0.1730391085147857,0.3250809013843536
1630588203033,0.1408764868974685,-0.1142186373472213,-0.1964018791913986,0.3250809013843536
1630588203129,0.1408764868974685,-0.1156673803925514,-0.2209295034408569,0.3250809013843536
1630588203246,0.1408764868974685,-0.1221595555543899,-0.2408517599105835,0.3250809013843536
1630588203345,0.1408764868974685,-0.1296684443950653,-0.2619543969631195,0.3250809013843536
1630588203417,0.3140478432178497,-0.1009904816746711,-0.2940453886985779,0.3250809013843536
1630588203549,0.5230085849761963,-0.0047718822024762,-0.3341729938983917,0.3250809013843536
1630588203645,0.6951913833618164,0.1271506994962692,-0.3686729073524475,0.3250809013843536
1630588203811,0.8086532950401306,0.2429333329200744,-0.3826782703399658,0.3250809013843536
1630588203841,0.8086532950401306,0.323142796754837,-0.3817819356918335,0.3250809013843536
1630588203934,0.8086532950401306,0.3758654594421386,-0.3719695508480072,0.3250809013843536
1630588204045,0.8086532950401306,0.4267765879631042,-0.3263157308101654,0.3250809013843536
1630588204169,0.8086532950401306,0.4929848313331604,-0.21590556204319,0.3250809013843536
1630588204278,0.8086532950401306,0.5674079656600952,-0.0756434425711631,0.3250809013843536
1630588204342,0.8086532950401306,0.6293240785598755,0.0412561632692813,0.3250809013843536
1630588204431,0.8086532950401306,0.6677462458610535,0.1131232902407646,0.3250809013843536
1630588204545,0.8086532950401306,0.6851087212562561,0.1461950242519378,0.3250809013843536
1630588204641,0.8666970133781433,0.6916871666908264,0.1585974097251892,0.3250809013843536
1630588204778,0.9346461892127992,0.6952900886535645,0.1666152030229568,0.3250809013843536
1630588204901,1.0111839771270752,0.6966018676757812,0.1767433434724807,0.3250809013843536
1630588204974,1.0111839771270752,0.6893524527549744,0.1906377226114273,0.3250809013843536
1630588205081,1.0111839771270752,0.6656876802444458,0.207032024860382,0.3250809013843536
1630588205144,1.0111839771270752,0.6232357621192932,0.2239382863044738,0.3250809013843536
1630588205246,1.0111839771270752,0.5696172118186951,0.238462284207344,0.3250809013843536
1630588205394,0.4365841150283813,0.5185403823852539,0.248246431350708,0.6816443204879761
1630588205490,0.5391311049461365,0.4787969291210174,0.2518519461154938,0.6991937160491943
1630588205596,0.5899331569671631,0.4379148185253143,0.2433048039674759,0.6951505541801453
1630588205661,0.6020679473876953,0.3705278038978576,0.2105792611837387,0.6697297692298889
1630588205762,0.5933687090873718,0.2566023170948028,0.1464944928884506,0.6352672576904297
1630588205896,0.5933687090873718,0.1008706018328666,0.0601411275565624,0.6352672576904297
1630588205990,0.5933687090873718,-0.0540496855974197,-0.0166544616222381,0.6352672576904297
1630588206097,0.5933687090873718,-0.1334555149078369,-0.050476811826229,0.6352672576904297
1630588206234,0.5933687090873718,-0.1124148145318031,-0.0421469770371913,0.6352672576904297
1630588206259,0.5933687090873718,-0.0368094891309738,-0.0182594861835241,0.6352672576904297
1630588206396,0.5933687090873718,0.046884499490261,0.0017266042996197,0.6352672576904297
1630588206460,0.5933687090873718,0.1119094714522361,0.0076412437483668,0.6352672576904297
1630588206582,0.6334147453308105,0.1500298082828521,-0.0013775611296296,0.6335147023200989
1630588206699,0.6775074005126953,0.1665565073490142,-0.0211822297424078,0.6313099265098572
1630588206794,0.7087705135345459,0.1717139184474945,-0.0456636436283588,0.6216829419136047
1630588206896,0.7083224654197693,0.1743127852678299,-0.0662802681326866,0.5833389759063721
1630588206949,0.7083224654197693,0.1756069511175155,-0.0793352648615837,0.5833389759063721
1630588207081,0.7083224654197693,0.1740426570177078,-0.085559532046318,0.5833389759063721
1630588207221,0.7083224654197693,0.1731190234422683,-0.0867423713207244,0.5833389759063721
1630588207288,0.7083224654197693,0.1951841562986374,-0.0772143006324768,0.5833389759063721
1630588207416,0.7083224654197693,0.2811291813850403,-0.0422394163906574,0.5833389759063721
1630588207514,0.7083224654197693,0.4251634180545807,0.0153771378099918,0.5833389759063721
1630588207591,0.7083224654197693,0.4458792209625244,0.0712124183773994,0.5833389759063721
1630588207674,0.7083224654197693,0.4573350548744201,0.1041041538119316,0.5833389759063721
1630588207836,0.7083224654197693,0.4551158547401428,0.1110559031367302,0.5833389759063721
1630588207946,0.7083224654197693,0.4625096321105957,0.1039404198527336,0.5833389759063721
1630588208008,0.7083224654197693,0.436838150024414,0.0976720005273819,0.5833389759063721
1630588208107,0.7083224654197693,0.4161586761474609,0.1010150611400604,0.5833389759063721
1630588208205,0.7083224654197693,0.4071802496910095,0.1164470389485359,0.5833389759063721
1630588208300,0.7083224654197693,0.4043797254562378,0.139434665441513,0.5833389759063721
1630588208437,0.7083224654197693,0.4009394943714142,0.1605836600065231,0.5833389759063721
1630588208506,0.7083224654197693,0.3954801857471466,0.1767660081386566,0.5833389759063721
1630588208608,0.7083224654197693,0.3895327150821686,0.1914158761501312,0.5833389759063721
1630588208744,0.3075842559337616,0.3829538822174072,0.2083331644535064,0.4514487981796264
1630588208798,0.2986623346805572,0.360220193862915,0.2229877561330795,0.4402574300765991
1630588208897,0.2797302901744842,0.2689970135688782,0.2220393717288971,0.4174588024616241
1630588209035,0.2583896219730377,-0.0319612026214599,0.197058767080307,0.3875665664672851
1630588209151,0.2462144345045089,-0.0355832464993,0.1536410450935363,0.3654079139232635
1630588209204,0.2463131099939346,-0.0303052775561809,0.1089353412389755,0.3621533215045929
1630588209347,0.2549546360969543,-0.02192541398108,0.0775144100189209,0.3728748857975006
1630588209409,0.269524872303009,-0.128057986497879,0.0578025095164775,0.3836356997489929
1630588209507,0.2878360450267792,-0.1334525942802429,0.0407984554767608,0.3892733454704284
1630588209648,0.3042594194412231,-0.1106985211372375,0.020625103265047,0.3972195386886596
1630588209747,0.3124113082885742,-0.0786208361387252,-0.0053823040798306,0.4165690243244171
1630588209843,0.3105999827384949,-0.0453877374529838,-0.0331479869782924,0.4429471790790558
1630588209945,0.2985464930534363,-0.0181332286447286,-0.0501326508820056,0.460623025894165
1630588210012,0.2951236963272095,-0.0019289382034912,-0.0521641708910465,0.4737227857112884
1630588210143,0.3038050830364227,0.0035773599520325,-0.0537607334554195,0.4801466763019562
1630588210278,0.3224856853485107,0.0048953667283058,-0.0720916613936424,0.4844715893268585
1630588210379,0.3479221761226654,0.0106030134484171,-0.108540192246437,0.4904656410217285
1630588210440,0.3582136929035187,0.0255854651331901,-0.1474038064479828,0.5021727681159973
1630588210543,0.3728469908237457,0.0491269454360008,-0.164677545428276,0.5204988121986389
1630588210660,0.3871434926986694,0.0838409215211868,-0.1446454226970672,0.540192723274231
1630588210708,0.3978917896747589,0.1331744790077209,-0.0936276242136955,0.5547993779182434
1630588210879,0.4044802784919739,0.1864839792251587,-0.0350455529987812,0.563308835029602
1630588210971,0.4056992828845978,0.2256277501583099,0.0128240641206502,0.5717667937278748
1630588211045,0.3997673094272613,0.2399608939886093,0.0445181913673877,0.5851250886917114
1630588211143,0.3897256255149841,0.2305944263935089,0.0626042112708091,0.5979667901992798
1630588211255,0.3868759870529175,0.2080707103013992,0.0724925473332405,0.5956703424453735
1630588211351,0.4047570824623108,0.18296879529953,0.07619059830904,0.570279598236084
1630588211468,0.4449203014373779,0.1620355397462844,0.0716214478015899,0.5301602482795715
1630588211613,0.4449203014373779,0.148091435432434,0.0587451756000518,0.5301602482795715
1630588211672,0.4449203014373779,0.1404955089092254,0.0447290576994419,0.5301602482795715
1630588211778,0.4449203014373779,0.1367823034524917,0.0406340882182121,0.5301602482795715
1630588211845,0.4449203014373779,0.1375778019428253,0.0501138418912887,0.5301602482795715
1630588211943,0.4449203014373779,0.1448565423488617,0.0645394921302795,0.1158444061875343
1630588212113,0.4449203014373779,0.1535396575927734,0.0716534554958343,0.1158444061875343
1630588212206,0.4449203014373779,0.1502842605113983,0.0662082657217979,0.1158444061875343
1630588212271,0.4449203014373779,0.126461461186409,0.0541611686348915,0.1158444061875343
1630588212374,0.4449203014373779,0.0992004200816154,0.0497410632669925,0.1158444061875343
1630588212495,0.4449203014373779,0.1003319919109344,0.0626477003097534,0.1158444061875343
1630588212541,0.4449203014373779,0.1358800828456878,0.0895523801445961,0.1158444061875343
1630588212711,0.4449203014373779,0.1802999526262283,0.1199404299259185,0.1158444061875343
1630588212797,0.4449203014373779,0.2112089842557907,0.1478053629398346,0.1158444061875343
1630588212875,0.4449203014373779,0.2260865718126297,0.1716440320014953,0.1158444061875343
1630588212978,0.4449203014373779,0.2336357086896896,0.1907465159893036,0.1158444061875343
1630588213077,0.4449203014373779,0.242398977279663,0.2042890638113021,0.1158444061875343
1630588213178,0.4449203014373779,0.2637284100055694,0.2105085551738739,0.1158444061875343
1630588213309,0.4449203014373779,0.3028403222560882,0.2098650187253952,0.1158444061875343
1630588213417,0.4449203014373779,0.3484634459018707,0.2045127898454666,0.1158444061875343
1630588213503,0.4449203014373779,0.3822820782661438,0.200448989868164,0.1158444061875343
1630588213567,0.4449203014373779,0.3961126804351806,0.2065469026565551,0.1158444061875343
1630588213700,0.4449203014373779,0.3945692181587219,0.2235669046640396,0.1158444061875343
1630588213747,0.4449203014373779,0.3870004117488861,0.2395112514495849,0.1158444061875343
1630588213932,0.4449203014373779,0.3748297691345215,0.2401764839887619,0.1158444061875343
1630588214028,0.4449203014373779,0.3530470728874206,0.2228544652462005,0.1158444061875343
1630588214090,0.4449203014373779,0.3224953413009643,0.1980526149272918,0.1158444061875343
1630588214184,0.4449203014373779,0.2917316555976867,0.1777137368917465,0.1158444061875343
1630588214263,0.4449203014373779,0.2711252868175506,0.1603090167045593,0.1158444061875343
1630588214400,0.4449203014373779,0.2633772194385528,0.1380453407764434,0.1158444061875343
1630588214531,0.4449203014373779,0.2659315168857574,0.1094530746340751,0.1158444061875343
1630588214626,0.4449203014373779,0.2772810757160187,0.0801300927996635,0.1158444061875343
1630588214724,0.4449203014373779,0.2888931632041931,0.058250393718481,0.1158444061875343
1630588214782,0.4449203014373779,0.2868960499763489,0.0449362024664878,0.1158444061875343
1630588214896,0.4449203014373779,0.2640497386455536,0.0372595936059951,0.1158444061875343
1630588214993,0.4449203014373779,0.2272258102893829,0.0302075631916522,0.1158444061875343
1630588215133,0.4449203014373779,0.191917285323143,0.0158138591796159,0.1158444061875343
1630588215218,0.4449203014373779,0.167232796549797,-0.0072676329873502,0.1158444061875343
1630588215336,0.4449203014373779,0.1470272094011306,-0.0310313384979963,0.1158444061875343
1630588215461,0.4449203014373779,0.1208661496639251,-0.0437199510633945,0.1158444061875343
1630588215493,0.4449203014373779,0.0894140526652336,-0.0446028746664524,0.1158444061875343
1630588215627,0.4449203014373779,0.0603933408856391,-0.0453878045082092,0.1158444061875343
1630588215799,0.4449203014373779,0.0417634807527065,-0.0479420945048332,0.1158444061875343
1630588215861,0.4449203014373779,0.0328912325203418,-0.0392522849142551,0.1158444061875343
1630588215961,0.4449203014373779,0.0305539444088935,-0.0111930714920163,0.1158444061875343
1630588216023,0.4449203014373779,0.0262135844677686,0.0259591024369001,0.1158444061875343
1630588216130,0.4449203014373779,0.0045127156190574,0.055908553302288,0.1158444061875343
1630588216223,0.4449203014373779,-0.0511994995176792,0.0721760913729667,0.1158444061875343
1630588216363,0.4449203014373779,-0.1457614153623581,0.0778722912073135,0.1158444061875343
1630588216461,0.4449203014373779,-0.2603741884231567,0.0796528831124305,0.1158444061875343
1630588216560,0.4449203014373779,-0.3519362807273865,0.0824228376150131,0.1158444061875343
1630588216629,0.4449203014373779,-0.3708550035953522,0.0857608690857887,0.1158444061875343
1630588216725,0.4449203014373779,-0.2996974289417267,0.0824755951762199,0.1158444061875343
1630588216828,0.4449203014373779,-0.1379490941762924,0.0686512812972068,0.1158444061875343
1630588216997,1.3397170305252075,-0.124416671693325,0.0511629357933998,0.1158444061875343
1630588217058,1.503075361251831,-0.1047006249427795,0.0360804721713066,0.1158444061875343
1630588217160,1.6086299419403076,-0.0787960439920425,0.0311380084604024,0.1158444061875343
1630588217263,1.6666415929794312,-0.0490855723619461,0.0304009709507226,1.6144739389419556
1630588217327,1.6666415929794312,-0.018856780603528,0.0200562439858913,1.6144739389419556
1630588217437,1.6666415929794312,0.0081556877121329,-0.0083879809826612,1.6144739389419556
1630588217596,1.6666415929794312,0.0321205295622348,-0.0505303405225276,1.6144739389419556
1630588217658,1.6666415929794312,0.0587657913565635,-0.0880978479981422,1.6144739389419556
1630588217763,1.6666415929794312,0.0992613434791565,-0.1020476445555687,1.6144739389419556
1630588217863,1.6666415929794312,0.1605889946222305,-0.0878670290112495,1.6144739389419556
1630588217962,1.6666415929794312,0.24069245159626,-0.0573213659226894,1.6144739389419556
1630588218046,1.6666415929794312,0.24069245159626,-0.0573213659226894,1.6144739389419556
1630588218191,1.7270957231521606,0.24069245159626,-0.0573213659226894,1.6144739389419556
1630588218255,1.7926466464996338,0.24069245159626,-0.0573213659226894,1.6144739389419556
1630588218350,1.8534296751022337,0.24069245159626,-0.0573213659226894,1.6144739389419556
1630588218445,1.8534296751022337,0.24069245159626,-0.0573213659226894,1.6144739389419556
1630588218557,1.8534296751022337,0.24069245159626,-0.0573213659226894,1.6144739389419556
1630588218649,1.8534296751022337,0.24069245159626,-0.0573213659226894,1.6144739389419556
1630588218786,1.8534296751022337,0.24069245159626,-0.0573213659226894,1.6144739389419556
1630588218883,1.8534296751022337,0.24069245159626,-0.0573213659226894,1.6144739389419556
1630588218957,1.8534296751022337,0.24069245159626,-0.0573213659226894,1.6144739389419556
1630588219100,1.8534296751022337,0.24069245159626,-0.0573213659226894,1.6144739389419556
1630588219156,1.8534296751022337,0.24069245159626,-0.0573213659226894,1.6144739389419556
1630588219259,1.8534296751022337,0.24069245159626,-0.0573213659226894,1.6144739389419556
1630588219385,1.8534296751022337,0.24069245159626,-0.0573213659226894,1.6144739389419556
1630588219480,1.8534296751022337,0.24069245159626,-0.0573213659226894,1.6144739389419556
1630588219597,1.8534296751022337,-0.2065023332834243,-0.5075629353523254,1.6144739389419556
1630588219686,1.8534296751022337,-0.2620132863521576,-0.4616448581218719,1.6144739389419556
1630588219757,1.8534296751022337,-0.2660108506679535,-0.3286925554275512,1.6144739389419556
1630588219851,1.8534296751022337,-0.2292600274085998,-0.1828141659498214,1.6144739389419556
1630588220035,1.8534296751022337,-0.1787835210561752,-0.0658004879951477,1.6144739389419556
1630588220088,1.8534296751022337,-0.1279376894235611,0.0147604877129197,1.6144739389419556
1630588220222,1.8534296751022337,-0.0695600807666778,0.0635511353611946,1.6144739389419556
1630588220322,1.8534296751022337,-0.0024126602802425,0.0905249640345573,1.6144739389419556
1630588220396,1.1709548234939575,0.0596494637429714,0.1067288145422935,0.7241273522377014
1630588220482,1.1297744512557983,0.1102637350559234,0.127307504415512,0.7749535441398621
1630588220614,1.0811488628387451,0.1521928310394287,0.1634371727705001,0.8143371343612671
1630588220721,1.0354042053222656,0.1888607293367386,0.2184081822633743,0.8986423015594482
1630588220796,0.9928559064865112,0.2246621549129486,0.309077650308609,1.0335773229599
1630588220927,0.9533312320709229,0.2614733278751373,0.4076852202415466,1.1690949201583862
1630588220995,0.9177510738372804,0.2924003601074219,0.4996496140956878,1.2674986124038696
1630588221088,0.8883781433105469,0.3176763653755188,0.5731989741325378,1.3225135803222656
1630588221214,0.8652999401092529,0.3362683653831482,0.6228523850440979,1.3440070152282717
1630588221328,0.8452600836753845,0.3449541628360748,0.6481150984764099,1.3444771766662598
1630588221419,0.8255420327186584,0.3430303633213043,0.6535932421684265,1.3328726291656494
1630588221529,0.8044200539588928,0.333439439535141,0.6458542346954346,1.3144968748092651
1630588221589,0.7538250684738159,0.3207930624485016,0.6326356530189514,1.318467617034912
1630588221689,0.6686481833457947,0.3049476146697998,0.6194736361503601,1.3182594776153564
1630588221828,0.5603305101394653,0.2820598185062408,0.6079831719398499,1.314199447631836
1630588221927,0.4563955664634704,0.2506968379020691,0.5968669652938843,1.3069835901260376
1630588222027,0.3821539878845215,0.2106525003910064,0.5825170874595642,1.2983790636062622
1630588222124,0.338197112083435,0.1624257862567901,0.5608599781990051,1.287994623184204
1630588222227,0.3118923008441925,0.1063751131296157,0.5279141068458557,1.266027331352234
1630588222281,0.297789067029953,0.0468892008066177,0.4784635007381439,1.2169125080108645
1630588222463,0.2901599705219269,-0.0045392555184662,0.4058124423027038,1.1284825801849363
1630588222564,0.2878073453903198,-0.0394282117486,0.3051440417766571,0.999735951423645
1630588222615,0.2894594669342041,-0.061661921441555,0.1787675470113754,0.842379093170166
1630588222714,0.2933509349822998,-0.0768434777855873,0.0456751771271228,0.6751475930213928
1630588222803,0.2988573312759399,-0.0875463560223579,-0.0559605471789836,0.5152544379234314
1630588222928,0.3049110472202301,-0.0945083647966384,-0.0992846116423606,0.3789090812206268
1630588223060,0.3131704032421112,-0.099792867898941,-0.095818281173706,0.2842734754085541
1630588223171,0.317558616399765,-0.1091732308268547,-0.0806815475225448,0.230345070362091
1630588223239,0.3122415244579315,-0.1231373026967048,-0.0712029784917831,0.2022031992673874
1630588223354,0.2991321086883545,-0.1343516558408737,-0.0654181689023971,0.1927819103002548
1630588223417,0.2887366414070129,-0.133512333035469,-0.0579391345381736,0.200613185763359
1630588223527,0.2888310551643371,-0.1198251768946647,-0.048992596566677,0.2135901898145675
1630588223692,0.2960370779037475,-0.1044407933950424,-0.0416715331375598,0.2161277532577514
1630588223758,0.3055020868778229,-0.0966343805193901,-0.03904490172863,0.2074216902256012
1630588223864,0.3160205483436584,-0.0994917228817939,-0.0447482839226722,0.1979755759239196
1630588223956,0.3259950280189514,-0.1143097057938575,-0.0611419305205345,0.1946785598993301
1630588224053,0.3287495672702789,-0.1434613913297653,-0.0861271768808364,0.1960575133562088
1630588224169,0.3159298598766327,-0.1822002977132797,-0.1128975078463554,0.2007673382759094
1630588224275,0.2863576710224151,-0.218010276556015,-0.1354642808437347,0.2113822847604751
1630588224360,0.2494530081748962,-0.2376006543636322,-0.155983567237854,0.2314276695251464
1630588224430,0.2165851444005966,-0.2393619865179062,-0.1752544790506363,0.2579109370708465
1630588224528,0.1958189755678177,-0.2322129160165786,-0.1845602095127105,0.2812312543392181
1630588224641,0.1879317015409469,-0.2263523638248443,-0.1745823174715042,0.2927336096763611
1630588224745,0.1891897618770599,-0.2310532480478286,-0.1495884209871292,0.2883057296276092
1630588224879,0.1906431168317794,-0.2527486979961395,-0.123251125216484,0.2665048837661743
1630588224990,0.1824197620153427,-0.2933494746685028,-0.1020948961377143,0.2315056771039962
1630588225096,0.1600355058908462,-0.348898708820343,-0.0845111608505249,0.1920448392629623
1630588225161,0.1262570768594741,-0.412273108959198,-0.0679291784763336,0.1617939174175262
1630588225260,0.0823104158043861,-0.4787746071815491,-0.0566847436130046,0.1472597271203994
1630588225342,0.0316810198128223,-0.5459542274475098,-0.0531891882419586,0.1453768908977508
1630588225497,-0.0159286707639694,-0.6056975722312927,-0.0522440671920776,0.152346670627594
1630588225576,-0.0506926774978637,-0.6455807089805603,-0.0454180128872394,0.1661526709794998
1630588225661,-0.0695104151964187,-0.6629340648651123,-0.0304454881697893,0.1816851943731308
1630588225762,-0.0803733170032501,-0.6634534001350403,-0.0109862303361296,0.1931626796722412
1630588225864,-0.0946697071194648,-0.6623794436454773,0.0080244755372405,0.1983230412006378
1630588225961,-0.1147852391004562,-0.6674721837043762,0.0215021409094333,0.1998222321271896
1630588226094,-0.1399220079183578,-0.6727985739707947,0.0227652452886104,0.1971587389707565
1630588226182,-0.1612050682306289,-0.6596640944480896,0.0088527332991361,0.1911278963088989
1630588226295,-0.1633761078119278,-0.6158841848373413,-0.0160490348935127,0.1889716535806656
1630588226390,-0.1363226920366287,-0.5572193264961243,-0.0441642627120018,0.2010638117790222
1630588226478,-0.0879887118935585,-0.5061559677124023,-0.0694974437355995,0.2267164438962936
1630588226593,-0.0356454588472843,-0.4721715152263641,-0.0897048413753509,0.255959153175354
1630588226735,0.0136359063908457,-0.4476179778575897,-0.1056194007396698,0.2794852554798126
1630588226796,0.0772060006856918,-0.4105291664600372,-0.1161018684506416,0.295765608549118
1630588226910,0.1749884784221649,-0.3373387455940246,-0.120203249156475,0.3072269558906555
1630588226993,0.2932006418704986,-0.2331106662750244,-0.1192416697740554,0.31609708070755
1630588227108,0.3989309072494507,-0.1299140155315399,-0.1212982758879661,0.3219459652900696
1630588227160,0.4723655879497528,-0.0535959489643573,-0.1363388895988464,0.3239965140819549
1630588227345,0.5171462893486023,-0.0101059796288609,-0.1721669733524322,0.321810632944107
1630588227408,0.5463898777961731,0.0125423967838287,-0.2255681455135345,0.3139066100120544
1630588227494,0.568094789981842,0.0333459973335266,-0.2820957601070404,0.3010290265083313
1630588227604,0.5817402601242065,0.0622747465968132,-0.3243188560009002,0.2945134937763214
1630588227699,0.5869786739349365,0.0947858393192291,-0.3463033437728882,0.3051992654800415
1630588227843,0.5886211395263672,0.1236922666430473,-0.3565689325332641,0.3301003873348236
1630588227895,0.5958517789840698,0.147237479686737,-0.361976146697998,0.3559595644474029
1630588227996,0.611936628818512,0.1692385077476501,-0.3653461039066314,0.3749532699584961
1630588228137,0.6313853859901428,0.1905583292245865,-0.3675259947776794,0.3888213336467743
1630588228201,0.6462298631668091,0.2065629363059997,-0.3667789697647095,0.4007788598537445
1630588228342,0.6499277949333191,0.2109524756669998,-0.3580865263938904,0.4095899760723114
1630588228409,0.635998010635376,0.1975719779729843,-0.340850293636322,0.4124965667724609
1630588228528,0.601816713809967,0.1641194373369217,-0.3233697712421417,0.4093784093856811
1630588228630,0.552995502948761,0.1155193075537681,-0.3137079179286957,0.4041707813739776
1630588228722,0.5057385563850403,0.0646328628063201,-0.314143419265747,0.4021566212177276
1630588228819,0.4717425107955932,0.024669574573636,-0.3212634027004242,0.4050964713096618
1630588228926,0.4502648413181305,-0.0031393717508763,-0.3304608762264251,0.4128096997737884
1630588229060,0.4359679520130157,-0.0301433410495519,-0.3369928896427154,0.4212737679481506
1630588229161,0.4290406107902527,-0.0670827776193618,-0.3360668122768402,0.421858012676239
1630588229250,0.428535908460617,-0.1161115244030952,-0.3275327086448669,0.4075082242488861
1630588229349,0.4268648326396942,-0.1738301813602447,-0.3145303428173065,0.3759214282035827
1630588229447,0.4140649139881134,-0.2309459149837494,-0.2978813648223877,0.3322626948356628
1630588229530,0.3891412913799286,-0.2762162983417511,-0.2757581174373626,0.2849350869655609
1630588229628,0.3615863025188446,-0.2997939586639404,-0.2492586821317672,0.2408332526683807
1630588229744,0.3439622223377228,-0.298445463180542,-0.2237648069858551,0.2061481475830078
1630588229854,0.341951459646225,-0.2807481288909912,-0.2051967531442642,0.1899084895849228
1630588229958,0.3542576432228088,-0.2579381167888641,-0.1976996809244156,0.1968383491039276
1630588230044,0.3728848099708557,-0.2374889850616455,-0.2016446441411972,0.2197293937206268
1630588230123,0.3899002373218536,-0.2218754738569259,-0.2139824330806732,0.2438164204359054
1630588230224,0.4008073806762695,-0.2061377167701721,-0.2271122336387634,0.2575684189796448
1630588230387,0.4083922803401947,-0.1756527125835418,-0.2342871725559234,0.2568455040454864
1630588230449,0.4154630899429321,-0.125174805521965,-0.2345925122499466,0.2416853159666061
1630588230545,0.4205593466758728,-0.0697606056928634,-0.2302990704774856,0.2175255119800567
1630588230643,0.4203606843948364,-0.0283688548952341,-0.2241935580968856,0.1965591162443161
1630588230709,0.4169595539569855,-0.0059385886415839,-0.215938463807106,0.1900577396154403
1630588230833,0.4164364039897918,0.0054223644547164,-0.20526984333992,0.1983276605606079
1630588230970,0.4201731383800506,0.0145336799323558,-0.1953690499067306,0.2100116908550262
1630588231063,0.4298121333122253,0.0195017270743846,-0.1862884759902954,0.2208482027053833
1630588231162,0.433925449848175,0.0146187143400311,-0.1720124185085296,0.2291429191827774
1630588231261,0.4325471222400665,0.0007764448528178,-0.1495363414287567,0.2353548109531402
1630588231354,0.4241803586483001,-0.0115710347890853,-0.1257167756557464,0.2354594469070434
1630588231462,0.4038224816322326,-0.0124903032556176,-0.1093620583415031,0.2226535081863403
1630588231608,0.369649201631546,-0.0035658001434057,-0.098640352487564,0.1929195374250412
1630588231713,0.3292120993137359,0.005120946560055,-0.0832331478595733,0.150862231850624
1630588231770,0.2947980463504791,0.0044444827362895,-0.0605637468397617,0.1088057532906532
1630588231894,0.2666136622428894,-0.0133132664486765,-0.0363716557621955,0.0839657187461853
1630588232008,0.2314104288816452,-0.0513137429952621,-0.0165179744362831,0.0889732390642166
1630588232046,0.1861543357372284,-0.1023735925555229,-0.0007139500812627,0.1218764781951904
1630588232212,0.1861543357372284,-0.1441704183816909,0.0156436953693628,0.1218764781951904
1630588232299,0.1861543357372284,-0.1541388779878616,0.0333277955651283,0.1218764781951904
1630588232403,0.1861543357372284,-0.1371624916791916,0.0483894385397434,0.1218764781951904
1630588232484,0.1861543357372284,-0.1178925484418869,0.0546423271298408,0.1218764781951904
1630588232578,0.3238588273525238,-0.1117095425724983,0.0474260374903678,0.4797582924365997
1630588232676,0.2924199104309082,-0.1179591342806816,0.024314098060131,0.4494273960590362
1630588232796,0.2594918012619018,-0.1297153383493423,-0.0148529643192887,0.4028182625770569
1630588232899,0.2253968119621276,-0.1457635909318924,-0.0640898272395134,0.3546253144741058
1630588232996,0.1915925592184066,-0.1685714572668075,-0.1065660417079925,0.3166457414627075
1630588233093,0.1612276285886764,-0.1936836540699005,-0.126269444823265,0.2923372387886047
1630588233172,0.1422748565673828,-0.205691248178482,-0.1226310059428215,0.2808049321174621
1630588233263,0.1431122720241546,-0.1941316276788711,-0.1038701012730598,0.2835579514503479
1630588233392,0.1576816290616989,-0.1675027161836624,-0.0787523686885833,0.2979791164398193
1630588233504,0.1798454970121383,-0.1434777081012725,-0.0537955649197101,0.3207951188087463
1630588233595,0.2018682360649109,-0.1325632035732269,-0.0389740169048309,0.3420740365982055
1630588233697,0.2168374061584472,-0.1391943991184234,-0.0425231829285621,0.3533920347690582
1630588233794,0.2091105282306671,-0.1653333306312561,-0.0614652559161186,0.3477831780910492
1630588233871,0.1915118992328643,-0.2072668969631195,-0.079263687133789,0.3288022577762604
1630588234007,0.174014538526535,-0.2547639310359955,-0.0757747739553451,0.3067622780799866
1630588234138,0.1681403219699859,-0.2913362681865692,-0.049497190862894,0.2937910556793213
1630588234201,0.1791573613882064,-0.3066172897815704,-0.0176480785012245,0.2923025488853454
1630588234294,0.2080365717411041,-0.3034368753433227,0.0063613355159759,0.2970590591430664
1630588234393,0.2461902797222137,-0.2916567325592041,0.0210811775177717,0.2997066676616668
1630588234506,0.2802911102771759,-0.2775839865207672,0.0291033294051885,0.29831662774086
1630588234652,0.3018237948417663,-0.2639870643615722,0.0309825036674737,0.293294608592987
1630588234728,0.3093890845775604,-0.2540696561336517,0.0234670173376798,0.2837607562541961
1630588234821,0.3050271272659302,-0.2526446878910064,0.0041413255967199,0.2664124369621277
1630588234903,0.2948369681835174,-0.2594761848449707,-0.02531698346138,0.2438609302043914
1630588235005,0.2790645360946655,-0.2684307694435119,-0.0564574189484119,0.2169400453567505
1630588235120,0.2582182288169861,-0.2674049139022827,-0.0765221640467643,0.1919185221195221
1630588235239,0.2355071753263473,-0.2513719499111175,-0.0776188671588897,0.1789028197526931
1630588235345,0.215724766254425,-0.2261964529752731,-0.0626178085803985,0.1852063685655594
1630588235442,0.2005923986434936,-0.2005660533905029,-0.0398608595132827,0.2042982280254364
1630588235494,0.1880064308643341,-0.1814581453800201,-0.0153247043490409,0.2258180975914001
1630588235629,0.1742715388536453,-0.1689136028289795,0.0088774152100086,0.247991994023323
1630588235695,0.1623646467924118,-0.1565426737070083,0.030966056510806,0.2765255868434906
1630588235865,0.1570515632629394,-0.1394603252410888,0.0486331023275852,0.3154820799827575
1630588235933,0.1646625697612762,-0.118616797029972,0.0595294199883937,0.3610932826995849
1630588236043,0.1868221312761306,-0.0991827920079231,0.0620798654854297,0.402686059474945
1630588236105,0.2163974195718765,-0.0849669575691223,0.0568950660526752,0.4355957806110382
1630588236212,0.2442777603864669,-0.0771336406469345,0.0496925748884677,0.4630341231822967
1630588236336,0.2684365510940552,-0.0715855434536933,0.0519134029746055,0.4937269389629364
1630588236465,0.2918844521045685,-0.059969812631607,0.0726609528064727,0.5310344696044922
1630588236560,0.3174155056476593,-0.0348031111061573,0.1066481545567512,0.5701703429222107
1630588236673,0.3427239060401916,-0.0026241638697683,0.1401029378175735,0.6022235155105591
1630588236760,0.3653990030288696,0.0250894706696271,0.1633326560258865,0.6195111870765686
1630588236841,0.3858671188354492,0.0428712032735347,0.1729717999696731,0.6205003261566162
1630588236928,0.4046803414821625,0.0531314052641391,0.1678065657615661,0.6108931303024292
1630588237045,0.4212096929550171,0.0631144419312477,0.1480689346790313,0.5978937149047852
1630588237147,0.4338724017143249,0.0765527412295341,0.1178797334432601,0.5838178396224976
1630588237263,0.4383721649646759,0.089679516851902,0.0859957858920097,0.567633867263794
1630588237359,0.4296189248561859,0.0960788950324058,0.0618119016289711,0.5482335686683655
1630588237461,0.404940664768219,0.0952634587883949,0.049837689846754,0.5289214253425598
1630588237555,0.3681979179382324,0.092827670276165,0.0489521957933902,0.5156857371330261
1630588237684,0.3295544683933258,0.0935528352856636,0.0550651587545871,0.5106038451194763
1630588237779,0.2982200980186462,0.0967158004641532,0.0633705928921699,0.5077953338623047
1630588237877,0.2736354470252991,0.0967598557472229,0.0645237043499946,0.4937477111816406
1630588237972,0.2519610524177551,0.0882458686828613,0.0504023320972919,0.4568245112895965
1630588238046,0.2323157489299774,0.0687496438622474,0.0246694218367338,0.3962965309619903
1630588238144,0.2189357429742813,0.0422081835567951,0.0034364298917353,0.3229557275772095
1630588238318,0.2154349833726883,0.01739152520895,-0.0015012527583166,0.2588917911052704
1630588238389,0.2171602994203567,-0.0010150766465812,0.0041305962949991,0.2211413234472274
1630588238478,0.215317815542221,-0.0168730281293392,0.0070033278316259,0.2058448642492294
1630588238578,0.2036949098110199,-0.0369658060371875,0.001060958718881,0.1963836401700973
1630588238677,0.1820833683013916,-0.062747873365879,-0.0116001209244132,0.1848225742578506
1630588238744,0.1585646569728851,-0.0872438699007034,-0.0252808071672916,0.1700863987207412
1630588238883,0.1501469165086746,-0.0993642583489418,-0.0359776280820369,0.1526054739952087
1630588238972,0.1731993556022644,-0.094857320189476,-0.0435635969042778,0.1277401596307754
1630588239075,0.2197313010692596,-0.0791380032896995,-0.0501195378601551,0.0870648324489593
1630588239179,0.2654651999473572,-0.0602709837257862,-0.0572282187640666,0.0251831728965044
1630588239281,0.2921315431594848,-0.0434160195291042,-0.0653945505619049,-0.0536037199199199
1630588239377,0.2994198799133301,-0.0280642509460449,-0.075248472392559,-0.1327333450317382
1630588239504,0.2936807870864868,-0.0136945825070142,-0.0863783061504364,-0.1911368072032928
1630588239597,0.2808128297328949,-0.0020783492363989,-0.1014933735132217,-0.2202225178480148
1630588239699,0.2642506659030914,0.0026524241548031,-0.1223872080445289,-0.2190636694431305
1630588239798,0.2473750114440918,-0.0027595325373113,-0.1481202393770218,-0.1975537985563278
1630588239856,0.2371435463428497,-0.0163070745766162,-0.1709411740303039,-0.1662216186523437
1630588239977,0.2389979660511016,-0.0284859389066696,-0.1816816180944442,-0.1375757604837417
1630588240136,0.246838241815567,-0.0276407077908515,-0.1798087954521179,-0.1350240111351013
1630588240237,0.2669289112091064,-0.0030874928925186,-0.163642942905426,-0.1384846866130828
1630588240296,0.2915405631065368,0.0067646540701389,-0.1423938125371933,-0.1437437236309051
1630588240429,0.3073538541793823,0.0116981687024235,-0.1213287711143493,-0.1473666280508041
1630588240498,0.2995947301387787,0.0096219098195433,-0.101461261510849,-0.1523889154195785
1630588240595,0.2636900842189789,-0.0027157771401107,-0.0836158171296119,-0.1584746241569519
1630588240729,0.2124120593070984,-0.027735099196434,-0.0696889832615852,-0.1583720594644546
1630588240889,0.1773631721735,-0.0620762445032596,-0.0599708259105682,-0.143354520201683
1630588240914,0.1788067668676376,-0.0998864918947219,-0.0479031763970851,-0.1084830090403556
1630588241008,0.205136701464653,-0.1368264555931091,-0.0277799926698207,-0.05716173350811
1630588241085,0.2383458018302917,-0.1718490868806839,-0.0031742309220135,-0.0006652312004007
1630588241184,0.2383458018302917,-0.1957900673151016,0.005144013557583,-0.0006652312004007
1630588241346,0.2383458018302917,-0.1873653382062912,0.005144013557583,-0.0006652312004007
1630588241413,0.2383458018302917,-0.1873653382062912,0.005144013557583,-0.0006652312004007
1630588241517,0.2383458018302917,-0.1873653382062912,0.005144013557583,-0.0006652312004007
1630588241616,0.2383458018302917,-0.1873653382062912,0.005144013557583,-0.0006652312004007
1630588241718,0.2383458018302917,-0.1873653382062912,0.005144013557583,-0.0006652312004007
1630588241818,0.2383458018302917,-0.1873653382062912,0.2028714418411255,-0.0006652312004007
1630588241944,0.2383458018302917,-0.1873653382062912,0.2362018674612045,-0.0006652312004007
1630588242041,0.2383458018302917,-0.1873653382062912,0.2602485716342926,-0.0006652312004007
1630588242108,0.2383458018302917,-0.1873653382062912,0.2683080732822418,-0.0006652312004007
1630588242220,0.2383458018302917,-0.1873653382062912,0.2569172084331512,-0.0006652312004007
1630588242297,0.2383458018302917,-0.1873653382062912,0.2342279404401779,-0.0006652312004007
1630588242393,0.2383458018302917,-0.1873653382062912,0.2172057479619979,-0.0006652312004007
1630588242566,0.2383458018302917,-0.1873653382062912,0.2213097959756851,-0.0006652312004007
1630588242625,0.2383458018302917,-0.1873653382062912,0.2450176775455474,-0.0006652312004007
1630588242726,0.2383458018302917,-0.1873653382062912,0.2743304967880249,-0.0006652312004007
1630588242839,0.2383458018302917,-0.1873653382062912,0.2960208356380462,-0.0006652312004007
1630588242921,0.2383458018302917,-0.1873653382062912,0.304354727268219,-0.0006652312004007
1630588243023,0.2383458018302917,-0.1873653382062912,0.3161022961139679,-0.0006652312004007
1630588243153,0.2383458018302917,-0.1873653382062912,0.3190265297889709,-0.0006652312004007
1630588243245,0.2383458018302917,0.5682717561721802,0.3189696669578552,-0.0006652312004007
1630588243350,0.2383458018302917,0.5262371897697449,0.3191625773906708,-0.0006652312004007
1630588243448,0.2383458018302917,0.3627507388591766,0.3165092170238495,-0.0006652312004007
1630588243555,0.2383458018302917,0.3312768042087555,0.3082861304283142,-0.0006652312004007
1630588243611,0.2383458018302917,0.3088714778423309,0.2997020184993744,-0.0006652312004007
1630588243784,0.2383458018302917,0.2987721860408783,0.2996308207511902,-0.0006652312004007
1630588243880,0.2383458018302917,0.3053673505783081,0.308916836977005,-0.0006652312004007
1630588243950,0.2383458018302917,0.3318573236465454,0.3181667923927307,-0.0006652312004007
1630588244043,0.2383458018302917,0.3699449300765991,0.31657674908638,-0.0006652312004007
1630588244146,0.2383458018302917,0.4036630988121032,0.3009515106678009,-0.0006652312004007
1630588244246,0.2383458018302917,0.4217471182346344,0.2755460143089294,-0.0006652312004007
1630588244410,0.2383458018302917,0.4243313372135162,0.2503998577594757,-0.0006652312004007
1630588244472,0.2383458018302917,0.4177105128765106,0.2365979850292205,-0.0006652312004007
1630588244541,0.2383458018302917,0.3999330997467041,0.2351910173892974,-0.0006652312004007
1630588244671,0.2383458018302917,0.3810633718967438,0.2349907159805297,-0.0006652312004007
1630588244773,0.2383458018302917,0.3583202958106994,0.2235902547836303,-0.0006652312004007
1630588244849,0.2383458018302917,0.3363093435764313,0.1980957835912704,-0.0006652312004007
1630588244979,0.2383458018302917,0.3188461661338806,0.1659148186445236,-0.0006652312004007
1630588245082,0.2383458018302917,0.307796448469162,0.1373505741357803,-0.0006652312004007
1630588245214,0.2383458018302917,0.3108058869838714,0.1180164664983749,-0.0006652312004007
1630588245276,0.2383458018302917,0.3393543064594269,0.1073280945420265,-0.0006652312004007
1630588245377,0.2383458018302917,0.3856992423534393,0.1027653291821479,-0.0006652312004007
1630588245445,0.2383458018302917,0.4228956997394562,0.1007091850042343,-0.0006652312004007
1630588245593,0.2383458018302917,0.4313519597053528,0.0975947529077529,-0.0006652312004007
1630588245699,0.2383458018302917,0.4107722640037536,0.0894576162099838,-0.0006652312004007
1630588245793,0.2383458018302917,0.3764531016349792,0.0752932876348495,-0.0006652312004007
1630588245896,0.2383458018302917,0.3446462750434875,0.053418256342411,-0.0006652312004007
1630588245967,0.2383458018302917,0.3202905654907226,0.0201377794146537,-0.0006652312004007
1630588246076,0.2383458018302917,0.3039350211620331,-0.0234888773411512,-0.0006652312004007
1630588246194,0.2383458018302917,0.2974119186401367,-0.0666100680828094,-0.0006652312004007
1630588246307,0.2383458018302917,0.3003917634487152,-0.0947366133332252,-0.0006652312004007
1630588246405,0.2383458018302917,0.3121271133422851,-0.1031912863254547,-0.0006652312004007
1630588246500,0.4383104145526886,0.3312365412712097,-0.0970817506313324,-0.0006652312004007
1630588246606,0.4365308284759521,0.3511525392532348,-0.084098182618618,-0.0006652312004007
1630588246662,0.4315418601036072,0.3553310036659241,-0.0746158212423324,0.4114512503147125
1630588246789,0.4257051944732666,0.3234523832798004,-0.0803809016942977,0.3527671992778778
1630588246930,0.4158901870250702,0.2442251741886139,-0.1080126240849495,0.3072586357593536
1630588246998,0.4018604755401611,0.1258707344532013,-0.1518758088350296,0.2814751267433166
1630588247094,0.3829444348812103,0.0015415304806083,-0.2023561894893646,0.2680115103721618
1630588247197,0.3592943847179413,-0.083470918238163,-0.2512238025665283,0.255602091550827
1630588247281,0.3324220776557922,-0.1169033199548721,-0.2939551472663879,0.2404883950948715
1630588247396,0.3073911070823669,-0.1235179454088211,-0.3190966844558716,0.2300176620483398
1630588247529,0.2950875163078308,-0.1193188801407814,-0.3163054883480072,0.234642744064331
1630588247594,0.3000198900699615,-0.108120746910572,-0.2955879867076874,0.2522337138652801
1630588247696,0.3124941885471344,-0.0912463590502739,-0.2716098725795746,0.2768630385398865
1630588247800,0.324673056602478,-0.0749914646148681,-0.2397673428058624,0.3056412041187286
1630588247892,0.3335652947425842,-0.0718832835555076,-0.1936691254377365,0.3203599154949188
1630588248034,0.3404306769371032,-0.0900763496756553,-0.1393535137176513,0.3424232304096222
1630588248121,0.3455629348754883,-0.1235459446907043,-0.086829274892807,0.3775656223297119
1630588248262,0.3456872403621673,-0.1479890942573547,-0.0401056967675685,0.4234089255332947
1630588248294,0.3409218192100525,-0.1428831964731216,0.0019672950729727,0.4720592200756073
1630588248428,0.3362434208393097,-0.114386923611164,0.0365183092653751,0.5124877095222473
1630588248498,0.3351743519306183,-0.0801064521074295,0.0578551292419433,0.5392615795135498
1630588248658,0.3416840434074402,-0.0504368767142295,0.0664202347397804,0.5589257478713989
1630588248726,0.3575623631477356,-0.0269121583551168,0.0676584839820861,0.5826848149299622
1630588248827,0.3798139691352844,-0.0078824926167726,0.0666310712695121,0.6132181286811829
1630588248912,0.4020201861858368,0.0082207014784216,0.064201682806015,0.6426634192466736
1630588249013,0.4175679385662079,0.022327410057187,0.061040922999382,0.6598052382469177
1630588249110,0.4214430749416351,0.0405946895480155,0.0637421309947967,0.673692524433136
1630588249259,0.4132663905620575,0.0733022168278694,0.089182324707508,0.6848239898681641
1630588249336,0.3972293138504028,0.1286557465791702,0.1468029022216797,0.6929380297660828
1630588249442,0.3772280514240265,0.1316813081502914,0.2208036631345749,0.6978193521499634
1630588249539,0.3556957244873047,0.1364734321832656,0.2823508679866791,0.6996517181396484
1630588249647,0.3358725309371948,0.1420153975486755,0.314339816570282,0.6982525587081909
1630588249713,0.3246339857578277,0.1442174762487411,0.3174086213111877,0.6924777626991272
1630588249879,0.3255191147327423,0.1419372409582138,0.3038423657417297,0.6815112233161926
1630588249942,0.3368537127971649,0.1408381164073944,0.2890613675117492,0.6733964085578918
1630588250032,0.3560145199298858,0.14724662899971,0.2831558287143707,0.6825020909309387
1630588250144,0.3560145199298858,0.1653569191694259,0.2882682979106903,0.6825020909309387
1630588250245,0.3560145199298858,0.196641743183136,0.3004994690418243,0.6825020909309387
1630588250338,0.3560145199298858,0.2416975200176239,0.3134588003158569,0.6825020909309387
1630588250456,0.3560145199298858,0.3009606897830963,0.3226491212844848,0.6825020909309387
1630588250554,0.3560145199298858,0.3009606897830963,0.3261630833148956,0.6825020909309387
1630588250657,0.3560145199298858,0.3009606897830963,0.3227121531963348,0.6825020909309387
1630588250744,0.3560145199298858,0.3009606897830963,0.3047770857810974,0.6825020909309387
1630588250845,0.3560145199298858,0.3009606897830963,0.2605981230735779,0.6825020909309387
1630588250947,0.3560145199298858,0.3009606897830963,0.1857422441244125,0.6825020909309387
1630588251068,0.3560145199298858,0.3009606897830963,0.095617689192295,0.6825020909309387
1630588251180,0.3560145199298858,0.3009606897830963,0.0228995475918054,0.6825020909309387
1630588251282,0.3560145199298858,0.3009606897830963,-0.0129644768312573,0.6825020909309387
1630588251340,0.3560145199298858,0.3009606897830963,-0.0260724164545536,0.6825020909309387
1630588251438,0.3560145199298858,0.3009606897830963,-0.037124216556549,0.6825020909309387
1630588251551,0.3560145199298858,0.3837595283985138,-0.0523357130587101,0.6825020909309387
1630588251670,0.3560145199298858,0.3203210234642029,-0.0729368552565574,0.6825020909309387
1630588251781,0.3560145199298858,0.2691039443016052,-0.096301257610321,0.6825020909309387
1630588251873,0.3560145199298858,0.2223740518093109,-0.1132244542241096,0.6825020909309387
1630588251971,0.3560145199298858,0.1824486851692199,-0.1083188280463218,0.6825020909309387
1630588252070,0.3560145199298858,0.1636589467525482,-0.070821963250637,0.6825020909309387
1630588252152,0.3560145199298858,0.1772544085979461,-0.0091896522790193,0.6825020909309387
1630588252315,0.3560145199298858,0.2112598270177841,0.0573922358453273,0.6825020909309387
1630588252372,0.3560145199298858,0.2422155141830444,0.1131696552038192,0.6825020909309387
1630588252481,0.3560145199298858,0.2553596794605255,0.1525750607252121,0.6825020909309387
1630588252581,0.3560145199298858,0.249671459197998,0.1765174120664596,0.6825020909309387
1630588252680,0.3560145199298858,0.2325477451086044,0.1878245770931244,0.6825020909309387
1630588252808,0.3560145199298858,0.1663093715906143,0.191803365945816,0.6825020909309387
1630588252902,0.3560145199298858,0.1355297863483429,0.1974894851446151,0.6825020909309387
1630588253038,0.3560145199298858,0.1273975968360901,0.2167476415634155,0.6825020909309387
1630588253073,0.3560145199298858,0.1363440454006195,0.2589905858039856,0.6825020909309387
1630588253211,0.3560145199298858,0.1531300693750381,0.3178362846374511,0.6825020909309387
1630588253281,0.3560145199298858,0.1747868061065673,0.3732823133468628,0.6825020909309387
1630588253380,0.3560145199298858,0.2048348188400268,0.4098641574382782,0.6825020909309387
1630588253530,0.3560145199298858,0.2407848685979843,0.423081487417221,0.6825020909309387
1630588253628,0.3560145199298858,0.408052921295166,0.4167039692401886,0.6825020909309387
1630588253686,0.3560145199298858,0.4087049067020416,0.3977770805358886,0.6825020909309387
1630588253802,0.3560145199298858,0.381888210773468,0.3732005357742309,0.6825020909309387
1630588253892,0.3560145199298858,0.4104347825050354,0.3484301567077636,0.6825020909309387
1630588253989,0.3560145199298858,0.546881914138794,0.3245561122894287,0.6825020909309387
1630588254126,0.3560145199298858,0.7312391996383667,0.3001019656658172,0.6825020909309387
1630588254231,0.3560145199298858,0.8846388459205627,0.2767051756381988,0.6825020909309387
1630588254291,0.3560145199298858,0.9791448712348938,0.2594759464263916,0.6825020909309387
1630588254439,0.3560145199298858,0.9739804863929749,0.2495111227035522,0.6825020909309387
1630588254500,0.3560145199298858,0.9460336565971376,0.2382216900587082,0.6825020909309387
1630588254594,0.3560145199298858,0.9189324378967284,0.2091488987207412,0.6825020909309387
1630588254719,0.3560145199298858,0.8995896577835083,0.1503542810678482,0.6825020909309387
1630588254826,0.3560145199298858,0.8833907842636108,0.0658206418156623,0.6825020909309387
1630588254932,0.3560145199298858,0.8638065457344055,-0.0209760926663875,0.6825020909309387
1630588255030,0.3560145199298858,0.8398431539535522,-0.0796998590230941,0.6825020909309387
1630588255129,0.3560145199298858,0.8103488087654114,-0.0978358536958694,0.6825020909309387
1630588255192,0.3560145199298858,0.8065244555473328,-0.0749309733510017,0.6825020909309387
1630588255359,0.3560145199298858,0.8104110956192017,-0.0127259213477373,0.6825020909309387
1630588255455,0.3560145199298858,0.808311402797699,0.064812071621418,0.6825020909309387
1630588255525,0.3560145199298858,0.7823845148086548,0.1286543309688568,0.6825020909309387
1630588255625,0.3560145199298858,0.7196735739707947,0.1667062640190124,0.6825020909309387
1630588255725,0.3560145199298858,0.626258909702301,0.1831714361906051,0.6825020909309387
1630588255800,0.3560145199298858,0.5364967584609985,0.1876491904258728,0.6825020909309387
1630588255957,0.3560145199298858,0.4883148074150085,0.1861257404088974,0.6825020909309387
1630588256042,0.3560145199298858,0.485289067029953,0.1785717904567718,0.6825020909309387
1630588256138,0.3560145199298858,0.5043753385543823,0.1665157228708267,0.6825020909309387
1630588256226,0.3560145199298858,0.5340875387191772,0.1549521833658218,0.6825020909309387
1630588256320,0.3560145199298858,0.5633805990219116,0.1492499709129333,0.6825020909309387
1630588256428,0.3560145199298858,0.5842108130455017,0.1499865502119064,0.6825020909309387
1630588256561,0.3560145199298858,0.5945551991462708,0.1528880149126052,0.6825020909309387
1630588256663,0.3560145199298858,0.5983906984329224,0.1515408158302307,0.6825020909309387
1630588256761,0.3560145199298858,0.5960679650306702,0.1345018148422241,0.6825020909309387
1630588256860,0.3560145199298858,0.5829623937606812,0.0857278332114219,0.6825020909309387
1630588256919,0.3560145199298858,0.557784378528595,0.0017937809461727,0.6825020909309387
1630588257095,0.3560145199298858,0.525829553604126,-0.0903660282492637,0.6825020909309387
1630588257176,0.3560145199298858,0.4938357472419739,-0.1182527989149093,0.6825020909309387
1630588257272,0.3560145199298858,0.4644641280174255,-0.0363190732896328,0.6825020909309387
1630588257375,0.3560145199298858,0.439227819442749,0.0940679609775543,0.6825020909309387
1630588257436,0.3560145199298858,0.4212752282619476,0.2023507356643676,0.6825020909309387
1630588257542,0.3560145199298858,0.4017401933670044,0.2663370072841644,0.6825020909309387
1630588257644,0.3560145199298858,0.3550423383712768,0.2921497225761413,0.6825020909309387
1630588257780,0.3560145199298858,0.2605873048305511,0.2991612553596496,0.6825020909309387
1630588257871,0.3560145199298858,0.1249356940388679,0.3050630390644073,0.6825020909309387
1630588257979,0.3560145199298858,-0.0090635316446423,0.3157516121864319,0.6825020909309387
1630588258078,0.3560145199298858,-0.0890079662203788,0.3295966386795044,0.6825020909309387
1630588258170,0.3560145199298858,-0.1172766238451004,0.3442419767379761,0.6825020909309387
1630588258243,0.3560145199298858,-0.1282227486371994,0.357461154460907,0.6825020909309387
1630588258381,0.3560145199298858,-0.1374768018722534,0.3677164316177368,0.6825020909309387
1630588258486,0.3560145199298858,-0.1490455716848373,0.3735124468803406,0.6825020909309387
1630588258579,0.3560145199298858,-0.1609594970941543,0.3738638162612915,0.6825020909309387
1630588258675,0.3560145199298858,-0.1656286269426345,0.3663825094699859,0.6825020909309387
1630588258776,0.3560145199298858,-0.1611775010824203,0.3450852930545807,0.6825020909309387
1630588258839,0.3560145199298858,-0.1617552489042282,0.3056232631206512,0.6825020909309387
1630588259002,0.3560145199298858,-0.1827885508537292,0.2548627555370331,0.6825020909309387
1630588259121,0.3560145199298858,-0.2229992896318435,0.2117122709751129,0.6825020909309387
1630588259177,0.3560145199298858,-0.2471882700920105,0.1927750706672668,0.6825020909309387
1630588259268,0.3560145199298858,-0.2119838893413543,0.1954374015331268,0.6825020909309387
1630588259372,0.3560145199298858,-0.1067510396242141,0.2073390185832977,0.6825020909309387
1630588259473,0.3560145199298858,0.0286404900252819,0.2203357368707656,0.6825020909309387
1630588259608,0.3560145199298858,0.1577256768941879,0.2298535257577896,0.6825020909309387
1630588259715,0.3560145199298858,0.2724502086639404,0.2349892556667328,0.6825020909309387
1630588259791,0.3560145199298858,0.3876137137413025,0.2401820719242096,0.6825020909309387
1630588259874,0.3560145199298858,0.5033062100410461,0.2513096928596496,0.6825020909309387
1630588259955,0.3560145199298858,0.6019055843353271,0.2689329981803894,0.6825020909309387
1630588260077,0.3560145199298858,0.6688039302825928,0.2875915467739105,0.6825020909309387
1630588260207,0.3560145199298858,0.704721987247467,0.3011804521083832,0.6825020909309387
1630588260325,0.3560145199298858,0.7237607836723328,0.3072118163108825,0.6825020909309387
1630588260423,0.3560145199298858,0.7404776811599731,0.307595819234848,0.6825020909309387
1630588260490,0.3560145199298858,0.758306086063385,0.3052299320697784,0.6825020909309387
1630588260574,0.3560145199298858,0.7725921869277954,0.3005520105361938,0.6825020909309387
1630588260677,0.3560145199298858,0.7793062925338745,0.2931392192840576,0.6825020909309387
1630588260852,0.3560145199298858,0.7773129343986511,0.2825207114219665,0.6825020909309387
1630588260940,0.3560145199298858,0.7657651305198669,0.2683582603931427,0.6825020909309387
1630588261095,0.3560145199298858,0.744261622428894,0.2522676289081573,0.6825020909309387
1630588261099,0.3560145199298858,0.7141557931900024,0.2376172244548797,0.6825020909309387
1630588261187,0.3560145199298858,0.6774435043334961,0.2279593348503112,0.6825020909309387
1630588261291,0.3560145199298858,0.629269540309906,0.22563037276268,0.6825020909309387
1630588261417,0.3560145199298858,0.5618284344673157,0.229773536324501,0.6825020909309387
1630588261519,0.3560145199298858,0.4765714704990387,0.2358046919107437,0.6825020909309387
1630588261667,0.3560145199298858,0.3918911814689636,0.237639769911766,0.6825020909309387
1630588261705,0.3560145199298858,0.3285306692123413,0.2280358076095581,0.6825020909309387
1630588261811,0.3560145199298858,0.2790021598339081,0.2042541950941085,0.6825020909309387
1630588261908,0.3560145199298858,0.218440979719162,0.1704613119363784,0.6825020909309387
1630588262059,0.3560145199298858,0.1425135284662246,0.1379476934671402,0.6825020909309387
1630588262163,0.3560145199298858,0.0762827321887016,0.1178175881505012,0.6825020909309387
1630588262220,0.3560145199298858,0.0436853244900703,0.1098175421357154,0.6825020909309387
1630588262327,0.3560145199298858,0.0456573963165283,0.1105549037456512,0.6825020909309387
1630588262425,0.3560145199298858,0.0676870122551918,0.1298112571239471,0.6825020909309387
1630588262529,0.3560145199298858,0.0992180109024047,0.1872337162494659,0.6825020909309387
1630588262659,0.3560145199298858,0.1321513354778289,0.2757468521595001,0.6825020909309387
1630588262754,0.3560145199298858,0.1566697806119918,0.3596532940864563,0.6825020909309387
1630588262844,0.3560145199298858,0.162517637014389,0.4112052619457245,0.6825020909309387
1630588262918,0.3560145199298858,0.146613597869873,0.4253489971160888,0.6825020909309387
1630588263019,0.3560145199298858,0.1161317303776741,0.4154218137264251,0.6825020909309387
1630588263123,0.3560145199298858,0.0877205803990364,0.4037377536296844,0.6825020909309387
1630588263251,0.3560145199298858,0.0784187540411949,0.4097872078418731,0.6825020909309387
1630588263353,0.3560145199298858,0.0911829397082328,0.437762051820755,0.6825020909309387
1630588263450,0.3560145199298858,0.1151940375566482,0.4745072722434997,0.6825020909309387
1630588263560,0.3560145199298858,0.1405850201845169,0.5042693018913269,0.6825020909309387
1630588263629,0.3560145199298858,0.1619603335857391,0.5218243598937988,0.6825020909309387
1630588263757,0.3560145199298858,0.1793169528245926,0.5315571427345276,0.6825020909309387
1630588263888,0.3560145199298858,0.1913784593343734,0.5362393260002136,0.6825020909309387
1630588263956,0.3560145199298858,0.1988144665956497,0.5302592515945435,0.6825020909309387
1630588264059,0.3560145199298858,0.2048695087432861,0.5031325221061707,0.6825020909309387
1630588264157,0.3560145199298858,0.2198247909545898,0.4533080458641052,0.6825020909309387
1630588264257,0.3560145199298858,0.2561436295509338,0.3978283107280731,0.6825020909309387
1630588264372,0.3560145199298858,0.3132056295871734,0.3640815317630768,0.6825020909309387
1630588264498,0.3560145199298858,0.3739731311798095,0.363642543554306,0.6825020909309387
1630588264602,0.3560145199298858,0.4217528402805328,0.3791655898094177,0.6825020909309387
1630588264666,0.3560145199298858,0.4492832124233246,0.3879739046096802,0.6825020909309387
1630588264759,0.3560145199298858,0.4603886306285858,0.3799594044685364,0.6825020909309387
1630588264897,0.3560145199298858,0.4620274901390075,0.3550840318202972,0.6825020909309387
1630588264982,0.3560145199298858,0.4588282704353332,0.3230322599411011,0.6825020909309387
1630588265111,0.3560145199298858,0.4526541829109192,0.2984426915645599,0.6825020909309387
1630588265198,0.3560145199298858,0.444977730512619,0.2942225039005279,0.6825020909309387
1630588265295,0.3560145199298858,0.4398424923419952,0.3123622238636017,0.6825020909309387
1630588265395,0.3560145199298858,0.4420055150985718,0.3433078229427337,0.6825020909309387
1630588265479,0.3560145199298858,0.4493390619754791,0.3738020956516266,0.6825020909309387
1630588265571,0.3560145199298858,0.4548164904117584,0.3938795626163482,0.6825020909309387
1630588265711,0.3560145199298858,0.4490143060684204,0.3978530466556549,0.6825020909309387
1630588265806,0.3560145199298858,0.4248569309711456,0.3837645351886749,0.6825020909309387
1630588265879,0.3560145199298858,0.3804662823677063,0.3550571799278259,0.6825020909309387
1630588266009,0.3560145199298858,0.3247427940368652,0.3204486668109894,0.6825020909309387
1630588266078,0.3560145199298858,0.2757288515567779,0.2940905690193176,0.6825020909309387
1630588266185,0.3560145199298858,0.2556753754615783,0.288050889968872,0.6825020909309387
1630588266308,0.3560145199298858,0.2694441378116607,0.3031390607357025,0.6825020909309387
1630588266419,0.3560145199298858,0.301670104265213,0.3287504911422729,0.6825020909309387
1630588266514,0.3560145199298858,0.3347010910511017,0.3521807491779327,0.6825020909309387
1630588266616,0.3560145199298858,0.3576995134353637,0.3644978702068329,0.6825020909309387
1630588266679,0.3560145199298858,0.3667431175708771,0.3598012626171112,0.6825020909309387
1630588266780,0.3560145199298858,0.3620530068874359,0.3355950117111206,0.6825020909309387
1630588266939,0.3560145199298858,0.3465116620063782,0.2985256016254425,0.6825020909309387
1630588267049,0.3560145199298858,0.3264376819133758,0.2650782167911529,0.6825020909309387
1630588267110,0.3560145199298858,0.3096345067024231,0.2535138726234436,0.6825020909309387
1630588267212,0.3560145199298858,0.3005119860172272,0.2705923318862915,0.6825020909309387
1630588267312,0.3560145199298858,0.2952615320682525,0.3076598048210144,0.6825020909309387
1630588267376,0.3560145199298858,0.289758950471878,0.3482409119606018,0.6825020909309387
1630588267534,0.3560145199298858,0.2827821373939514,0.3786366581916809,0.6825020909309387
1630588267647,0.3560145199298858,0.2746816575527191,0.3917688727378845,0.6825020909309387
1630588267738,0.3560145199298858,0.2605798244476318,0.3865607380867004,0.6825020909309387
1630588267833,0.3560145199298858,0.2318117916584015,0.3627821207046509,0.6825020909309387
1630588267894,0.3560145199298858,0.1867617070674896,0.3222648203372955,0.6825020909309387
1630588268006,0.3560145199298858,0.1348295658826828,0.2722719013690948,0.6825020909309387
1630588268133,0.3560145199298858,0.0926564261317253,0.2270905524492263,0.6825020909309387
1630588268208,0.3560145199298858,0.072565346956253,0.1982864588499069,0.6825020909309387
1630588268339,0.3560145199298858,0.0675339922308921,0.1843572258949279,0.6825020909309387
1630588268445,0.3560145199298858,0.0612702742218971,0.1753434836864471,0.6825020909309387
1630588268512,0.2999343276023865,0.047577429562807,0.1653499454259872,0.4152720868587494
1630588268614,0.3428122997283935,0.0381806455552578,0.1513858437538147,0.3998624682426452
1630588268742,0.4463039338588714,0.0827662870287895,0.1252506375312805,0.3947633802890777
1630588268850,0.611860990524292,0.2080181688070297,0.0750608816742897,0.3983210027217865
1630588268946,0.7694660425186157,0.3592430353164673,0.0003446268383413,0.4085881412029266
1630588269053,0.8740423321723938,0.4776033461093902,-0.0781788453459739,0.420163482427597
1630588269185,0.9207049608230592,0.5473015308380127,-0.1307888478040695,0.4269784390926361
1630588269213,0.9207049608230592,0.5777839422225952,-0.1483890265226364,0.4269784390926361
1630588269344,0.9207049608230592,0.5898637771606445,-0.1437537670135498,0.4269784390926361
1630588269473,0.9207049608230592,0.609916090965271,-0.1249819919466972,0.4269784390926361
1630588269550,0.9207049608230592,0.6630182862281799,-0.0847470387816429,0.4269784390926361
1630588269630,0.9207049608230592,0.7478350400924683,-0.0256481133401393,0.4269784390926361
1630588269743,0.9560917615890504,0.8345576524734497,0.0357720963656902,0.411522775888443
1630588269847,0.997670352458954,0.8978360295295715,0.085362322628498,0.4074612557888031
1630588270013,1.0448859930038452,0.9311379790306092,0.1177001148462295,0.4173967838287353
1630588270075,1.098826289176941,0.9427534937858582,0.1352842301130294,0.4346109628677368
1630588270140,1.1601780652999878,0.9433701634407043,0.1419689208269119,0.4525004029273987
1630588270238,1.2210522890090942,0.9345062375068665,0.1400251388549804,0.4712202847003937
1630588270381,1.2210522890090942,0.9106967449188232,0.1325408369302749,0.4712202847003937
1630588270431,1.2210522890090942,0.8711252212524414,0.1233703717589378,0.4712202847003937
1630588270596,1.2210522890090942,0.8260414600372314,0.1169643700122833,0.4712202847003937
1630588270691,1.2210522890090942,0.7914248704910278,0.1187214776873588,0.4712202847003937
1630588270751,1.2210522890090942,0.7750552892684937,0.1284512132406234,0.4712202847003937
1630588270865,1.2210522890090942,0.7689516544342041,0.1389732956886291,0.4712202847003937
1630588270960,0.4911891520023346,0.7551760673522949,0.1429738849401474,0.3668799102306366
1630588271064,0.5042299032211304,0.7110406160354614,0.1345151960849762,0.3668052554130554
1630588271198,0.545871376991272,0.6159033179283142,0.113932155072689,0.3497835993766784
1630588271297,0.5927630662918091,0.4612542688846588,0.0861237794160842,0.3336727023124695
1630588271395,0.6250556111335754,0.2650306522846222,0.0562592595815658,0.3265528976917267
1630588271457,0.634787917137146,0.0953223332762718,0.0263382419943809,0.3231152594089508
1630588271567,0.625718891620636,0.0202684644609689,-0.0055827992036938,0.315269410610199
1630588271647,0.6064542531967163,0.0138175301253795,-0.038803830742836,0.3011753857135772
1630588271792,0.5840521454811096,0.0227372422814369,-0.0643982663750648,0.2872527539730072
1630588271883,0.5624356269836426,0.0328485444188118,-0.0710574835538864,0.2787779569625854
1630588271996,0.5435960292816162,0.0403238423168659,-0.0534618012607097,0.2739303708076477
1630588272095,0.5296095609664917,0.0387970879673957,-0.0200488399714231,0.2699812054634094
1630588272192,0.5198795199394226,0.0196361392736434,0.0123326340690255,0.269365131855011
1630588272254,0.517752468585968,-0.0160738788545131,0.0317707397043705,0.2624810039997101
1630588272430,0.5207814574241638,-0.0552728846669197,0.0387203618884086,0.2516787052154541
1630588272531,0.5204566717147827,-0.0825747027993202,0.0409817174077034,0.242936834692955
1630588272607,0.509804368019104,-0.0935395956039428,0.044298980385065,0.245196908712387
1630588272730,0.4867234230041504,-0.0975751206278801,0.04735554382205,0.2556171715259552
1630588272800,0.4548337161540985,-0.1049536615610122,0.0489602722227573,0.2628861665725708
1630588272878,0.4208413958549499,-0.1179834529757499,0.0551743917167186,0.2595946788787842
1630588273011,0.3919761776924133,-0.1339264959096908,0.0753017291426658,0.2493909299373626
1630588273143,0.3719734847545624,-0.1499094516038894,0.1084303110837936,0.2400939762592315
1630588273213,0.3605692684650421,-0.1652022153139114,0.1409982591867447,0.2378711104393005
1630588273303,0.3552141785621643,-0.1818703711032867,0.1600699573755264,0.2386472076177597
1630588273430,0.3540767431259155,-0.2086802124977111,0.161054328083992,0.2383677363395691
1630588273491,0.3557461500167846,-0.2530691921710968,0.1458002179861068,0.2362601459026336
1630588273644,0.3571281135082245,-0.3133591711521148,0.1189986020326614,0.2309671938419342
1630588273739,0.3510530889034271,-0.3712190985679626,0.0854427516460418,0.2203701436519622
1630588273861,0.3322609066963196,-0.4028495848178863,0.0516146384179592,0.2013846337795257
1630588273896,0.3040269613265991,-0.3998424708843231,0.0227067545056343,0.1756019741296768
1630588273990,0.2760355174541473,-0.3764515817165375,-0.0017378379125148,0.1495378613471985
1630588274087,0.2547897696495056,-0.3563102185726166,-0.0265579298138618,0.1284899711608886
1630588274229,0.2391489744186401,-0.3515450954437256,-0.0529829338192939,0.1169220805168151
1630588274347,0.2264690101146698,-0.3573723435401916,-0.0746465772390365,0.1179699227213859
1630588274442,0.2202553749084472,-0.3600086569786072,-0.085742175579071,0.1314440667629242
1630588274505,0.22402323782444,-0.3523908853530884,-0.0934579595923423,0.1528526991605758
1630588274600,0.2320663928985595,-0.3386584222316742,-0.1116525754332542,0.1735930889844894
1630588274713,0.2346051335334777,-0.3266507089138031,-0.1438804268836975,0.1844637244939804
1630588274841,0.229279413819313,-0.3176502585411072,-0.1791288703680038,0.1832600831985473
1630588274919,0.2359812259674072,-0.3048651814460754,-0.2039834707975387,0.18510502576828
1630588275045,0.2381116598844528,-0.2791931927204132,-0.2164909094572067,0.1862454265356063
1630588275145,0.2336466759443283,-0.2335774153470993,-0.2239017635583877,0.1915085911750793
1630588275206,0.2265955507755279,-0.1691497713327407,-0.2259973883628845,0.2064965069293975
1630588275304,0.2279667109251022,-0.1006731986999511,-0.2171754837036132,0.2310722470283508
1630588275480,0.2449327558279037,-0.0437340028584003,-0.1976601928472519,0.2593195140361786
1630588275540,0.2738418281078338,-0.0054268599487841,-0.1766861975193023,0.2841999530792236
1630588275616,0.3014923930168152,0.0153874000534415,-0.161395788192749,0.2988767325878143
1630588275710,0.3138270676136017,0.0248412936925888,-0.1542826741933822,0.3021050989627838
1630588275843,0.3029791414737701,0.0273794308304786,-0.1597607582807541,0.2948646247386932
1630588275944,0.2606213390827179,0.0231344234198331,-0.1872618049383163,0.277073472738266
1630588276055,0.2606213390827179,0.0111426813527941,-0.2406415492296219,0.277073472738266
1630588276158,0.2606213390827179,-0.0066616260446608,-0.3101634681224823,0.277073472738266
1630588276256,0.2606213390827179,-0.0227752905339002,-0.3705731630325317,0.277073472738266
1630588276364,0.2606213390827179,-0.028583051636815,-0.4046531915664673,0.277073472738266
1630588276431,0.2606213390827179,-0.0204834565520286,-0.4165619313716888,0.277073472738266
1630588276528,0.2606213390827179,-0.0012289693113416,-0.4227814972400665,0.4091318249702453
1630588276687,0.4258029758930206,0.019184723496437,-0.4327089488506317,0.4649983644485473
1630588276748,0.4187579751014709,0.0255225338041782,-0.44831183552742,0.4852628111839294
1630588276847,0.3983762860298157,0.0089253410696983,-0.4657904207706451,0.4775384664535522
1630588276960,0.3983762860298157,-0.0289267245680093,-0.4814904034137726,0.4775384664535522
1630588277043,0.3983762860298157,-0.0726983398199081,-0.4855380058288574,0.4775384664535522
1630588277162,0.3983762860298157,-0.0948631316423416,-0.4529268443584442,0.4775384664535522
1630588277306,0.3983762860298157,-0.0722353905439376,-0.3511005938053131,0.4775384664535522
1630588277368,0.3983762860298157,-0.0009786176960915,-0.2009682059288025,0.4775384664535522
1630588277479,0.3983762860298157,0.1040031015872955,-0.0624119564890861,0.4775384664535522
1630588277576,0.3983762860298157,0.2288715690374374,0.0322424657642841,0.4775384664535522
1630588277639,0.3983762860298157,0.3553142547607422,0.0818726196885109,0.4775384664535522
1630588277780,0.3983762860298157,0.4667417407035827,0.1018991991877555,0.5161539316177368
1630588277892,0.3887594640254974,0.548171877861023,0.1101801991462707,0.5488316416740417
1630588277981,0.3784856498241424,0.5953912734985352,0.1171802282333374,0.5655943751335144
1630588278096,0.3784856498241424,0.6156240105628967,0.1268951445817947,0.5655943751335144
1630588278191,0.3784856498241424,0.6345832943916321,0.1390075534582138,0.5655943751335144
1630588278261,0.3784856498241424,0.655415415763855,0.1504432559013366,0.5655943751335144
1630588278348,0.3784856498241424,0.68198162317276,0.1575909554958343,0.5655943751335144
1630588278506,0.3784856498241424,0.7164140939712524,0.1625896096229553,0.5655943751335144
1630588278612,0.3784856498241424,0.7575737833976746,0.1788526326417923,0.5655943751335144
1630588278675,0.3784856498241424,0.8022568225860596,0.1897937953472137,0.5655943751335144
1630588278768,0.3784856498241424,0.846987247467041,0.1808023154735565,0.5655943751335144
1630588278913,0.3784856498241424,0.8886171579360962,0.13494773209095,0.5655943751335144
1630588278974,0.3784856498241424,0.9242177605628968,0.048190101981163,0.5655943751335144
1630588279105,0.3784856498241424,0.9467498660087584,-0.0592435747385025,0.5655943751335144
1630588279206,0.3784856498241424,0.9467498660087584,-0.139320507645607,0.5655943751335144
1630588279314,0.3784856498241424,0.9467498660087584,-0.1613854467868805,0.5655943751335144
1630588279410,0.3784856498241424,0.9467498660087584,-0.1455026865005493,0.5655943751335144
1630588279474,0.3784856498241424,0.9467498660087584,0.2857480943202972,0.5655943751335144
1630588279613,0.3784856498241424,0.9467498660087584,0.3979073762893677,0.5655943751335144
1630588279713,0.3784856498241424,0.9467498660087584,0.4342684149742126,0.5655943751335144
1630588279833,0.3784856498241424,0.9467498660087584,0.4607191681861877,0.5655943751335144
1630588279913,0.3784856498241424,0.9467498660087584,0.4950678944587707,0.5655943751335144
1630588280009,0.3784856498241424,0.9467498660087584,0.5330705046653748,0.5655943751335144
1630588280097,0.3784856498241424,0.9467498660087584,0.5200192928314209,0.5655943751335144
1630588280179,0.3784856498241424,0.0934931263327598,0.5127063393592834,0.5655943751335144
1630588280347,0.3784856498241424,0.0833240449428558,0.5055793523788452,0.5655943751335144
1630588280428,0.3784856498241424,0.0599101670086383,0.492371141910553,0.5655943751335144
1630588280528,0.3784856498241424,0.0308745447546243,0.4703261256217956,0.5655943751335144
1630588280629,0.3784856498241424,0.0047775614075362,0.4433475732803345,0.5655943751335144
1630588280721,0.3784856498241424,-0.0125631457194685,0.4176101088523865,0.5655943751335144
1630588280788,0.3784856498241424,-0.0112264072522521,0.3965740501880646,0.5655943751335144
1630588280922,0.3784856498241424,0.0511873550713062,0.3828141689300537,0.5655943751335144
1630588281026,0.3784856498241424,0.2059983164072036,0.3052761554718017,0.5655943751335144
1630588281127,0.3784856498241424,0.3982210457324981,0.2804388999938965,0.5655943751335144
1630588281245,0.3784856498241424,0.556915819644928,0.2861855924129486,0.5655943751335144
1630588281313,0.3784856498241424,0.6549422144889832,0.2885985374450683,0.5655943751335144
1630588281421,0.3784856498241424,0.7223070859909058,0.2739804983139038,0.5655943751335144
1630588281541,0.3784856498241424,0.7454149127006531,0.2435356825590133,0.5655943751335144
1630588281681,0.3784856498241424,0.7701802849769592,0.2015924751758575,0.5655943751335144
1630588281744,0.3784856498241424,0.7976545095443726,0.149177148938179,0.5655943751335144
1630588281846,0.3784856498241424,0.8290719389915466,0.0914686620235443,0.5655943751335144
1630588281942,0.3784856498241424,0.8655800223350525,0.04126713052392,0.5655943751335144
1630588282002,0.3784856498241424,0.9076032042503356,0.0139774624258279,0.5655943751335144
1630588282144,0.3784856498241424,0.9462242126464844,0.0138691160827875,0.5655943751335144
1630588282257,0.3784856498241424,0.9783414006233216,0.0381838120520114,0.5655943751335144
1630588282330,0.3784856498241424,1.0110172033309937,0.0814626961946487,0.5655943751335144
1630588282440,0.3784856498241424,1.0509090423583984,0.1271960288286209,0.5655943751335144
1630588282543,0.3784856498241424,1.0838158130645752,0.1580818891525268,0.5655943751335144
1630588282646,0.3784856498241424,1.0871686935424805,0.1680164784193039,0.5655943751335144
1630588282778,0.3784856498241424,1.051666498184204,0.1729748100042343,0.5655943751335144
1630588282878,0.3784856498241424,0.9908913969993592,0.1918981373310089,0.5655943751335144
1630588282978,0.3784856498241424,0.9313730597496032,0.2238147258758545,0.5655943751335144
1630588283082,0.3784856498241424,0.8881546258926392,0.2522124648094177,0.5655943751335144
1630588283179,0.3784856498241424,0.8483999967575073,0.2710254490375519,0.5655943751335144
1630588283242,0.3784856498241424,0.8126712441444397,0.2858120203018188,0.5655943751335144
1630588283376,0.3784856498241424,0.7808932065963745,0.3019458353519439,0.5655943751335144
1630588283511,0.3784856498241424,0.7527201771736145,0.318939059972763,0.5655943751335144
1630588283577,0.3784856498241424,0.7291237115859985,0.334098070859909,0.5655943751335144
1630588283679,0.3784856498241424,0.7004833221435547,0.3463123738765716,0.5655943751335144
1630588283769,0.3784856498241424,0.6809183359146118,0.3558192551136017,0.5655943751335144
1630588283875,0.3784856498241424,0.6571487188339233,0.3629186451435089,0.5655943751335144
1630588283995,0.3784856498241424,0.600101888179779,0.3664712011814117,0.5655943751335144
1630588284095,0.3784856498241424,0.4940367341041565,0.3648775517940521,0.5655943751335144
1630588284194,0.3784856498241424,0.3535390496253967,0.3571725487709045,0.5655943751335144
1630588284297,0.3784856498241424,0.2316913902759552,0.3393644094467163,0.5655943751335144
1630588284358,0.3784856498241424,0.1866794526576995,0.3100859224796295,0.5655943751335144
1630588284462,0.3784856498241424,0.2227810025215149,0.2761257588863373,0.5655943751335144
1630588284626,0.3784856498241424,0.3123212456703186,0.2526775598526001,0.5655943751335144
1630588284696,0.3784856498241424,0.3381447792053222,0.2510467767715454,0.5655943751335144
1630588284779,0.3784856498241424,0.3650448620319366,0.2710497975349426,0.5655943751335144
1630588284892,0.3784856498241424,0.3919894099235534,0.3019026517868042,0.5655943751335144
1630588284986,0.3784856498241424,0.4189538061618805,0.3313274979591369,0.5655943751335144
1630588285081,0.3784856498241424,0.4423758089542389,0.3517932593822479,0.5655943751335144
1630588285230,0.3784856498241424,0.4520443379878998,0.3614782094955444,0.5655943751335144
1630588285329,0.3784856498241424,0.4241690933704376,0.3625295758247375,0.5655943751335144
1630588285430,0.3784856498241424,0.3640914857387543,0.3565945327281952,0.5655943751335144
1630588285527,0.3784856498241424,0.3039658665657043,0.3427113592624664,0.5655943751335144
1630588285591,0.3784856498241424,0.2664568126201629,0.3236518502235412,0.5655943751335144
1630588285686,0.3784856498241424,0.2529361844062805,0.3069618642330169,0.5655943751335144
1630588285830,0.3784856498241424,0.2479379773139953,0.2985971868038177,0.5655943751335144
1630588285928,0.3784856498241424,0.2352545112371444,0.2994239628314972,0.5655943751335144
1630588286031,0.3784856498241424,0.1800296157598495,0.3069010972976684,0.5655943751335144
1630588286132,0.3784856498241424,0.0265478044748306,0.3216576278209686,0.5655943751335144
1630588286193,0.3784856498241424,0.109255276620388,0.3445558845996856,0.5655943751335144
1630588286284,0.3784856498241424,0.192081794142723,0.3691878616809845,0.5655943751335144
1630588286413,0.3784856498241424,0.2562407255172729,0.3866709172725677,0.5655943751335144
1630588286532,0.3784856498241424,0.301053524017334,0.3928043246269226,0.5655943751335144
1630588286626,0.3784856498241424,0.3312477171421051,0.3906468749046325,0.5655943751335144
1630588286729,0.3784856498241424,0.3511615097522735,0.3860135376453399,0.5655943751335144
1630588286792,0.3784856498241424,0.3709162771701813,0.3783148527145386,0.5655943751335144
1630588286926,0.3784856498241424,0.4220000803470611,0.3652232885360718,0.5655943751335144
1630588287047,0.3784856498241424,0.5185626149177551,0.3533467650413513,0.5655943751335144
1630588287129,0.3784856498241424,0.544733464717865,0.3564150631427765,0.5655943751335144
1630588287224,0.3784856498241424,0.5711941123008728,0.3836497068405151,0.5655943751335144
1630588287316,0.3784856498241424,0.5982804894447327,0.4317803084850311,0.5655943751335144
1630588287411,0.3784856498241424,0.6260601878166199,0.4862846136093139,0.5655943751335144
1630588287513,0.3784856498241424,0.6545364260673523,0.5309919714927673,0.5655943751335144
1630588287679,0.3784856498241424,0.7014488577842712,0.5539326071739197,0.5655943751335144
1630588287741,0.3784856498241424,0.6992473006248474,0.5519833564758301,0.5655943751335144
1630588287837,0.3784856498241424,0.6774569749832153,0.5325871109962463,0.5655943751335144
1630588287939,0.3784856498241424,0.6565977334976196,0.5087897777557373,0.5655943751335144
1630588288035,0.3784856498241424,0.6414238214492798,0.4917615056037903,0.5655943751335144
1630588288129,0.3784856498241424,0.6274250149726868,0.4853871166706085,0.5655943751335144
1630588288283,0.3784856498241424,0.6093936562538147,0.4855515360832214,0.5655943751335144
1630588288363,0.3784856498241424,0.5860872268676758,0.4876320660114288,0.5655943751335144
1630588288462,0.3784856498241424,0.5358980298042297,0.4884487986564636,0.5655943751335144
1630588288577,0.3784856498241424,0.3950813114643097,0.4850381016731262,0.5655943751335144
1630588288623,0.3784856498241424,0.3642784357070923,0.4723677933216095,0.5655943751335144
1630588288724,0.3784856498241424,0.3341193199157715,0.4439583420753479,0.5655943751335144
1630588288878,0.3784856498241424,0.3072038888931274,0.3932013511657715,0.5655943751335144
1630588288955,0.3784856498241424,0.2858422994613647,0.3185875415802002,0.5655943751335144
1630588289047,0.3784856498241424,0.2707803845405578,0.233154296875,0.5655943751335144
1630588289158,0.3784856498241424,0.1665307730436325,0.1746114939451217,0.5655943751335144
1630588289292,0.3784856498241424,0.1405508071184158,0.1866464763879776,0.5655943751335144
1630588289324,0.3784856498241424,0.1467196494340896,0.2566871345043182,0.5655943751335144
1630588289501,0.3784856498241424,0.1426040828227996,0.3347088992595672,0.5655943751335144
1630588289598,0.3784856498241424,0.1189304515719413,0.3886943459510803,0.5655943751335144
1630588289675,0.3784856498241424,0.0847440063953399,0.4126530587673187,0.5655943751335144
1630588289780,0.3784856498241424,0.0602207668125629,0.4154189527034759,0.5655943751335144
1630588289870,0.3784856498241424,0.0581711865961551,0.4110608696937561,0.5655943751335144
1630588289978,0.3784856498241424,0.0752045810222625,0.4111905694007873,0.5655943751335144
1630588290086,0.3784856498241424,0.0963106900453567,0.420752465724945,0.5655943751335144
1630588290180,0.3784856498241424,0.1097751036286354,0.4355045557022095,0.5655943751335144
1630588290276,0.3784856498241424,0.1127286925911903,0.4476932287216186,0.5655943751335144
1630588290369,0.3784856498241424,0.1078208684921264,0.4531434774398803,0.5655943751335144
1630588290463,0.3784856498241424,0.0975502654910087,0.4537323713302612,0.5655943751335144
1630588290527,0.1463364362716674,0.0811414793133735,0.4528608620166778,0.1889586001634597
1630588290679,0.1122249960899353,0.0547535121440887,0.4480047523975372,0.2484342008829116
1630588290782,0.076309859752655,0.0140372384339571,0.4265144169330597,0.2984254062175751
1630588290893,0.0436434000730514,-0.0397984534502029,0.3772297203540802,0.3258764743804931
1630588290999,0.0348305888473987,-0.0940750017762184,0.3019083738327026,0.3331020176410675
1630588291094,0.0707161799073219,-0.1265690177679062,0.2206337451934814,0.3267147839069366
1630588291153,0.1503355205059051,-0.1262711584568023,0.1589391678571701,0.3123104870319366
1630588291308,0.2531881928443908,-0.1137649193406105,0.125483289361,0.2946203351020813
1630588291435,0.3497212827205658,-0.1163194105029106,0.106359489262104,0.2808817625045776
1630588291487,0.4196031391620636,-0.1380852907896042,0.0850465521216392,0.2770035564899444
1630588291597,0.4597493708133697,-0.1538429707288742,0.0539695508778095,0.2835637629032135
1630588291678,0.4784051775932312,-0.1379461586475372,0.0194083135575056,0.2956021130084991
1630588291788,0.4919348657131195,-0.0982489511370658,-0.0054769678972661,0.3062942922115326
1630588291912,0.5096070766448975,-0.0633294358849525,-0.0122368317097425,0.3215184211730957
1630588292018,0.5223837494850159,-0.0455208420753479,-0.0076956087723374,0.3307358026504516
1630588292113,0.5274638533592224,-0.0377476774156093,-0.0054046614095568,0.326299101114273
1630588292192,0.5303807258605957,-0.0283482354134321,-0.016358945518732,0.3097177743911743
1630588292287,0.5360115766525269,-0.0126010254025459,-0.0424196012318134,0.2881397902965545
1630588292391,0.5442371368408203,0.0064284275285899,-0.0733827948570251,0.2664774358272552
1630588292545,0.5499140620231628,0.0211948920041322,-0.0959181487560272,0.2469602227210998
1630588292644,0.5492346882820129,0.0239254310727119,-0.1078674718737602,0.2335788905620575
1630588292739,0.5401618480682373,0.0117763746529817,-0.117200069129467,0.2329372763633728
1630588292810,0.5225541591644287,-0.0110288094729185,-0.1316837519407272,0.2471586614847183
1630588292904,0.5012140274047852,-0.037526998668909,-0.1528542339801788,0.2684209048748016
1630588293011,0.4906390011310577,-0.0669194459915161,-0.1761837154626846,0.2930207252502441
1630588293171,0.5030586123466492,-0.1062231510877609,-0.1953199654817581,0.3307299613952636
1630588293219,0.4872325360774994,-0.1553153991699218,-0.2081215381622314,0.3221046924591064
1630588293347,0.478361576795578,-0.1944815963506698,-0.2190087288618087,0.3120886981487274
1630588293426,0.4761748015880584,-0.1917759031057357,-0.2335829883813858,0.3071600794792175
1630588293523,0.4841836392879486,-0.1397645473480224,-0.2502764165401459,0.3113156855106354
1630588293614,0.5050032138824463,-0.0694651156663894,-0.2633875608444214,0.3230848610401153
1630588293744,0.5339840054512024,-0.0133102890104055,-0.2723257839679718,0.3369944393634796
1630588293838,0.5657730102539062,0.0156928207725286,-0.2816373705863952,0.3514272272586822
1630588293937,0.5999157428741455,0.0213829856365919,-0.2996305227279663,0.3721133768558502
1630588294003,0.6408628821372986,0.017512397840619,-0.3291247487068176,0.4066874980926513
1630588294133,0.6884681582450867,0.02602494135499,-0.3490519225597381,0.4544952809810638
1630588294244,0.739500105381012,0.0560186840593814,-0.3089847564697265,0.5067355036735535
1630588294380,0.739500105381012,0.0963500067591667,-0.2028687745332718,0.5067355036735535
1630588294428,0.739500105381012,0.1287537962198257,-0.0882392153143882,0.5067355036735535
1630588294552,0.739500105381012,0.1468432992696762,-0.009120806120336,0.5067355036735535
1630588294631,0.739500105381012,0.1546209305524826,0.0312835164368152,0.5067355036735535
1630588294728,0.739500105381012,0.157447949051857,0.0500801689922809,0.5067355036735535
1630588294846,0.739500105381012,0.1548350751399994,0.0646518841385841,0.5067355036735535
1630588294958,0.739500105381012,0.1423299610614776,0.0817921906709671,0.5067355036735535
1630588295045,0.739500105381012,0.1144955679774284,0.1020556464791297,0.5067355036735535
1630588295163,0.739500105381012,0.0721920281648635,0.1253222078084945,0.5067355036735535
1630588295230,0.739500105381012,0.023045552894473,0.1499911844730377,0.5067355036735535
1630588295327,0.739500105381012,-0.020601961761713,0.1708618551492691,0.5067355036735535
1630588295426,0.739500105381012,-0.051938459277153,0.1839392483234405,0.5067355036735535
1630588295564,0.739500105381012,-0.0740912929177284,0.1891447007656097,0.1077112182974815
1630588295662,0.346422791481018,-0.1022916063666343,0.186900720000267,0.1738746911287307
1630588295770,0.4002012610435486,-0.1462197005748748,0.1711724698543548,0.2113113850355148
1630588295833,0.4242924749851227,-0.2005205899477005,0.1363467127084732,0.2338317185640335
1630588295960,0.4233323633670807,-0.2426790446043014,0.0880920961499214,0.2576233148574829
1630588296060,0.412702351808548,-0.2565829455852508,0.0428678914904594,0.2852758765220642
1630588296192,0.4072541892528534,-0.2435371130704879,0.0114756897091865,0.3124196529388428
1630588296289,0.4115363359451294,-0.2130287587642669,-0.0118215940892696,0.3339932560920715
1630588296378,0.4219506382942199,-0.1730655133724212,-0.0369690470397472,0.3493267297744751
1630588296444,0.4324512481689453,-0.1362018287181854,-0.0642821416258812,0.3589313924312591
1630588296564,0.438577651977539,-0.1145690530538559,-0.0875716507434845,0.3636821210384369
1630588296675,0.4404527842998504,-0.108129046857357,-0.1007079929113388,0.365086168050766
1630588296805,0.4420769512653351,-0.096601091325283,-0.1013162583112716,0.3823152184486389
1630588296880,0.4603140652179718,-0.0555006228387355,-0.0883511081337928,0.4017982482910156
1630588296978,0.4770518243312835,0.0161057226359844,-0.0637804493308067,0.4189166128635406
1630588297079,0.4888663291931152,0.0927366465330123,-0.0341141074895858,0.4297113418579101
1630588297161,0.4919425547122955,0.1492243111133575,-0.009609674103558,0.4352396130561828
1630588297262,0.4862536489963531,0.177308902144432,0.0002467121521476,0.4404919147491455
1630588297416,0.4769803583621979,0.1823876798152923,-0.0071818605065345,0.4494082331657409
1630588297495,0.4689794480800628,0.1760250329971313,-0.0267307627946138,0.4587180614471435
1630588297604,0.4626580774784088,0.1672229319810867,-0.0462820157408714,0.4648086428642273
1630588297712,0.4555830359458923,0.1572129130363464,-0.0507787689566612,0.4743908047676086
1630588297790,0.4472407400608063,0.1420023441314697,-0.0236109159886837,0.4975142180919647
1630588297893,0.4403363764286041,0.1204524636268615,0.0412629917263984,0.5318782329559326
1630588298060,0.4387231171131134,0.1013030707836151,0.1239531636238098,0.5637063980102539
1630588298108,0.4449385702610016,0.0982749462127685,0.1934081315994262,0.5835011601448059
1630588298214,0.4526202082633972,0.1102198213338851,0.2306323051452636,0.5909602046012878
1630588298325,0.4517885148525238,0.1180019453167915,0.2355066239833831,0.5905389189720154
1630588298390,0.4395080208778381,0.101715587079525,0.220573216676712,0.5847271680831909
1630588298494,0.4244224727153778,0.0537690483033657,0.2000934183597564,0.5776394605636597
1630588298617,0.4168936014175415,-0.0185031201690435,0.1814009994268417,0.5760364532470703
1630588298715,0.4176181852817535,-0.0930490940809249,0.1675542294979095,0.5803921222686768
1630588298811,0.4200126528739929,-0.1417471915483474,0.1606771498918533,0.5832172632217407
1630588298914,0.4204356074333191,-0.1545419543981552,0.160765141248703,0.5768528580665588
1630588298978,0.4302070140838623,-0.146567702293396,0.166946530342102,0.5799202919006348
1630588299114,0.4447628557682037,-0.1354523450136184,0.1776735186576843,0.5826488733291626
1630588299210,0.4599813520908355,-0.1215205565094947,0.1888881772756576,0.5795783400535583
1630588299387,0.4720157980918884,-0.0958946868777275,0.1902568340301513,0.5599023699760437
1630588299418,0.4772478640079498,-0.0604730881750583,0.1690458804368972,0.5179598331451416
1630588299516,0.4729839265346527,-0.0298901703208684,0.1199993044137954,0.4639144539833069
1630588299580,0.4575710296630859,-0.0152146331965923,0.0518243052065372,0.4189769327640533
1630588299688,0.440152645111084,-0.0120739117264747,-0.0122762694954872,0.3997755646705627
1630588299853,0.4381650686264038,-0.007951233536005,-0.050361692905426,0.4075753390789032
1630588299923,0.4604862332344055,0.0009153967257589,-0.0634766221046447,0.4342894852161407
1630588300030,0.4891652762889862,0.0065700709819793,-0.0681281983852386,0.4636053144931793
1630588300117,0.4891652762889862,0.0022368719801306,-0.0733508095145225,0.4636053144931793
1630588300212,0.4891652762889862,-0.0104968538507819,-0.0799827128648758,0.4636053144931793
1630588300324,0.4891652762889862,-0.026734946295619,-0.0853581503033638,0.4636053144931793
1630588300448,0.4891652762889862,-0.0417905151844024,-0.0877117589116096,0.4636053144931793
1630588300547,-0.1704556047916412,-0.0518176071345806,-0.0913557335734367,0.4463309049606323
1630588300615,-0.1521675586700439,-0.0564786568284034,-0.1032897010445594,0.4975182712078094
1630588300723,-0.1196771189570427,-0.0632924735546112,-0.1296110302209854,0.5291470289230347
1630588300810,-0.1033730432391166,-0.0835748016834259,-0.167051613330841,0.5364473462104797
1630588300920,-0.1119190081954002,-0.1198038309812545,-0.2026679068803787,0.52580326795578
1630588301059,-0.1298691630363464,-0.1660695523023605,-0.221346229314804,0.5041780471801758
1630588301180,-0.1343838423490524,-0.2145617306232452,-0.2151689678430557,0.4769026637077331
1630588301243,-0.1150945648550987,-0.2611496448516845,-0.1919677853584289,0.4465532898902893
1630588301321,-0.0812481567263603,-0.3006530404090881,-0.1670860946178436,0.416295975446701
1630588301422,-0.0440809093415737,-0.3199461698532104,-0.1517518162727356,0.3915943503379822
1630588301521,-0.0088198855519294,-0.3100080192089081,-0.1463911384344101,0.3736597299575805
1630588301697,0.0247509758919477,-0.2785189151763916,-0.145570769906044,0.3604008555412292
1630588301776,0.0694728568196296,-0.2418598681688308,-0.1409400403499603,0.3532138764858246
1630588301838,0.1321130841970443,-0.2104193419218063,-0.1275479197502136,0.3419499099254608
1630588301972,0.2026651352643966,-0.1863609701395034,-0.107273980975151,0.3301886022090912
1630588302038,0.2766452431678772,-0.1691876500844955,-0.0887962207198143,0.3241103291511535
1630588302135,0.3516980707645416,-0.1573930382728576,-0.078767754137516,0.3314758539199829
1630588302272,0.4255492687225342,-0.1485794782638549,-0.0767526775598526,0.356313407421112
1630588302382,0.4961532652378082,-0.1418958008289337,-0.0786244645714759,0.3927468657493591
1630588302446,0.5608111619949341,-0.1398654580116272,-0.0824149399995803,0.4310320019721985
1630588302560,0.6141676306724548,-0.1427913308143615,-0.0870091840624809,0.4650989472866058
1630588302656,0.6507163047790527,-0.1465322524309158,-0.0918897688388824,0.4919313788414001
1630588302767,0.6679828763008118,-0.1455683708190918,-0.0980580300092697,0.510019063949585
1630588302895,0.6709681153297424,-0.1411567777395248,-0.1102957278490066,0.5212188959121704
1630588302972,0.6688570380210876,-0.1350596845149994,-0.1281450241804123,0.5272333025932312
1630588303062,0.6682155132293701,-0.1232494488358497,-0.1442560255527496,0.5313737392425537
1630588303177,0.6702038645744324,-0.1023333743214607,-0.1475989520549774,0.5367871522903442
1630588303273,0.6708556413650513,-0.0798061117529869,-0.1383271068334579,0.5444833040237427
1630588303336,0.6664318442344666,-0.0674813464283943,-0.1276657581329345,0.5538606643676758
1630588303504,0.6583473086357117,-0.0700443834066391,-0.1243070438504219,0.564122200012207
1630588303598,0.6506792306900024,-0.0822825506329536,-0.1243556663393974,0.5734025239944458
1630588303708,0.6419587135314941,-0.0942927449941635,-0.1186796277761459,0.5759689211845398
