timestamp,TP9,AF7,AF8,TP10
1630932113030,0.6091147065162659,0.837386965751648,0.8721732497215271,0.6134694218635559
1630932113193,0.6091147065162659,0.837386965751648,0.8721732497215271,0.6134694218635559
1630932113233,0.6091147065162659,0.837386965751648,0.8721732497215271,0.6134694218635559
1630932113371,0.6091147065162659,0.837386965751648,0.8721732497215271,0.6134694218635559
1630932113500,0.6091147065162659,0.837386965751648,0.8721732497215271,0.6134694218635559
1630932113549,0.6091147065162659,0.837386965751648,0.8721732497215271,0.6134694218635559
1630932113669,0.6091147065162659,0.837386965751648,0.8721732497215271,0.6134694218635559
1630932113748,0.6091147065162659,0.837386965751648,0.8721732497215271,0.6134694218635559
1630932113905,0.6091147065162659,0.837386965751648,0.8721732497215271,0.6134694218635559
1630932113957,0.6091147065162659,0.2451175600290298,0.8721732497215271,0.6134694218635559
1630932114111,0.6091147065162659,0.1943944096565246,0.8721732497215271,0.6134694218635559
1630932114192,0.6091147065162659,0.1547687798738479,0.8721732497215271,0.6134694218635559
1630932114262,0.6091147065162659,0.0935684889554977,0.8721732497215271,0.6134694218635559
1630932114555,0.6091147065162659,0.0255822278559207,0.8721732497215271,0.6134694218635559
1630932114623,0.6091147065162659,-0.0531782023608684,0.8721732497215271,0.6134694218635559
1630932114689,0.6091147065162659,-0.0349588133394718,0.8721732497215271,0.6644073128700256
1630932114775,0.6091147065162659,-0.0152486972510814,0.8721732497215271,0.6702625751495361
1630932114786,0.6091147065162659,0.0094850622117519,0.8721732497215271,0.6710678935050964
1630932114864,0.6091147065162659,0.036615315824747,0.8721732497215271,0.6644984483718872
1630932115031,0.6091147065162659,0.0573697723448276,0.8721732497215271,0.6539649963378906
1630932115289,0.6091147065162659,0.0662049204111099,0.8721732497215271,0.6539649963378906
1630932115487,0.6091147065162659,0.0658009871840477,0.8721732497215271,0.6471543312072754
1630932115526,0.6091147065162659,0.0624912902712821,0.8721732497215271,0.6460626125335693
1630932115548,0.6091147065162659,0.0596764683723449,0.8721732497215271,0.6506659984588623
1630932115652,0.6091147065162659,0.0600010678172111,0.4325563907623291,0.6623498797416687
1630932115816,0.6091147065162659,0.0603083632886409,0.4175363481044769,0.6820096969604492
1630932115848,0.6091147065162659,0.0581568963825702,0.407414823770523,0.7069250345230103
1630932115875,0.6091147065162659,0.0539289079606533,0.3987279236316681,0.7361226677894592
1630932116052,0.6091147065162659,0.048227272927761,0.3884636163711548,0.775087296962738
1630932116110,0.6091147065162659,0.0399111807346344,0.3753549456596374,0.8198913335800171
1630932116184,0.6091147065162659,0.0285410974174737,0.3594892621040344,0.861536979675293
1630932116213,0.6091147065162659,0.0141422562301158,0.3442151248455047,0.8913633227348328
1630932116383,0.6091147065162659,-0.0033069378696382,0.338077038526535,0.9084263443946838
1630932116399,0.6091147065162659,-0.0232503060251474,0.3462361395359039,0.9171509742736816
1630932116663,0.6091147065162659,-0.0415421538054943,0.3633449077606201,0.9230269193649292
1630932116720,0.6091147065162659,-0.0522127337753772,0.3787698447704315,0.9117504358291626
1630932116854,0.6091147065162659,-0.0548578277230262,0.378368079662323,0.9277385473251344
1630932117047,0.6091147065162659,-0.0554985851049423,0.3706417083740234,0.943776786327362
1630932117155,0.6091147065162659,-0.0592949837446212,0.3590973913669586,0.9593150019645692
1630932117284,0.6091147065162659,-0.063345231115818,0.3445644378662109,0.9728389978408812
1630932117416,0.6091147065162659,-0.0604913868010044,0.3261693716049194,0.9607000350952148
1630932117465,0.6091147065162659,-0.0479952730238437,0.3054838180541992,0.9398893713951112
1630932117506,0.6091147065162659,-0.0306391976773738,0.2888665497303009,0.9108197093009948
1630932117640,0.6813989281654358,-0.0146059980615973,0.2884219884872436,0.8709659576416016
1630932117738,0.7107168436050415,-0.0016553397290408,0.3159979879856109,0.8174131512641907
1630932117781,0.7399755120277405,0.0097152618691325,0.367424726486206,0.7536078095436096
1630932117868,0.7578194737434387,0.019590888172388,0.4212588369846344,0.693737268447876
1630932117937,0.7609275579452515,0.0263316351920366,0.4565390646457672,0.6540533304214478
1630932117987,0.7554691433906555,0.0281297415494918,0.4581197202205658,0.6399756669998169
1630932118016,0.7514541745185852,0.0248390641063451,0.4511263966560364,0.6416004300117493
1630932118128,0.7547943592071533,0.0175523404031991,0.4416104555130005,0.6449189782142639
1630932118335,0.7733094692230225,0.0004585501155816,0.4190062880516052,0.6457118391990662
1630932118608,0.7733094692230225,0.0058599081821739,0.4178234338760376,0.6457118391990662
1630932118783,0.7813308238983154,0.0154929626733064,0.4254139959812164,0.6449651718139648
1630932118915,0.7910180687904358,0.0197630282491445,0.4394955933094024,0.647935152053833
1630932118928,0.801468551158905,0.0148139260709285,0.4570699632167816,0.6542034149169922
1630932119207,0.8086479902267456,0.0052216076292097,0.4671974778175354,0.6622070670127869
1630932119210,0.8082937598228455,-0.0017196658300235,0.455543041229248,0.670066773891449
1630932119299,0.7999767065048218,-0.004910746589303,0.41680708527565,0.6780441403388977
1630932119380,0.790709376335144,-0.0089745046570897,0.3618951737880707,0.6875181794166565
1630932119427,0.7924143075942993,-0.0173389967530965,0.3111164569854736,0.6965998411178589
1630932119537,0.8109570145606995,-0.0257035586982965,0.3089618384838104,0.6978580355644226
1630932119652,0.8109570145606995,-0.0285215098410844,0.3049338161945343,0.6978580355644226
1630932119822,0.8109570145606995,-0.0242296140640974,0.3042295277118683,0.6978580355644226
1630932119967,0.8109570145606995,-0.0169173721224069,0.3093524575233459,0.6978580355644226
1630932120043,0.8109570145606995,-0.0074449027888476,0.3211182057857513,0.6978580355644226
1630932120136,0.8109570145606995,0.006034227553755,0.3334633111953735,0.6978580355644226
1630932120193,0.8109570145606995,0.0223760809749364,0.3435348272323608,0.6978580355644226
1630932120277,0.8109570145606995,0.0386015363037586,0.3543688058853149,0.6978580355644226
1630932120320,0.8109570145606995,0.0526509024202823,0.3607159852981567,0.6978580355644226
1630932120466,0.8109570145606995,0.0665746256709098,0.3586326837539673,0.6978580355644226
1630932120477,0.8109570145606995,0.0805811360478401,0.3492997884750366,0.6978580355644226
1630932120602,0.8109570145606995,0.0912870019674301,0.3387765288352966,0.6978580355644226
1630932120625,0.8109570145606995,0.0964393243193626,0.3142635822296142,0.6978580355644226
1630932120753,0.8109570145606995,0.0991050526499748,0.2902871668338775,0.6978580355644226
1630932120876,0.8109570145606995,0.1029079779982566,0.2675838470458984,0.6978580355644226
1630932120976,0.8109570145606995,0.1069007664918899,0.2495047152042389,0.6978580355644226
1630932121236,0.8109570145606995,0.1090910509228706,0.2358786463737487,0.6978580355644226
1630932121261,0.8109570145606995,0.1090571507811546,0.2173625379800796,0.6978580355644226
1630932121342,0.8109570145606995,0.1092700809240341,0.188592255115509,0.6978580355644226
1630932121343,0.8109570145606995,0.1087080985307693,0.1558085829019546,0.6978580355644226
1630932121447,0.8109570145606995,0.1033544167876243,0.1367999911308288,0.6978580355644226
1630932121649,0.8109570145606995,0.0919450893998146,0.1426424533128738,0.6978580355644226
1630932121764,0.8109570145606995,0.0776829719543457,0.1784880012273788,0.6978580355644226
1630932121810,0.8109570145606995,0.0634713843464851,0.2061151415109634,0.6978580355644226
1630932121874,0.8109570145606995,0.0497368648648262,0.2198060601949691,0.6978580355644226
1630932122096,0.8109570145606995,0.0368563905358314,0.2223948687314987,0.6978580355644226
1630932122179,0.8109570145606995,0.0280432142317295,0.2215980887413025,0.6978580355644226
1630932122227,0.8109570145606995,0.0228008348494768,0.2285884916782379,0.6978580355644226
1630932122314,0.8109570145606995,0.0221456233412027,0.2384438812732696,0.6978580355644226
1630932122427,0.8109570145606995,0.0242764987051486,0.2464849203824997,0.6978580355644226
1630932122524,0.8109570145606995,0.0274648256599903,0.2491523772478103,0.6978580355644226
1630932122565,0.8109570145606995,0.0135845141485333,0.2459505647420883,0.6978580355644226
1630932122694,0.8109570145606995,0.0006854349048808,0.2399522364139557,0.6978580355644226
1630932122784,0.8109570145606995,-0.0094436015933752,0.2343978881835937,0.6978580355644226
1630932122946,0.8109570145606995,0.005582807585597,0.2327897995710373,0.6978580355644226
1630932122962,0.8109570145606995,-0.0092331981286406,0.2323398739099502,0.6978580355644226
1630932123084,0.8109570145606995,0.0311773885041475,0.2317853271961212,0.6978580355644226
1630932123209,0.8109570145606995,0.0599846020340919,0.2254680842161178,0.6978580355644226
1630932123340,0.8109570145606995,0.0918444618582725,0.214337021112442,0.6978580355644226
1630932123499,0.8109570145606995,0.1268039792776107,0.2019524276256561,0.6180909276008606
1630932123523,0.8109570145606995,0.1597009301185608,0.1917470544576645,0.6377407312393188
1630932123613,0.8109570145606995,0.1696918606758117,0.1849951297044754,0.6604862809181213
1630932123754,0.8109570145606995,0.167998656630516,0.181606724858284,0.6757910847663879
1630932123780,0.8109570145606995,0.1573714762926101,0.179867073893547,0.6779950261116028
1630932123933,0.8109570145606995,0.1431677639484405,0.1786952465772628,0.669660210609436
1630932124113,0.8109570145606995,0.1301517486572265,0.1780560761690139,0.6598746180534363
1630932124151,0.8109570145606995,0.1346596479415893,0.18088960647583,0.6568489074707031
1630932124213,0.7702552080154419,0.1397718042135238,0.1896745711565017,0.6610732674598694
1630932124344,0.7702552080154419,0.1438174098730087,0.2037463784217834,0.6672724485397339
1630932124503,0.7702552080154419,0.1356197297573089,0.2234715819358825,0.6722279191017151
1630932124666,0.7702552080154419,0.119066908955574,0.2203346639871597,0.6747674942016602
1630932124793,0.7702552080154419,0.059920210391283,0.2086050808429718,0.6863608956336975
1630932124823,0.7702552080154419,0.0935545042157173,0.2125824987888336,0.680170476436615
1630932124920,0.7702552080154419,0.0205927863717079,0.2131376713514328,0.6903530359268188
1630932125002,0.7702552080154419,-0.0197892617434263,0.2222805768251419,0.6884961128234863
1630932125115,0.7702552080154419,-0.0525568351149559,0.2297518253326416,0.6798829436302185
1630932125280,0.7702552080154419,-0.0673542469739914,0.2329896092414856,0.6690860390663147
1630932125390,0.7702552080154419,-0.0599270425736904,0.2333236634731292,0.6655418276786804
1630932125420,0.7702552080154419,-0.0394485853612422,0.2365860193967819,0.6760512590408325
1630932125509,0.7702552080154419,-0.0347686037421226,0.2473875284194946,0.6959279179573059
1630932125591,0.7702552080154419,-0.0320689938962459,0.2632097005844116,0.7119106650352478
1630932125775,0.7702552080154419,-0.0311725921928882,0.2772046327590942,0.7119106650352478
1630932125843,0.7702552080154419,-0.0319689102470874,0.2840326428413391,0.7119106650352478
1630932125994,0.7702552080154419,-0.0364061370491981,0.2816639840602875,0.7119106650352478
1630932126127,0.7702552080154419,-0.0449816398322582,0.2727825343608856,0.7119106650352478
1630932126265,0.7702552080154419,-0.0526266433298587,0.2632683217525482,0.7119106650352478
1630932126302,0.7702552080154419,-0.0495206601917743,0.2632683217525482,0.7119106650352478
1630932126380,0.7702552080154419,-0.0298531986773014,0.2632683217525482,0.7119106650352478
1630932126606,0.7702552080154419,0.0024200321640819,0.2632683217525482,0.7119106650352478
1630932126690,0.7702552080154419,0.0402174703776836,0.2632683217525482,0.7119106650352478
1630932126738,0.7702552080154419,0.0402174703776836,0.2632683217525482,0.7119106650352478
1630932126765,0.7702552080154419,0.0402174703776836,0.2632683217525482,0.7119106650352478
1630932126855,0.7702552080154419,0.0402174703776836,0.2632683217525482,0.7119106650352478
1630932126908,0.7702552080154419,0.0402174703776836,0.2632683217525482,0.7119106650352478
1630932127139,0.5946604013442993,0.0402174703776836,0.2632683217525482,0.7119106650352478
1630932127226,0.6425202488899231,0.0402174703776836,0.2632683217525482,0.8308591246604919
1630932127316,0.6778486371040344,0.0402174703776836,0.2632683217525482,0.8189882040023804
1630932127399,0.7019170522689819,0.2041966468095779,0.2632683217525482,0.81051105260849
1630932127418,0.7145931720733643,0.1942106187343597,0.2632683217525482,0.806100606918335
1630932127551,0.7140572667121887,0.1850140988826751,0.2632683217525482,0.8031384348869324
1630932127694,0.7027993202209473,0.1743696928024292,0.2632683217525482,0.7997554540634155
1630932127812,0.6891036629676819,0.1614356786012649,0.2632683217525482,0.7969655990600586
1630932127853,0.6826668977737427,0.1517990082502365,0.2632683217525482,0.7982194423675537
1630932127980,0.6889340281486511,0.151226595044136,0.2632683217525482,0.8043563961982727
1630932128031,0.7056418061256409,0.1581594198942184,0.2632683217525482,0.8124204277992249
1630932128227,0.7256518006324768,0.1669993996620178,0.2632683217525482,0.8183538913726807
1630932128280,0.7559667229652405,0.1765885204076767,0.2632683217525482,0.8205112218856812
1630932128339,0.7805695533752441,0.1916002333164215,0.2632683217525482,0.8202179074287415
1630932128482,0.7949090600013733,0.2126772254705429,0.2632683217525482,0.8194476366043091
1630932128601,0.800656795501709,0.2316558808088302,0.2632683217525482,0.8215582370758057
1630932128657,0.8034600615501404,0.2460756599903106,0.2632683217525482,0.8253718018531799
1630932128812,0.8076155185699463,0.2536276578903198,0.2632683217525482,0.8270848393440247
1630932128910,0.8134148716926575,0.259705126285553,0.2632683217525482,0.8237399458885193
1630932128995,0.8188931345939636,0.270705908536911,0.2632683217525482,0.8155228495597839
1630932129039,0.8242789506912231,0.2918884456157684,0.2632683217525482,0.8052287101745605
1630932129147,0.8318070769309998,0.3258191645145416,0.2632683217525482,0.7964922189712524
1630932129256,0.842479407787323,0.3727971315383911,0.2632683217525482,0.7940889000892639
1630932129371,0.8541693687438965,0.4271682798862457,0.2632683217525482,0.8029548525810242
1630932129558,0.8628011345863342,0.4788485467433929,0.2632683217525482,0.8236196041107178
1630932129614,0.8652887344360352,0.519811749458313,0.2632683217525482,0.849040150642395
1630932129694,0.8615767359733582,0.5482328534126282,0.2632683217525482,0.8700653910636902
1630932129781,0.8549442291259766,0.5674532055854797,0.2632683217525482,0.8819044232368469
1630932129937,0.8517043590545654,0.5814539194107056,0.2632683217525482,0.8851142525672913
1630932129959,0.8557811379432678,0.5920619964599609,0.2632683217525482,0.8818221688270569
1630932130158,0.8644624948501587,0.5995693802833557,0.2632683217525482,0.8738142251968384
1630932130197,0.8699658513069153,0.6049054265022278,0.2632683217525482,0.863998532295227
1630932130288,0.867327094078064,0.6089687347412109,0.2632683217525482,0.8566175699234009
1630932130381,0.8592380881309509,0.610759973526001,0.2632683217525482,0.8542096018791199
1630932130474,0.8524016737937927,0.6087913513183594,0.2632683217525482,0.8555139899253845
1630932130695,0.8495013117790222,0.6016093492507935,0.2632683217525482,0.8573212027549744
1630932130740,0.8468136191368103,0.5885686874389648,0.2632683217525482,0.8576105237007141
1630932130811,0.8398362994194031,0.5687878727912903,0.2632683217525482,0.8543457984924316
1630932130902,0.828149676322937,0.541244387626648,0.2632683217525482,0.8424569368362427
1630932131031,0.8169605731964111,0.5072177052497864,0.2632683217525482,0.8172924518585205
1630932131128,0.8132018446922302,0.4721303284168243,0.2632683217525482,0.7809247374534607
1630932131182,0.8190409541130066,0.4428698420524597,0.290486067533493,0.7406013607978821
1630932131316,0.8165519833564758,0.4208540320396423,0.2895567119121551,0.708932638168335
1630932131406,0.812627375125885,0.4001245200634002,0.2978772222995758,0.6898503303527832
1630932131586,0.8028386831283569,0.3751842677593231,0.3076693713665008,0.6791028380393982
1630932131611,0.7872287631034851,0.3500286042690277,0.3143008053302765,0.6738295555114746
1630932131718,0.7720064520835876,0.3329821825027466,0.3179044723510742,0.6743435263633728
1630932131926,0.7641785144805908,0.327339231967926,0.3208769559860229,0.6784607768058777
1630932131976,0.7631695866584778,0.3289147019386291,0.3270410299301147,0.6831601858139038
1630932132112,0.7634349465370178,0.3312333822250366,0.3424310088157654,0.6896922588348389
1630932132185,0.7653238773345947,0.3309748470783233,0.3712701797485351,0.704791784286499
1630932132265,0.7782175540924072,0.3265389800071716,0.412160575389862,0.704791784286499
1630932132380,0.810053825378418,0.3174356520175934,0.4564461410045624,0.704791784286499
1630932132438,0.810053825378418,0.3060013651847839,0.5041205286979675,0.704791784286499
1630932132529,0.810053825378418,0.2963129580020904,0.5467121005058289,0.704791784286499
1630932132729,0.810053825378418,0.2902458608150482,0.561487078666687,0.704791784286499
1630932132781,0.810053825378418,0.2854041457176208,0.5784590840339661,0.704791784286499
1630932132846,0.810053825378418,0.2800236642360687,0.595848798751831,0.704791784286499
1630932132930,0.810053825378418,0.274130254983902,0.6132119297981262,0.704791784286499
1630932132993,0.810053825378418,0.2710598111152649,0.6318697929382324,0.704791784286499
1630932133152,0.810053825378418,0.2706613838672638,0.6538684964179993,0.704791784286499
1630932133312,0.604659914970398,0.2682951092720032,0.6806133985519409,0.704791784286499
1630932133374,0.6303879618644714,0.2596497237682342,0.7126795649528503,0.704791784286499
1630932133456,0.6522632241249084,0.2465413361787796,0.7494758367538452,0.704791784286499
1630932133603,0.6607562899589539,0.2362289726734161,0.7875621318817139,0.704791784286499
1630932133665,0.6578105688095093,0.2350014150142669,0.8210784196853638,0.704791784286499
1630932133852,0.6525837779045105,0.3366466164588928,0.8210784196853638,0.704791784286499
1630932133984,0.6484613418579102,0.3843836784362793,0.8210784196853638,0.704791784286499
1630932134061,0.6453869342803955,0.3890345692634582,0.8210784196853638,0.704791784286499
1630932134116,0.6425618529319763,0.3691560328006744,0.8210784196853638,0.704791784286499
1630932134252,0.6395279169082642,0.3447862565517425,0.8210784196853638,0.7156867384910583
1630932134290,0.6395279169082642,0.3234102129936218,0.8210784196853638,0.6909515857696533
1630932134356,0.6395279169082642,0.3121227920055389,0.8210784196853638,0.6787452101707458
1630932134521,0.6390398740768433,0.3021996319293976,0.8210784196853638,0.6845555305480957
1630932134661,0.6439835429191589,0.2897478938102722,0.8210784196853638,0.7109436392784119
1630932134667,0.6517505645751953,0.2741536498069763,0.8210784196853638,0.7109436392784119
1630932134746,0.6541694402694702,0.2552312016487121,0.8210784196853638,0.7109436392784119
1630932134831,0.6451442241668701,0.2333496809005737,0.8210784196853638,0.7109436392784119
1630932135233,0.6283065676689148,0.2102020829916,0.8210784196853638,0.7109436392784119
1630932135272,0.6133742332458496,0.1882656365633011,0.8210784196853638,0.7556166052818298
1630932135513,0.6085737943649292,0.1697290241718292,0.8210784196853638,0.7908105850219727
1630932135579,0.6086329221725464,0.1054922267794609,0.8210784196853638,0.8108693957328796
1630932135687,0.6086329221725464,0.063285194337368,0.8210784196853638,0.8174747228622437
1630932135900,0.6086329221725464,0.0472199395298957,0.8210784196853638,0.8236216306686401
1630932136140,0.6086329221725464,0.0441949106752872,0.8210784196853638,0.8352085947990417
1630932136177,0.6086329221725464,0.0476043708622455,0.8210784196853638,0.8644545078277588
1630932136181,0.6086329221725464,0.0444319434463977,0.8210784196853638,0.8507512211799622
1630932136220,1.0123403072357178,0.0614826381206512,0.8210784196853638,0.871337890625
1630932136227,0.6086329221725464,0.054685465991497,0.8210784196853638,0.8724342584609985
1630932136260,0.977256178855896,0.2483266741037368,0.8210784196853638,0.9795342087745668
1630932136311,0.977256178855896,0.247781902551651,0.8210784196853638,0.9795342087745668
1630932136315,0.977256178855896,0.2498761415481567,0.8210784196853638,0.9795342087745668
1630932136375,0.977256178855896,0.2562530040740967,0.1157328933477401,0.9795342087745668
1630932136513,0.977256178855896,0.2642830610275268,0.1375797241926193,0.9795342087745668
1630932136690,0.977256178855896,0.2710619270801544,0.1612813621759414,0.9767407178878784
1630932136757,0.977256178855896,0.2759682536125183,0.171489417552948,0.971482276916504
1630932136981,0.977256178855896,0.2803881764411926,0.1674867123365402,0.9713364839553832
1630932137071,0.977256178855896,0.4032802879810333,0.638924777507782,0.982518434524536
1630932137100,0.977256178855896,0.4089120626449585,0.608466625213623,1.004217505455017
1630932137228,0.977256178855896,0.4142247438430786,0.5846452713012695,1.0330263376235962
1630932137273,1.0389196872711182,0.4162875115871429,0.5643791556358337,1.0724433660507202
1630932137314,1.0389196872711182,0.4132076799869537,0.5445883274078369,1.0724433660507202
1630932137462,1.0389196872711182,0.4065234661102295,0.5249952077865601,1.0724433660507202
1630932137513,1.0389196872711182,0.4015188813209533,0.5073463320732117,1.0724433660507202
1630932137763,0.9139904379844666,0.2948731184005737,0.513505756855011,0.7782036662101746
1630932137783,0.8980911374092102,0.3094128370285034,0.5210980176925659,0.7805242538452148
1630932137783,1.0389196872711182,0.2828689217567444,0.5083755850791931,1.0724433660507202
1630932137895,0.8686209917068481,0.3208171129226684,0.5279257297515869,0.7712488770484924
1630932138023,0.8362537026405334,0.3289098739624023,0.531591534614563,0.7610264420509338
1630932138122,0.8085448741912842,0.3361313045024872,0.5331391096115112,0.7575961351394653
1630932138232,0.7893836498260498,0.3434077203273773,0.5364951491355896,0.7610812187194824
1630932138303,0.7801464796066284,0.3481431901454925,0.5441691875457764,0.7662346959114075
1630932138453,0.7790655493736267,0.2106885015964508,0.2632177174091339,0.7674087882041931
1630932138603,0.7813683748245239,0.1995498836040496,0.2765216529369354,0.7637308239936829
1630932138781,0.7823602557182312,0.1819179654121399,0.2786725759506225,0.7590160369873047
1630932138786,0.7799173593521118,0.1622340977191925,0.2726551592350006,0.7583469748497009
1630932138817,0.7739384174346924,0.1437304615974426,0.266517698764801,0.7637423872947693
1630932139018,0.7642393708229065,0.1275355517864227,0.2639976739883423,0.7792625427246094
1630932139106,0.7381162643432617,0.1116823703050613,0.2680096626281738,0.7879877686500549
1630932139353,0.7012374401092529,0.0906801149249076,0.2828510105609894,0.7870339155197144
1630932139405,0.6655998229980469,0.0598603226244449,0.2840775549411773,0.7797779440879822
1630932139602,0.6372761130332947,-0.0050151972100138,0.2783255875110626,0.7713242173194885
1630932139604,0.642967700958252,0.0235768482089042,0.2820523083209991,0.7731722593307495
1630932139607,0.6455305218696594,-0.0189731977880001,0.2747175395488739,0.7763510346412659
1630932145115,0.0,0.0,0.0,0.0
1630932145203,0.0,0.0,0.0,0.0
1630932145289,0.0,0.0,0.0,0.0
1630932145377,0.0,0.0,0.0,0.0
1630932145483,0.0,0.0,0.0,0.0
1630932145627,0.0,0.0,0.0,0.0
1630932145698,0.0,0.0,0.0,0.0
1630932145777,0.0,0.0,0.0,0.0
1630932145869,0.0,0.0,0.0,0.0
1630932145964,0.0,0.0,0.0,0.0
1630932146053,0.0,0.0,0.0,0.0
1630932146206,0.0,0.0,0.0,0.0
1630932146322,0.0,0.0,0.0,0.0
1630932146413,0.0,0.0,0.0,0.0
1630932146504,0.0,0.0,0.0,0.0
1630932146591,0.0,0.0,0.0,0.0
1630932146711,0.0,0.0,0.0,0.0
1630932146814,0.0,0.0,0.0,0.0
1630932146908,0.0,0.0,0.0,0.0
1630932147012,0.0,0.0,0.0,0.0
1630932147155,0.0,0.0,0.0,0.0
1630932147216,0.0,0.0,0.0,0.0
1630932147302,0.5952037572860718,0.0849038511514663,0.4065177142620086,0.6957413554191589
1630932147433,0.6184655427932739,0.0764309093356132,0.4119783639907837,0.7151722311973572
1630932147534,0.6356450915336609,0.0685560554265976,0.4011684060096741,0.7223479151725769
1630932147617,0.645940899848938,0.0614219233393669,0.3817034363746643,0.7159233093261719
1630932147726,0.6506509780883789,0.0553071312606334,0.3623180389404297,0.6998568177223206
1630932147825,0.6540590524673462,0.051864068955183,0.3476250469684601,0.6807458996772766
1630932147914,0.6582653522491455,0.0508345030248165,0.3386271893978119,0.6662150621414185
1630932148044,0.6624259352684021,0.0499752275645732,0.3342917263507843,0.6610609889030457
1630932148137,0.6651816368103027,0.0476544350385665,0.3319838643074035,0.6644183397293091
1630932148253,0.6650137901306152,0.0454603619873523,0.3284151256084442,0.6710624098777771
1630932148317,0.6605083346366882,0.0456258133053779,0.3222072422504425,0.6770930886268616
1630932148423,0.6525046229362488,0.0470940247178077,0.315509170293808,0.6818269491195679
1630932148534,0.6547890901565552,0.0439891256392002,0.3103810250759125,0.6889359951019287
1630932148676,0.6574282050132751,0.0366139411926269,0.3024728298187256,0.6964712142944336
1630932148729,0.6610093712806702,0.027127455919981,0.2878267467021942,0.70386803150177
1630932148830,0.6621625423431396,0.0201624538749456,0.264968603849411,0.711359441280365
1630932148919,0.6585187911987305,0.0166475791484117,0.2407919764518737,0.7200800180435181
1630932149029,0.6527606844902039,0.0136307356879115,0.2267902642488479,0.7306624054908752
1630932149189,0.6492424607276917,0.0089597096666693,0.2266855537891388,0.7417058348655701
1630932149251,0.6484541296958923,0.0013374383561313,0.2343408316373825,0.7550551295280457
1630932149370,0.6470671892166138,-0.0090855499729514,0.2411454916000366,0.7761699557304382
1630932149482,0.646550714969635,-0.0185485184192657,0.2421799600124359,0.8054628372192383
1630932149547,0.6521551609039307,-0.0201933979988098,0.2383305430412292,0.8339231610298157
1630932149631,0.6648032069206238,-0.0058577628806233,0.2354664057493209,0.8506494164466858
1630932149742,0.6795843839645386,0.0255443006753921,0.2383205294609069,0.8522008061408997
1630932149871,0.6930620670318604,0.0656150057911872,0.245629608631134,0.8423111438751221
1630932149980,0.7067339420318604,0.1025168895721435,0.2512637972831726,0.8275412321090698
1630932150056,0.7222720980644226,0.1287572234869003,0.2510794997215271,0.8118492364883423
1630932150143,0.7373626828193665,0.1438673287630081,0.2472636997699737,0.7953179478645325
1630932150232,0.7480602264404297,0.1519311964511871,0.2449187338352203,0.7759259343147278
1630932150322,0.7543361186981201,0.1594586819410324,0.2479370832443237,0.7513387203216553
1630932150486,0.7589245438575745,0.1723550111055374,0.256441593170166,0.7216510772705078
1630932150577,0.7644271850585938,0.1937357932329177,0.2667080760002136,0.690289318561554
1630932150663,0.7713125348091125,0.220375508069992,0.2755476832389831,0.6610215902328491
1630932150750,0.7785303592681885,0.2455541342496872,0.2850874364376068,0.6321563124656677
1630932150863,0.7841479778289795,0.2639149129390716,0.301194280385971,0.5936711430549622
1630932150953,0.7857208847999573,0.2740776836872101,0.3247835636138916,0.534804105758667
1630932151103,0.7823575139045715,0.2781127989292145,0.3480024039745331,0.4564188122749328
1630932151200,0.7778329253196716,0.2767198085784912,0.3614137172698974,0.3791973292827606
1630932151284,0.7721853256225586,0.2690531313419342,0.3645066022872925,0.33270263671875
1630932151353,0.7703559994697571,0.2548804879188537,0.364969938993454,0.3317357301712036
1630932151466,0.7516254782676697,0.2382215708494186,0.3687353134155273,0.3682844936847687
1630932151555,0.7243041396141052,0.2251986861228943,0.3744654357433319,0.4248547554016113
1630932151685,0.6923703551292419,0.2253353148698806,0.3776131868362427,0.4854533076286316
1630932151802,0.6657381653785706,0.2332230359315872,0.378303050994873,0.5393857955932617
1630932151889,0.650875985622406,0.2420646846294403,0.3810250759124756,0.5836400389671326
1630932151982,0.6437572836875916,0.2448057532310485,0.3899356722831726,0.620280921459198
1630932152073,0.6339921951293945,0.2367098182439804,0.4037472903728485,0.6518262624740601
1630932152157,0.6191452145576477,0.2280956506729126,0.4171056449413299,0.679512083530426
1630932152297,0.5975936055183411,0.2185016274452209,0.4235217869281769,0.7040225863456726
1630932152383,0.5751897096633911,0.2093642503023147,0.4190412759780884,0.7276074290275574
1630932152484,0.5538915395736694,0.2002428472042083,0.4056679308414459,0.7515749335289001
1630932152629,0.5250259041786194,0.1886018067598343,0.391810804605484,0.7747398614883423
1630932152675,0.5250259041786194,0.1735276281833648,0.3870569765567779,0.7941086888313293
1630932152781,0.5250259041786194,0.1556864380836486,0.3940380811691284,0.8091059327125549
1630932152902,0.5250259041786194,0.1373149752616882,0.4066011011600494,0.8206916451454163
1630932153002,0.6299837231636047,0.1196020692586898,0.4182904362678528,0.8269563317298889
1630932153104,0.7002634406089783,0.104700930416584,0.4280695915222168,0.8239963054656982
1630932153210,0.7378222942352295,0.0959309041500091,0.4387595355510711,0.8130069375038147
1630932153330,0.7578701376914978,0.087283469736576,0.4502006471157074,0.8031565546989441
1630932153385,0.772708535194397,0.0799042880535125,0.4570574164390564,0.8020543456077576
1630932153526,0.7867707014083862,0.0756013169884681,0.4533746242523193,0.807473361492157
1630932153613,0.8087613582611084,0.0757791996002197,0.4408027827739715,0.8125459551811218
1630932153699,0.8197999000549316,0.0602184534072876,0.4292120039463043,0.8142182230949402
1630932153806,0.8393474221229553,0.0536822415888309,0.4270610213279724,0.8122448325157166
1630932153899,0.8570367097854614,0.0635230839252471,0.4333290159702301,0.8052272796630859
1630932154000,0.8652135133743286,0.0864478945732116,0.4403580129146576,0.7921931147575378
1630932154153,0.8629475235939026,0.1106688305735588,0.4419249594211578,0.7763632535934448
1630932154244,0.8537194728851318,0.1260082870721817,0.4361189603805542,0.7619423270225525
1630932154325,0.841536819934845,0.1312592923641204,0.4231700301170349,0.7487015724182129
1630932154437,0.8291938304901123,0.1320115029811859,0.4052408337593078,0.7336744070053101
1630932154505,0.8079540729522705,0.1340962052345276,0.3866313993930816,0.7183054089546204
1630932154625,0.7989367842674255,0.1376398652791977,0.3706474602222442,0.7102735042572021
1630932154763,0.8051303625106812,0.1398492753505706,0.356852114200592,0.7133635878562927
1630932154847,0.8210408091545105,0.1394662410020828,0.3447474241256714,0.7194810509681702
1630932154933,0.8389931321144104,0.1381930112838745,0.3372913300991058,0.7176944017410278
1630932155024,0.8537560701370239,0.1387839019298553,0.3372345268726349,0.7054831385612488
1630932155118,0.8595075011253357,0.1417483985424041,0.340230792760849,0.6893283128738403
1630932155248,0.8572384715080261,0.1446644067764282,0.3367609083652496,0.6769884824752808
1630932155329,0.8471834063529968,0.1432027220726013,0.3221084177494049,0.6719772219657898
1630932155425,0.8328192234039307,0.1344878226518631,0.2997663915157318,0.6742366552352905
1630932155520,0.8216859698295593,0.1187938153743743,0.2770046293735504,0.681985080242157
1630932155648,0.8201027512550354,0.1026295274496078,0.2592003941535949,0.692102313041687
1630932155715,0.829552173614502,0.0927411839365959,0.248209148645401,0.70418781042099
1630932155845,0.8482632040977478,0.0907646343111991,0.2436080276966095,0.7212504148483276
1630932155939,0.9169118404388428,0.091852568089962,0.2439495474100113,0.7452258467674255
1630932156070,0.9808301329612732,0.0913335382938385,0.2459298968315124,0.772677481174469
1630932156139,1.0257928371429443,0.0912915244698524,0.2456947118043899,0.7963414192199707
1630932156255,1.0504889488220217,0.0980826318264007,0.2449861317873001,0.8116610646247864
1630932156338,1.0592130422592163,0.1161521896719932,0.2500371634960174,0.8198334574699402
1630932156429,1.0586681365966797,0.1427327394485473,0.2603059411048889,0.8262871503829956
1630932156567,1.0547192096710205,0.1674149334430694,0.2760392725467682,0.8366691470146179
1630932156665,1.0524728298187256,0.1674149334430694,0.2943974137306213,0.851719319820404
1630932156742,1.0303810834884644,0.1674149334430694,0.310235857963562,0.8672714829444885
1630932156855,1.008102536201477,0.1674149334430694,0.3191314339637756,0.8798898458480835
1630932156949,0.9858416318893432,0.1674149334430694,0.3218939900398254,0.8898987174034119
1630932157052,0.9632990956306458,0.1674149334430694,0.3245376050472259,0.8999859094619751
1630932157220,0.94197815656662,0.1674149334430694,0.3311882615089416,0.9108636975288392
1630932157281,0.9248767495155334,0.217517614364624,0.3395068347454071,0.9195218086242676
1630932157403,0.914012849330902,0.1981394290924072,0.3432695865631103,0.9217791557312012
1630932157459,0.887266218662262,0.1898217052221298,0.3395404517650604,0.915022313594818
1630932157551,0.8549182415008545,0.1840344071388244,0.331422746181488,0.8990869522094727
1630932157637,0.8217973709106445,0.1739327013492584,0.3207997679710388,0.8766933679580688
1630932157772,0.7905228734016418,0.1583754271268844,0.3207997679710388,0.8517357110977173
1630932157909,0.7644124031066895,0.1400800049304962,0.3208240270614624,0.8278141021728516
1630932157973,0.7472801804542542,0.1227967217564582,0.3138120472431183,0.8064539432525635
1630932158080,0.7418845295906067,0.1094702929258346,0.2955028414726257,0.787874162197113
1630932158163,0.7313690185546875,0.1002969816327095,0.2658048570156097,0.773074209690094
1630932158241,0.7260023951530457,0.0935336053371429,0.2317291796207428,0.7648407220840454
1630932158408,0.725725531578064,0.0870650708675384,0.2057099342346191,0.7640476822853088
1630932158490,0.7311058044433594,0.0630720257759094,0.1949433833360672,0.7653064727783203
1630932158583,0.7436666488647461,0.0451712235808372,0.1926192790269851,0.7596338391304016
1630932158687,0.76137375831604,0.0434935130178928,0.1854573488235473,0.7424999475479126
1630932158766,0.7630459666252136,0.0562472753226757,0.1657991111278534,0.7184553146362305
1630932158854,0.744907796382904,0.0727531760931015,0.1682195365428924,0.6961599588394165
1630932159013,0.711679220199585,0.0843733698129654,0.2041081637144088,0.681088387966156
1630932159132,0.6976943612098694,0.0891019254922866,0.2486215531826019,0.6741602420806885
1630932159206,0.6882835626602173,0.0920851677656173,0.2816183865070343,0.6757175326347351
1630932159292,0.6866634488105774,0.1013434454798698,0.2954417169094085,0.6854485869407654
1630932159380,0.6802326440811157,0.1192444860935211,0.3235978186130523,0.7008066177368164
1630932159482,0.6431873440742493,0.1398885846138,0.354615181684494,0.7200840711593628
1630932159607,0.6431873440742493,0.1550613045692443,0.3748925328254699,0.7417687773704529
1630932159713,0.6431873440742493,0.1617892831563949,0.3805177211761474,0.7615352869033813
1630932159832,0.6431873440742493,0.1617914885282516,0.3805177211761474,0.7744144201278687
1630932159899,0.6431873440742493,0.1576496064662933,0.3805177211761474,0.7798933386802673
1630932159988,0.6431873440742493,0.1494807749986648,0.3805177211761474,0.7825428247451782
1630932160079,0.6431873440742493,0.135847806930542,0.3805177211761474,0.7875093221664429
1630932160216,0.6431873440742493,0.1163860037922859,0.3805177211761474,0.7954628467559814
1630932160346,0.6431873440742493,0.091609425842762,0.3725615441799164,0.8035764694213867
1630932160407,0.6431873440742493,0.0624879859387874,0.3700774610042572,0.809649646282196
1630932160502,0.6431873440742493,0.0326266251504421,0.360626220703125,0.8130456805229187
1630932160589,0.6431873440742493,0.0083544999361038,0.3555422723293304,0.8145822882652283
1630932160679,0.6431873440742493,-0.0064406148158013,0.3618543148040771,0.8157908916473389
1630932160836,0.6431873440742493,-0.0152905853465199,0.3724992573261261,0.8163041472434998
1630932160933,0.6431873440742493,-0.0217829663306474,0.3738509118556976,0.8123975992202759
1630932161070,0.6431873440742493,-0.0254244543612003,0.3601242899894714,0.7982327938079834
1630932161139,0.6431873440742493,-0.0238738562911748,0.337554007768631,0.7703967690467834
1630932161215,0.6431873440742493,-0.018128527328372,0.3171506524085998,0.7328968048095703
1630932161309,0.6431873440742493,-0.0108159203082323,0.3081462383270263,0.6962531208992004
1630932161449,0.6041252017021179,-0.0010318915592506,0.3021289408206939,0.668543815612793
1630932161535,0.5788902640342712,0.0126598319038748,0.2986492812633514,0.6507999897003174
1630932161622,0.563293993473053,0.0279089584946632,0.2973491251468658,0.6405131816864014
1630932161710,0.5610799789428711,0.0390359982848167,0.3000579178333282,0.6378906965255737
1630932161824,0.5675644278526306,0.043372094631195,0.3090797662734985,0.642381489276886
1630932161931,0.5757096409797668,0.0443672239780426,0.3276609778404236,0.6491089463233948
1630932162053,0.5821775197982788,0.0464563444256782,0.346094936132431,0.653371274471283
1630932162181,0.5887387990951538,0.0499416962265968,0.3531761169433594,0.6530687808990479
1630932162251,0.597353994846344,0.0497517064213752,0.3441569209098816,0.6474563479423523
1630932162338,0.6082170009613037,0.0411281436681747,0.3232732117176056,0.638535737991333
1630932162441,0.6221757531166077,0.0238556172698736,0.3003676831722259,0.6327459216117859
1630932162518,0.641391932964325,0.004570719320327,0.2850620448589325,0.636183500289917
1630932162671,0.6653023958206177,-0.008600796572864,0.281140923500061,0.6465840339660645
1630932162766,0.6899157166481018,-0.0119647895917296,0.2868834733963012,0.6543439030647278
1630932162852,0.7118726968765259,-0.0063606989569962,0.2972078025341034,0.6513998508453369
1630932162954,0.7294358611106873,0.0037701649125665,0.3076838850975036,0.6380811333656311
1630932163052,0.7421756982803345,0.0137321697548031,0.3154870271682739,0.6228005886077881
1630932163148,0.7492547035217285,0.0205903891474008,0.3189274370670318,0.6146108508110046
1630932163284,0.7505113482475281,0.026395684108138,0.3153268992900848,0.6142650842666626
1630932163370,0.7484380006790161,0.0363860130310058,0.3018801510334015,0.6167941689491272
1630932163481,0.7460805177688599,0.0504669249057769,0.2793366014957428,0.6191386580467224
1630932163574,0.743821918964386,0.0631823018193245,0.2555897831916809,0.6234432458877563
1630932163657,0.7392773032188416,0.0700068920850753,0.243005096912384,0.6334261298179626
1630932163743,0.7304489016532898,0.0741768926382064,0.2465580254793167,0.6478726267814636
1630932163882,0.7173449993133545,0.0833102315664291,0.2587122917175293,0.6615614891052246
1630932163968,0.6995028853416443,0.0996210724115371,0.2687240540981293,0.6691507697105408
1630932164082,0.6746273636817932,0.1155760884284973,0.2718631029129028,0.6689882874488831
1630932164172,0.6420395970344543,0.1227413937449455,0.2699002921581268,0.665687084197998
1630932164256,0.6049684286117554,0.1190566346049308,0.2656408846378326,0.6670685410499573
1630932164352,0.5690969824790955,0.1084625795483589,0.2609276473522186,0.6764709949493408
1630932164507,0.5391040444374084,0.0970558896660804,0.258909672498703,0.6904086470603943
1630932164598,0.5184857249259949,0.089635469019413,0.2625657021999359,0.7018125653266907
1630932164681,0.5093690156936646,0.0888081416487693,0.2691227495670318,0.7066618204116821
1630932164770,0.5112787485122681,0.0931522473692894,0.2682404816150665,0.7064816355705261
1630932164869,0.5217576026916504,0.0979465544223785,0.2719314098358154,0.705509603023529
1630932164954,0.5374770164489746,0.1000539362430572,0.2808161973953247,0.7064386010169983
1630932165113,0.554539680480957,0.1000208705663681,0.2930082082748413,0.7076218724250793
1630932165204,0.5697042942047119,0.1012062355875969,0.2862950265407562,0.7056086659431458
1630932165291,0.583489716053009,0.1045970618724823,0.2755022644996643,0.6996195316314697
1630932165413,0.5973178148269653,0.1065767556428909,0.2618061006069183,0.6930699944496155
1630932165489,0.6104702353477478,0.1032967641949653,0.2499673515558242,0.6909735798835754
1630932165585,0.6195181608200073,0.0952459126710891,0.2416374832391739,0.6959051489830017
1630932165721,0.624259889125824,0.0872300714254379,0.2313914895057678,0.7055286169052124
1630932165836,0.6307855248451233,0.0833630934357643,0.2133642137050628,0.7152752876281738
1630932165907,0.6451738476753235,0.0835496336221695,0.186100885272026,0.7217839360237122
1630932166014,0.6668990850448608,0.0852579697966575,0.1503111571073532,0.7230729460716248
1630932166127,0.6892116069793701,0.0863865241408348,0.1095601916313171,0.7185618281364441
1630932166205,0.7053310871124268,0.0860136821866035,0.0766910910606384,0.7088462710380554
1630932166321,0.7120611071586609,0.0843513160943985,0.0977453514933586,0.6963117718696594
1630932166404,0.7083702087402344,0.0819202437996864,0.1215313524007797,0.6844503879547119
1630932166551,0.6953109502792358,0.0789404436945915,0.1434642523527145,0.6768628358840942
1630932166606,0.6773546934127808,0.0763031691312789,0.1629801988601684,0.6749417185783386
1630932166700,0.6600371599197388,0.0741980597376823,0.1882374137639999,0.6750245094299316
1630932166791,0.6447058916091919,0.0725161656737327,0.2108193784952163,0.6705147624015808
1630932166947,0.6298843026161194,0.0730823799967765,0.2291399985551834,0.6567244529724121
1630932167030,0.6156898736953735,0.0785597413778305,0.243772953748703,0.6337717771530151
1630932167128,0.6043550968170166,0.08921929448843,0.2583777606487274,0.6056954860687256
1630932167216,0.5947867035865784,0.10203318297863,0.2757909595966339,0.5777541995048523
1630932167304,0.5802145004272461,0.1141471788287162,0.2931780219078064,0.5551207661628723
1630932167413,0.5547805428504944,0.1238792240619659,0.3053222894668579,0.5417227149009705
1630932167580,0.5180760622024536,0.1282896548509597,0.3089340031147003,0.5394377708435059
1630932167641,0.4749167561531067,0.1240327507257461,0.3035814762115478,0.5476549863815308
1630932167730,0.432812362909317,0.1108831912279129,0.2902083396911621,0.5641759037971497
1630932167820,0.3981693387031555,0.0925059765577316,0.2697104811668396,0.5849124193191528
1630932167948,0.3750016689300537,0.073664978146553,0.2433970868587494,0.6028833985328674
1630932168018,0.3608339428901672,0.0708167254924774,0.2338919341564178,0.6111971735954285
1630932168152,0.3511160612106323,0.0701999738812446,0.2212876379489898,0.6083410978317261
1630932168265,0.3434325158596039,0.0725274980068206,0.2032161504030227,0.6028125286102295
1630932168355,0.336784690618515,0.0751241892576217,0.1791268438100814,0.6037019491195679
1630932168452,0.3301247656345367,0.0718148797750473,0.152937650680542,0.6164376735687256
1630932168536,0.3211793005466461,0.0559060163795948,0.1262669563293457,0.640211284160614
1630932168621,0.3093500137329101,0.025897953659296,0.0917434468865394,0.6696993708610535
1630932168753,0.2980318367481231,-0.014089798554778,0.0377505384385585,0.6994742155075073
1630932168871,0.2937376201152801,-0.0602145381271839,-0.0392118692398071,0.7251545190811157
1630932168965,0.2987034618854522,-0.1160439103841781,-0.1268881261348724,0.7442386150360107
1630932169060,0.3089281618595123,-0.1853201389312744,-0.2007867097854614,0.7560350298881531
1630932169171,0.3089281618595123,-0.1853201389312744,-0.2007867097854614,0.7599578499794006
1630932169252,0.3089281618595123,-0.1853201389312744,-0.2007867097854614,0.7541170716285706
1630932169360,0.3089281618595123,-0.1853201389312744,-0.2007867097854614,0.7541170716285706
1630932169498,0.3089281618595123,-0.1853201389312744,-0.2007867097854614,0.7541170716285706
1630932169562,0.3089281618595123,-0.1853201389312744,-0.2007867097854614,0.7541170716285706
1630932169671,0.3089281618595123,-0.1853201389312744,-0.2007867097854614,0.7541170716285706
1630932169763,0.3089281618595123,-0.1853201389312744,-0.2007867097854614,0.7541170716285706
1630932169855,0.3089281618595123,-0.1853201389312744,-0.2007867097854614,0.7541170716285706
1630932169994,0.3089281618595123,-0.1853201389312744,-0.2007867097854614,0.7541170716285706
1630932170071,0.3089281618595123,-0.1853201389312744,-0.2007867097854614,0.7541170716285706
1630932170162,0.3089281618595123,-0.1853201389312744,-0.2007867097854614,0.7541170716285706
1630932170266,0.3089281618595123,-0.1853201389312744,-0.2007867097854614,0.7541170716285706
1630932170365,0.3089281618595123,-0.1853201389312744,-0.2007867097854614,0.7541170716285706
1630932170478,0.3089281618595123,-0.1853201389312744,-0.2007867097854614,0.7541170716285706
1630932170593,0.3089281618595123,0.681068480014801,-0.2007867097854614,0.7541170716285706
1630932170680,0.3089281618595123,0.6677191853523254,-0.2007867097854614,0.7541170716285706
1630932170766,0.3089281618595123,0.6551637649536133,-0.2007867097854614,0.7541170716285706
1630932170862,0.3089281618595123,0.6439875364303589,-0.2007867097854614,0.7541170716285706
1630932171037,0.3089281618595123,0.6340739727020264,-0.2007867097854614,0.7541170716285706
1630932171058,0.3089281618595123,0.626141369342804,-0.2007867097854614,0.7541170716285706
1630932171217,0.3089281618595123,0.6206684112548828,-0.2007867097854614,0.7541170716285706
1630932171317,0.3089281618595123,0.6206684112548828,-0.2007867097854614,0.7541170716285706
1630932171376,0.3089281618595123,0.6206684112548828,-0.2007867097854614,0.7541170716285706
1630932171459,0.3089281618595123,0.6206684112548828,-0.2007867097854614,0.7541170716285706
1630932171581,0.3089281618595123,0.6143190860748291,-0.2007867097854614,0.7541170716285706
1630932171670,0.3089281618595123,0.6143190860748291,-0.2007867097854614,0.7541170716285706
1630932171821,0.3089281618595123,0.6143190860748291,-0.2007867097854614,0.7541170716285706
1630932171888,0.3089281618595123,0.601830005645752,-0.2007867097854614,0.7541170716285706
1630932171995,0.3089281618595123,0.5869808197021484,-0.2007867097854614,0.7541170716285706
1630932172095,0.3089281618595123,0.5751643776893616,-0.2007867097854614,0.7541170716285706
1630932172199,0.3089281618595123,0.5678938031196594,-0.2007867097854614,0.7541170716285706
1630932172284,0.3089281618595123,0.5631713271141052,-0.2007867097854614,0.7541170716285706
1630932172434,0.3089281618595123,0.5631713271141052,-0.2007867097854614,0.7541170716285706
1630932172511,0.3089281618595123,0.5631713271141052,-0.2007867097854614,0.7541170716285706
1630932172598,0.3089281618595123,0.5631713271141052,-0.2007867097854614,0.7541170716285706
1630932172717,0.3089281618595123,0.5631713271141052,-0.2007867097854614,0.7541170716285706
1630932172799,0.3089281618595123,0.5631713271141052,-0.2007867097854614,0.7541170716285706
1630932172873,0.3089281618595123,0.5631713271141052,-0.2007867097854614,0.7541170716285706
1630932173045,0.3089281618595123,0.5631713271141052,-0.2007867097854614,0.7541170716285706
1630932173138,0.3089281618595123,0.5631713271141052,-0.2007867097854614,0.7541170716285706
1630932173206,0.3089281618595123,0.5631713271141052,-0.2007867097854614,0.7541170716285706
1630932173292,0.3089281618595123,0.5631713271141052,-0.2007867097854614,0.7541170716285706
1630932173389,0.3089281618595123,0.5631713271141052,-0.2007867097854614,0.7541170716285706
1630932173494,0.3089281618595123,0.5631713271141052,-0.2007867097854614,0.7541170716285706
1630932173635,0.3089281618595123,0.5631713271141052,-0.2007867097854614,0.7541170716285706
1630932173725,0.3089281618595123,0.5631713271141052,-0.2007867097854614,0.7541170716285706
1630932173835,0.3089281618595123,0.5631713271141052,-0.2007867097854614,0.7541170716285706
1630932173948,0.3089281618595123,0.5631713271141052,-0.2007867097854614,0.7541170716285706
1630932174040,0.3089281618595123,0.5631713271141052,-0.2007867097854614,0.7541170716285706
1630932174108,0.3089281618595123,0.5631713271141052,-0.2007867097854614,0.7541170716285706
1630932174264,0.3089281618595123,0.5631713271141052,-0.2007867097854614,0.7541170716285706
1630932174356,0.3089281618595123,0.5631713271141052,-0.2007867097854614,0.7541170716285706
1630932174422,0.3089281618595123,0.5631713271141052,-0.2007867097854614,0.7541170716285706
1630932174550,0.3089281618595123,0.5631713271141052,-0.2007867097854614,0.7541170716285706
1630932174670,0.3089281618595123,0.5631713271141052,-0.2007867097854614,0.7541170716285706
1630932174733,0.3089281618595123,0.5631713271141052,-0.2007867097854614,0.7541170716285706
1630932174904,0.3089281618595123,0.4792201817035675,-0.2007867097854614,0.7541170716285706
1630932174949,0.3089281618595123,0.4744205176830292,-0.2007867097854614,1.0364561080932615
1630932175076,0.3089281618595123,0.4623107612133026,-0.2007867097854614,1.0703561305999756
1630932175155,0.3089281618595123,0.4480807781219482,-0.2007867097854614,1.0760068893432615
1630932175224,0.3089281618595123,0.4320595264434814,-0.2007867097854614,1.0621010065078735
1630932175332,0.3089281618595123,0.4146550893783569,-0.2007867097854614,1.0459827184677124
1630932175469,0.3089281618595123,0.397412359714508,-0.2007867097854614,1.0424628257751465
1630932175555,0.3089281618595123,0.381282240152359,-0.2007867097854614,1.0523501634597778
1630932175649,0.3089281618595123,0.3652663230895996,-0.2007867097854614,1.0523501634597778
1630932175763,0.3089281618595123,0.3477570712566376,-0.2007867097854614,1.0523501634597778
1630932175844,0.3089281618595123,0.3292894959449768,-0.2007867097854614,1.0523501634597778
1630932175940,0.3089281618595123,0.3117011487483978,-0.2007867097854614,1.0523501634597778
1630932176091,0.3089281618595123,0.2848122715950012,-0.2007867097854614,1.0523501634597778
1630932176183,0.3089281618595123,0.2534539997577667,-0.2007867097854614,1.0678125619888306
1630932176273,0.3089281618595123,0.2130801528692245,0.123276837170124,1.0801876783370972
1630932176364,0.3089281618595123,0.1679604798555374,0.1370371431112289,1.080202579498291
1630932176447,0.3089281618595123,0.1252703219652176,0.169638380408287,1.0626319646835327
1630932176546,0.3089281618595123,0.0864444449543953,0.1970145106315612,1.0335652828216553
1630932176695,0.3089281618595123,0.0513691455125808,0.2074235528707504,1.0142580270767212
1630932176787,0.3089281618595123,0.0262016505002975,0.2055631279945373,1.0142580270767212
1630932176879,0.3089281618595123,0.0172563791275024,0.205276757478714,1.0142580270767212
1630932176973,0.3089281618595123,0.0212798938155174,0.2155844569206237,1.0142580270767212
1630932177060,0.3089281618595123,0.0287947990000247,0.2364943474531173,1.0142580270767212
1630932177163,0.3089281618595123,0.0354588963091373,0.2617597281932831,1.0142580270767212
1630932177298,0.3089281618595123,0.0449185110628604,0.2860132753849029,1.0142580270767212
1630932177381,0.3089281618595123,0.0615091919898986,0.3083426654338836,1.0142580270767212
1630932177501,0.3089281618595123,0.0827828347682952,0.3323034048080444,1.0142580270767212
1630932177592,0.3089281618595123,0.1032350361347198,0.3595591187477112,1.0142580270767212
1630932177688,0.3089281618595123,0.1178971976041793,0.3846092820167541,1.0142580270767212
1630932177768,0.3089281618595123,0.1254665255546569,0.4047491550445556,1.0142580270767212
1630932177927,0.3089281618595123,0.1290731430053711,0.4198305904865265,1.0142580270767212
1630932177995,0.3089281618595123,0.1340868026018142,0.4300044775009155,1.0142580270767212
1630932178086,0.3089281618595123,0.1421902477741241,0.435434877872467,1.0142580270767212
1630932178197,0.3089281618595123,0.1545851379632949,0.4375219941139221,1.0142580270767212
1630932178312,0.3089281618595123,0.163506805896759,0.4372861683368683,1.0142580270767212
1630932178373,0.3089281618595123,0.1643442064523697,0.4337784051895141,1.0142580270767212
1630932178515,0.3089281618595123,0.1438050717115402,0.4243573248386383,1.0142580270767212
1630932178617,0.3089281618595123,0.1200029999017715,0.4077019393444061,1.0142580270767212
1630932178688,0.3089281618595123,0.0988056436181068,0.385669469833374,1.0142580270767212
1630932178801,0.3089281618595123,0.0802060589194297,0.3744744062423706,1.0142580270767212
1630932178897,0.3089281618595123,0.0579255186021328,0.3466515243053436,1.0142580270767212
1630932178973,0.3089281618595123,0.0274757631123065,0.3151413202285766,1.0142580270767212
1630932179116,0.3089281618595123,-0.0099619599059224,0.2818480432033539,1.0142580270767212
1630932179231,0.3089281618595123,-0.0451025813817977,0.2517179250717163,1.0142580270767212
1630932179344,0.3089281618595123,-0.0690096318721771,0.2248420268297195,1.0142580270767212
1630932179412,0.3089281618595123,-0.0808486491441726,0.197456806898117,1.0142580270767212
1630932179501,0.3089281618595123,-0.0902356877923011,0.1673267930746078,1.0142580270767212
1630932179603,0.3089281618595123,-0.1040043160319328,0.1380515098571777,1.0142580270767212
1630932179712,0.3089281618595123,-0.1024615690112114,0.1159707903861999,1.0142580270767212
1630932179835,0.3089281618595123,-0.1030785366892814,0.1048887819051742,1.0142580270767212
1630932179915,0.3089281618595123,-0.1025340259075164,0.1037810742855072,1.0142580270767212
1630932180038,0.3089281618595123,-0.1036873459815979,0.1113686338067054,0.5324407815933228
1630932180118,0.3089281618595123,-0.1013591513037681,0.125331237912178,0.5747874975204468
1630932180194,0.3089281618595123,-0.0979537740349769,0.1408010125160217,0.6051708459854126
1630932180348,0.3089281618595123,-0.0924421921372413,0.1490191966295242,0.6262797117233276
1630932180462,0.3089281618595123,-0.0777055844664573,0.1505519300699234,0.6410143971443176
1630932180545,0.3089281618595123,-0.0486997105181217,0.1449468433856964,0.6514177918434143
1630932180639,0.3089281618595123,-0.0109411561861634,0.134955033659935,0.6588862538337708
1630932180722,0.3089281618595123,0.0228287633508443,0.1220221519470214,0.6637137532234192
1630932180790,0.3089281618595123,0.044534720480442,0.1062069684267044,0.6637137532234192
1630932180979,0.3089281618595123,0.0537238232791423,0.0887108668684959,0.6637137532234192
1630932181040,0.3089281618595123,0.0571864321827888,0.0750834196805954,0.6637137532234192
1630932181125,0.3089281618595123,0.0615290850400924,0.069874957203865,0.6637137532234192
1630932181224,0.3089281618595123,0.0696715041995048,0.0695458501577377,0.6824869513511658
1630932181326,0.3089281618595123,0.0801108106970787,0.0653094425797462,0.7024492621421814
1630932181414,0.3089281618595123,0.0910561978816986,0.050790324807167,0.7169931530952454
1630932181575,0.3089281618595123,0.1009752079844474,0.0260329693555831,0.7240573763847351
1630932181665,0.3089281618595123,0.1108421087265014,-0.0059696156531572,0.7260316014289856
1630932181780,0.3089281618595123,0.1038154438138008,-0.0411653257906436,0.724914014339447
1630932181840,0.3089281618595123,0.0964713394641876,-0.0721005424857139,0.7223383188247681
1630932181979,0.3089281618595123,0.0820112079381942,-0.0887167602777481,0.7223383188247681
1630932182041,0.3089281618595123,0.0533834397792816,-0.0837224945425987,0.7223383188247681
1630932182198,0.3089281618595123,0.0135870901867747,-0.0596217028796672,0.7223383188247681
1630932182270,0.3089281618595123,-0.0195104889571666,-0.028572803363204,0.7223383188247681
1630932182387,0.3089281618595123,-0.0275688935071229,-0.0036280155181884,0.7223383188247681
1630932182467,0.3089281618595123,-0.0119113335385918,0.0071631362661719,0.7223383188247681
1630932182535,0.3089281618595123,0.0080073773860931,0.0020161017309874,0.7223383188247681
1630932182634,0.3089281618595123,0.0178698543459177,-0.0137175153940916,0.7223383188247681
1630932182761,0.3089281618595123,0.0177303161472082,-0.0281844865530729,0.7223383188247681
1630932182880,0.3089281618595123,0.0228383671492338,-0.0297449864447116,0.7223383188247681
1630932182955,0.3089281618595123,0.0354934819042682,-0.0142300808802247,0.7223383188247681
1630932183048,0.3089281618595123,0.0553958714008331,0.0121655892580747,0.7223383188247681
1630932183165,0.3089281618595123,0.075433999300003,0.0377605892717838,0.7223383188247681
1630932183250,0.3089281618595123,0.1000599116086959,0.0556365065276622,0.7223383188247681
1630932183388,0.3089281618595123,0.1118713840842247,0.0652008801698684,0.7223383188247681
1630932183487,0.3089281618595123,0.123844988644123,0.0697871819138526,0.7223383188247681
1630932183569,0.3089281618595123,0.1374623328447342,0.0697438642382621,0.7223383188247681
1630932183685,0.3089281618595123,0.1528656333684921,0.0658016949892044,0.7223383188247681
1630932183785,0.3089281618595123,0.1665198802947998,0.0677663758397102,0.7223383188247681
1630932183865,0.3089281618595123,0.174530029296875,0.098362423479557,0.7223383188247681
1630932183998,0.3089281618595123,0.1769643723964691,0.1743060797452926,0.7223383188247681
1630932184084,0.3089281618595123,0.1795133203268051,0.2799944579601288,0.7223383188247681
1630932184185,0.3089281618595123,0.2222931087017059,0.3813464939594269,0.7223383188247681
1630932184264,0.3089281618595123,0.2427950650453567,0.4553889036178589,0.7223383188247681
1630932184366,0.3089281618595123,0.254705548286438,0.4992631077766418,0.7223383188247681
1630932184454,0.3089281618595123,0.2659204006195068,0.5184994339942932,0.7223383188247681
1630932184593,0.3089281618595123,0.2742122113704681,0.5369038581848145,0.7223383188247681
1630932184704,0.3089281618595123,0.2760801613330841,0.5567410588264465,0.7223383188247681
1630932184794,0.3089281618595123,0.2809098362922668,0.5804196000099182,0.7223383188247681
1630932184884,0.3089281618595123,0.2809098362922668,0.6089583039283752,0.7223383188247681
1630932184997,0.3089281618595123,0.2809098362922668,0.6418513059616089,0.7223383188247681
1630932185080,0.3089281618595123,0.2809098362922668,0.6791425347328186,0.7223383188247681
1630932185197,0.3089281618595123,0.2809098362922668,0.7213512659072876,0.7223383188247681
1630932185311,0.3089281618595123,0.2809098362922668,0.7674522995948792,0.7223383188247681
1630932185418,0.3089281618595123,0.2809098362922668,0.8112991452217102,0.7223383188247681
1630932185493,0.3089281618595123,0.2809098362922668,0.8406445980072021,0.7223383188247681
1630932185620,0.3089281618595123,0.2809098362922668,0.8406445980072021,0.7223383188247681
1630932185669,0.3089281618595123,0.2588100433349609,0.8406445980072021,0.7223383188247681
1630932185826,0.3089281618595123,0.2649484574794769,0.8406445980072021,0.7223383188247681
1630932185913,0.3089281618595123,0.2649484574794769,0.8406445980072021,0.7223383188247681
1630932186031,0.3089281618595123,0.2649484574794769,0.8406445980072021,0.7223383188247681
1630932186114,0.3089281618595123,0.2649484574794769,0.8406445980072021,0.7223383188247681
1630932186202,0.3089281618595123,0.2649484574794769,0.8406445980072021,0.7223383188247681
1630932186316,0.3089281618595123,0.2649484574794769,0.8406445980072021,0.7223383188247681
1630932186472,0.3089281618595123,0.2649484574794769,0.8406445980072021,0.7223383188247681
1630932186554,0.3089281618595123,0.2649484574794769,0.8406445980072021,0.7223383188247681
1630932186634,0.3089281618595123,0.2649484574794769,0.8406445980072021,0.7223383188247681
1630932186718,0.3089281618595123,0.2649484574794769,0.8406445980072021,0.7223383188247681
1630932186810,0.3089281618595123,0.2649484574794769,0.8406445980072021,0.7223383188247681
1630932186921,0.3089281618595123,0.2649484574794769,0.8406445980072021,0.7223383188247681
1630932187031,0.3089281618595123,0.2649484574794769,0.8406445980072021,0.7223383188247681
1630932187119,0.3089281618595123,0.2649484574794769,0.8406445980072021,0.7223383188247681
1630932187220,0.3089281618595123,0.2649484574794769,0.8406445980072021,0.7223383188247681
1630932187353,0.3089281618595123,0.2649484574794769,0.8406445980072021,0.7223383188247681
1630932187435,0.3089281618595123,0.2649484574794769,0.8406445980072021,0.7223383188247681
1630932187502,0.3089281618595123,0.2649484574794769,0.8406445980072021,0.7223383188247681
1630932187666,0.3089281618595123,0.2649484574794769,0.8406445980072021,0.7223383188247681
1630932187749,0.3089281618595123,0.2649484574794769,0.8406445980072021,0.7223383188247681
1630932187836,0.3089281618595123,0.2649484574794769,0.8406445980072021,0.7223383188247681
1630932187926,0.3089281618595123,0.2649484574794769,0.8406445980072021,0.7223383188247681
1630932188020,0.3089281618595123,0.2649484574794769,0.8406445980072021,0.7223383188247681
1630932188123,0.3089281618595123,0.2649484574794769,0.8406445980072021,0.7223383188247681
1630932188280,0.3089281618595123,0.2649484574794769,0.8406445980072021,0.7223383188247681
1630932188350,0.3089281618595123,0.2649484574794769,0.8406445980072021,0.7223383188247681
1630932188435,0.980477809906006,0.2649484574794769,0.8406445980072021,0.934173047542572
1630932188550,0.9984803795814514,0.2649484574794769,0.8406445980072021,0.93123596906662
1630932188653,1.0069583654403689,0.1192274764180183,0.8406445980072021,0.9260162115097046
1630932188742,1.003143548965454,0.0936588123440742,0.8406445980072021,0.9180930256843568
1630932188896,0.990443229675293,0.0751654729247093,0.8406445980072021,0.910025954246521
1630932188960,0.9739700555801392,0.066203199326992,0.8406445980072021,0.9052721858024596
1630932189044,0.958589494228363,0.0652772709727287,0.8406445980072021,0.9047553539276124
1630932189131,0.9472927451133728,0.0749591067433357,-0.014210982248187,0.906140148639679
1630932189250,0.938950538635254,0.0956115648150444,0.062550351023674,0.9073091745376588
1630932189352,0.929922878742218,0.1195495799183845,0.1224011778831482,0.9070063233375548
1630932189481,0.9179612994194032,0.1364561915397644,0.1556255519390106,0.9050394296646118
1630932189579,0.9044014811515808,0.1425720006227493,0.1651115417480468,0.9024131298065186
1630932189684,0.8895326852798462,0.1409861743450164,0.1631430089473724,0.8999230861663818
1630932189781,0.8754652142524719,0.13644640147686,0.1633703112602234,0.8933029174804688
1630932189874,0.8611940741539001,0.1320939660072326,0.170801892876625,0.88326495885849
1630932189967,0.8426012992858887,0.1228493079543113,0.18120938539505,0.8708164095878601
1630932190098,0.8170105218887329,0.1137118190526962,0.1883895397186279,0.8583583235740662
1630932190226,0.7864295244216919,0.1074297726154327,0.1916606426239013,0.8507755994796753
1630932190273,0.757428765296936,0.1016615480184555,0.1949382722377777,0.8534561991691589
1630932190369,0.7362468838691711,0.0937201231718063,0.2144654095172882,0.8662123084068298
1630932190455,0.7248307466506958,0.0827497169375419,0.2348682880401611,0.8814360499382019
1630932190565,0.7185472846031189,0.0692326053977012,0.2486908733844757,0.8902552127838135
1630932190697,0.7101085186004639,0.0523586645722389,0.2527934312820434,0.8887842297554016
1630932190809,0.6966650485992432,0.0313899405300617,0.2485290616750717,0.8784801363945007
1630932190875,0.6814667582511902,0.0076027484610676,0.2401690781116485,0.8634640574455261
1630932190968,0.6699463725090027,-0.015714131295681,0.2327154725790023,0.8472766876220703
1630932191084,0.6713729500770569,-0.0373815856873989,0.2287465780973434,0.8318997621536255
1630932191178,0.6726586222648621,-0.05220303311944,0.2260999083518982,0.8294901847839355
1630932191307,0.667913556098938,-0.063824862241745,0.2301268577575683,0.8278757929801941
1630932191402,0.6550776362419128,-0.0749695897102356,0.2294475585222244,0.8304870128631592
1630932191502,0.6376232504844666,-0.085842028260231,0.2247915267944336,0.8387927412986755
1630932191595,0.6232912540435791,-0.0938741117715835,0.220803752541542,0.8496438264846802
1630932191685,0.6200336217880249,-0.0953131839632988,0.2196594327688217,0.8565710783004761
1630932191773,0.6282168030738831,-0.0863906443119049,0.2175259739160537,0.8501976132392883
1630932191915,0.6380321979522705,-0.0663074478507042,0.2103369832038879,0.8215029239654541
1630932192023,0.6372360587120056,-0.0366141162812709,0.1995121985673904,0.7676993012428284
1630932192109,0.6203858256340027,0.000767737510614,0.1900405883789062,0.6964834332466125
1630932192199,0.6203858256340027,0.000767737510614,0.183658018708229,0.6268112063407898
1630932192331,0.6203858256340027,0.000767737510614,0.175423726439476,0.8599702715873718
1630932192377,0.6203858256340027,0.000767737510614,0.175423726439476,0.8599702715873718
1630932192509,0.6203858256340027,0.000767737510614,0.175423726439476,0.8599702715873718
1630932192631,0.6203858256340027,0.000767737510614,0.175423726439476,0.8599702715873718
1630932192731,0.6203858256340027,0.000767737510614,0.175423726439476,0.8599702715873718
1630932192802,0.6203858256340027,0.000767737510614,0.175423726439476,0.8599702715873718
1630932192912,0.6203858256340027,0.000767737510614,0.175423726439476,0.8599702715873718
1630932193004,0.6203858256340027,0.000767737510614,0.175423726439476,0.8599702715873718
1630932193139,0.6203858256340027,0.000767737510614,0.175423726439476,0.8599702715873718
1630932193230,0.6203858256340027,0.000767737510614,0.175423726439476,0.8599702715873718
1630932193363,0.6203858256340027,0.000767737510614,0.175423726439476,0.8599702715873718
1630932193406,0.6203858256340027,0.000767737510614,0.175423726439476,0.8599702715873718
1630932193513,0.6203858256340027,0.000767737510614,0.175423726439476,0.8599702715873718
1630932193616,0.6203858256340027,0.000767737510614,0.175423726439476,0.8599702715873718
1630932193745,0.6203858256340027,0.000767737510614,0.175423726439476,0.8599702715873718
1630932193835,0.6203858256340027,0.000767737510614,0.175423726439476,0.8599702715873718
1630932193931,0.6203858256340027,0.000767737510614,0.175423726439476,0.8599702715873718
1630932194015,0.6203858256340027,0.000767737510614,0.175423726439476,0.8599702715873718
1630932194110,0.6203858256340027,0.000767737510614,0.175423726439476,0.8599702715873718
1630932194230,0.6203858256340027,0.000767737510614,0.175423726439476,0.8599702715873718
1630932194335,0.6203858256340027,0.000767737510614,0.175423726439476,0.8599702715873718
1630932194447,0.6203858256340027,0.000767737510614,0.175423726439476,0.8599702715873718
1630932194559,0.6203858256340027,0.000767737510614,0.175423726439476,0.8599702715873718
1630932194646,0.6203858256340027,0.000767737510614,0.175423726439476,0.8599702715873718
1630932194737,0.6203858256340027,0.000767737510614,0.175423726439476,0.8599702715873718
1630932194845,0.6203858256340027,0.000767737510614,0.175423726439476,0.8599702715873718
1630932194962,0.6203858256340027,0.000767737510614,0.8080028295516968,0.8599702715873718
1630932195064,0.6203858256340027,0.000767737510614,0.8080028295516968,0.8599702715873718
1630932195153,0.6203858256340027,0.000767737510614,0.8080028295516968,0.8599702715873718
1630932195265,0.6203858256340027,0.000767737510614,0.8080028295516968,0.8599702715873718
1630932195353,0.6203858256340027,0.000767737510614,0.8080028295516968,0.8599702715873718
1630932195431,0.6203858256340027,0.000767737510614,0.8080028295516968,0.8599702715873718
1630932195560,0.6203858256340027,0.000767737510614,0.8080028295516968,0.8599702715873718
1630932195715,0.6203858256340027,0.000767737510614,0.8080028295516968,0.8599702715873718
1630932195769,0.6203858256340027,0.000767737510614,0.8080028295516968,0.8599702715873718
1630932195862,0.6203858256340027,0.000767737510614,0.8080028295516968,0.8599702715873718
1630932195951,0.6203858256340027,0.000767737510614,0.8080028295516968,0.8599702715873718
1630932196035,1.4173322916030884,0.000767737510614,0.8080028295516968,1.1697365045547483
1630932196197,1.3996613025665283,0.000767737510614,0.8080028295516968,1.1471084356307983
1630932196284,1.3829402923583984,0.000767737510614,0.8080028295516968,1.128600001335144
1630932196365,1.3829402923583984,0.000767737510614,0.8080028295516968,1.128600001335144
1630932196506,1.3829402923583984,0.000767737510614,0.8080028295516968,1.128600001335144
1630932196580,1.3829402923583984,0.000767737510614,0.8080028295516968,1.128600001335144
1630932196633,1.3829402923583984,0.000767737510614,0.8080028295516968,1.128600001335144
1630932196795,1.3829402923583984,0.000767737510614,0.8080028295516968,1.128600001335144
1630932196880,1.3829402923583984,0.000767737510614,0.8080028295516968,1.128600001335144
1630932196983,1.3829402923583984,0.000767737510614,0.8080028295516968,1.128600001335144
1630932197067,1.3829402923583984,0.000767737510614,0.8080028295516968,1.128600001335144
1630932197182,1.3829402923583984,0.000767737510614,0.8080028295516968,1.128600001335144
1630932197266,1.369239091873169,0.000767737510614,0.8080028295516968,1.1206556558609009
1630932197422,1.3501242399215698,0.000767737510614,0.8080028295516968,1.0981875658035278
1630932197514,1.3501242399215698,0.000767737510614,0.8080028295516968,1.0981875658035278
1630932197584,1.3501242399215698,0.000767737510614,0.8080028295516968,1.0981875658035278
1630932197670,1.3501242399215698,0.000767737510614,0.8080028295516968,1.0981875658035278
1630932197776,1.3501242399215698,0.000767737510614,0.8080028295516968,1.0981875658035278
1630932197872,1.3501242399215698,0.000767737510614,0.8080028295516968,1.0981875658035278
1630932198027,1.3501242399215698,0.000767737510614,0.8080028295516968,1.0981875658035278
1630932198120,1.3501242399215698,0.000767737510614,0.8080028295516968,1.0981875658035278
1630932198207,1.3501242399215698,0.000767737510614,0.8080028295516968,1.0981875658035278
1630932198319,1.3501242399215698,0.000767737510614,0.8080028295516968,1.0981875658035278
1630932198382,1.3501242399215698,0.000767737510614,0.8080028295516968,1.0981875658035278
1630932198496,1.3501242399215698,0.000767737510614,0.8080028295516968,1.0981875658035278
1630932198606,1.3501242399215698,0.000767737510614,0.8080028295516968,1.0981875658035278
1630932198722,1.3501242399215698,0.000767737510614,0.8080028295516968,1.0981875658035278
1630932198829,1.3501242399215698,0.000767737510614,0.8080028295516968,1.0981875658035278
1630932198905,1.3501242399215698,0.000767737510614,0.8080028295516968,1.0981875658035278
1630932199010,1.3501242399215698,0.000767737510614,0.8080028295516968,1.0981875658035278
1630932199104,1.3501242399215698,0.000767737510614,0.8080028295516968,1.0981875658035278
1630932199233,1.3501242399215698,0.000767737510614,0.8080028295516968,1.0981875658035278
1630932199302,1.3501242399215698,0.000767737510614,0.8080028295516968,1.0981875658035278
1630932199436,1.3501242399215698,0.000767737510614,0.8080028295516968,1.0981875658035278
1630932199528,1.3501242399215698,0.000767737510614,0.8080028295516968,1.0981875658035278
1630932199617,1.3501242399215698,0.000767737510614,0.8080028295516968,1.0981875658035278
1630932199705,1.3501242399215698,0.000767737510614,0.8080028295516968,1.0981875658035278
1630932199841,1.3501242399215698,0.000767737510614,0.8080028295516968,1.0981875658035278
1630932199922,1.3501242399215698,0.000767737510614,0.8080028295516968,1.0981875658035278
1630932200016,1.3501242399215698,0.000767737510614,0.8080028295516968,1.0981875658035278
1630932200134,1.3501242399215698,0.000767737510614,0.8080028295516968,1.0981875658035278
1630932200218,1.3501242399215698,0.2900655567646026,0.8080028295516968,1.0981875658035278
1630932200308,1.3501242399215698,0.2406265437602996,0.8080028295516968,1.0981875658035278
1630932200438,1.3501242399215698,0.1955281198024749,0.8080028295516968,1.0981875658035278
1630932200530,1.3501242399215698,0.1199433356523513,0.8080028295516968,0.7898573279380798
1630932200621,1.3501242399215698,0.0624532029032707,0.8080028295516968,0.7801249623298645
1630932200728,1.3501242399215698,0.0874360799789428,0.8080028295516968,0.7664141058921814
1630932200825,1.3501242399215698,0.1093452051281929,0.8080028295516968,0.748375654220581
1630932200929,1.3501242399215698,0.1093452051281929,0.8080028295516968,0.7266173362731934
1630932201112,1.3501242399215698,0.1093452051281929,0.8080028295516968,0.7031831741333008
1630932201188,1.3501242399215698,0.1093452051281929,0.8080028295516968,0.6805310845375061
1630932201247,1.3501242399215698,0.1093452051281929,0.8080028295516968,0.6613700985908508
1630932201360,1.3501242399215698,0.1093452051281929,0.8080028295516968,0.6462939977645874
1630932201453,0.8112330436706543,0.1093452051281929,0.8080028295516968,0.6334317922592163
1630932201565,0.8039315938949585,0.1093452051281929,0.8080028295516968,0.6204569935798645
1630932201682,0.7888239622116089,0.0830036848783493,0.8080028295516968,0.6068614721298218
1630932201767,0.7888239622116089,0.0748716965317726,0.311598002910614,0.5767459869384766
1630932201855,0.7888239622116089,0.0953726172447204,0.2909995913505554,0.5481785535812378
1630932201957,0.7888239622116089,0.229208692908287,0.2717235088348388,0.5230947732925415
1630932202052,0.7571339011192322,0.3130510151386261,0.2537592947483063,0.5003964304924011
1630932202188,0.7294631600379944,0.3547757863998413,0.2377499341964721,0.4799274206161499
1630932202296,0.7038075923919678,0.3650356531143188,0.2241069823503494,0.4691332280635834
1630932202373,0.6820051670074463,0.3558111190795898,0.2134680151939392,0.479610413312912
1630932202455,0.6688872575759888,0.3170505166053772,0.2062811702489853,0.5132279396057129
1630932202566,0.6655965447425842,0.2788346111774444,0.2029775828123092,0.5558196306228638
1630932202662,0.6465566754341125,0.2489430159330368,0.204245924949646,0.5907284021377563
1630932202762,0.6443580985069275,0.2335577011108398,0.2103716880083084,0.6096832156181335
1630932202899,0.654364287853241,0.2314465790987014,0.220685064792633,0.6149633526802063
1630932203015,0.6704005002975464,0.2344314754009246,0.2225115746259689,0.6147528886795044
1630932203077,0.6903188228607178,0.2352870553731918,0.2364537566900253,0.6166011095046997
1630932203195,0.7131689786911011,0.2307328283786773,0.2546640038490295,0.6242397427558899
1630932203263,0.7268688082695007,0.2215648591518402,0.2693089842796325,0.6382769346237183
1630932203372,0.7309802174568176,0.2215648591518402,0.2774764597415924,0.657858669757843
1630932203502,0.7309802174568176,0.1948310732841491,0.2794564068317413,0.6806694269180298
1630932203584,0.7447991967201233,0.168317437171936,0.2803524434566498,0.7024672627449036
1630932203686,0.7618058323860168,0.1450899392366409,0.2843033373355865,0.7185477018356323
1630932203782,0.7830321192741394,0.1384967714548111,0.2910586893558502,0.7258735299110413
1630932203862,0.8073014616966248,0.1526141911745071,0.3015994429588318,0.7236412763595581
1630932203955,0.8305942416191101,0.1796592324972152,0.3182133436203003,0.7129032611846924
1630932204135,0.8504011631011963,0.2099551260471344,0.3408333659172058,0.698022186756134
1630932204199,0.8668909668922424,0.2347629517316818,0.3638500273227691,0.6853504776954651
1630932204301,0.8793421387672424,0.2474653422832489,0.379840075969696,0.6834219098091125
1630932204396,0.8584067225456238,0.2461765259504318,0.384816437959671,0.6935743689537048
1630932204492,0.8253220319747925,0.2357551455497741,0.3788164556026459,0.7109663486480713
1630932204585,0.7756580114364624,0.2255781292915344,0.3667353987693786,0.7303709387779236
1630932204708,0.7135964632034302,0.2254986464977264,0.356341689825058,0.7482249736785889
1630932204849,0.6527271866798401,0.2388527691364288,0.3531667292118072,0.7602258920669556
1630932204914,0.6098645925521851,0.2461638152599334,0.3570513427257538,0.7608065009117126
1630932205006,0.6054683923721313,0.2544298768043518,0.3639288246631622,0.7469260096549988
1630932205098,0.6054683923721313,0.2587387561798095,0.3682560324668884,0.7238755226135254
1630932205207,0.6054683923721313,0.2596412897109985,0.3679261207580566,0.7060452699661255
1630932205314,0.6054683923721313,0.2631784379482269,0.3662293553352356,0.7423490881919861
1630932205428,0.6153048872947693,0.2655403912067413,0.3665678203105926,0.7924857139587402
1630932205521,0.6324964761734009,0.2694268226623535,0.369461715221405,0.8421475887298584
1630932205610,0.6527853012084961,0.274152010679245,0.371224582195282,0.8880661725997925
1630932205713,0.6726701259613037,0.2774664759635925,0.3685129880905151,0.8943614363670349
1630932205809,0.6726701259613037,0.2806431949138641,0.3625437617301941,0.8990110754966736
1630932205949,0.669935405254364,0.2869821786880493,0.3580534160137176,0.904227077960968
1630932206055,0.6670187711715698,0.2972588241100311,0.3572690188884735,0.9076895117759703
1630932206145,0.6717842221260071,0.3075801432132721,0.3557476699352264,0.9052817225456238
1630932206234,0.6723491549491882,0.3129043579101562,0.347663015127182,0.8952754735946655
1630932206334,0.6758764982223511,0.3107606470584869,0.3335674703121185,0.8790687322616577
1630932206442,0.6750348806381226,0.310138463973999,0.3205002546310425,0.8606361150741577
1630932206547,0.6655720472335815,0.3075041472911834,0.3158263862133026,0.8437901139259338
1630932206645,0.6655720472335815,0.3071964383125305,0.3215776681900024,0.8437901139259338
1630932206729,0.6655720472335815,0.2988251745700836,0.3343177139759063,0.8437901139259338
1630932206848,0.6655720472335815,0.2911272644996643,0.3467071652412414,0.8442062139511108
1630932206933,0.6636860966682434,0.2785862684249878,0.3496980369091034,0.8409987688064575
1630932206996,0.6474868059158325,0.2596730887889862,0.3376512229442596,0.8335009217262268
1630932207171,0.6086136698722839,0.2402665913105011,0.3137028515338897,0.8225633502006531
1630932207265,0.5280061960220337,0.229147583246231,0.2885437309741974,0.8089048862457275
1630932207355,0.5280061960220337,0.2274509072303772,0.2711402475833893,0.7901349067687988
1630932207444,0.5280061960220337,0.2272134274244308,0.2623460292816162,0.7606679201126099
1630932207565,0.5280061960220337,0.2207019478082656,0.2581821382045746,0.716753363609314
1630932207619,0.5280061960220337,0.2079207897186279,0.2570114135742187,0.661861777305603
1630932207760,0.5280061960220337,0.1931929886341095,0.2588635385036468,0.661861777305603
1630932207872,0.5280061960220337,0.1795979887247085,0.2602584064006805,0.661861777305603
1630932207958,0.5280061960220337,0.1674928367137909,0.2569149136543274,0.661861777305603
1630932208047,0.5280061960220337,0.1592252701520919,0.2474158704280853,0.661861777305603
1630932208165,0.5280061960220337,0.1578218787908554,0.233125239610672,0.661861777305603
1630932208251,0.3346937298774719,0.1622498631477356,0.215687945485115,0.5638720989227295
1630932208364,0.3282691836357116,0.1647498458623886,0.1985841691493988,0.589929461479187
1630932208482,0.32578906416893,0.1629605293273925,0.18805792927742,0.612764835357666
1630932208586,0.3232384920120239,0.1590793579816818,0.1879730373620987,0.6266412138938904
1630932208648,0.3207891881465912,0.1545001715421676,0.1962674260139465,0.6275399923324585
1630932208742,0.3187577128410339,0.146666944026947,0.2095408588647842,0.6168728470802307
1630932208829,0.3154078125953674,0.1335880309343338,0.2271979302167892,0.6015211939811707
1630932209018,0.3096047341823578,0.1192074939608573,0.2484829425811767,0.5922082662582397
1630932209098,0.3014716804027557,0.1100036576390266,0.2711168527603149,0.5984330773353577
1630932209187,0.29305499792099,0.1071904897689819,0.29274782538414,0.6203322410583496
1630932209256,0.2872947752475738,0.1080899685621261,0.3124290406703949,0.6462666392326355
1630932209364,0.2887961864471435,0.1133401840925216,0.3295072615146637,0.6636059880256653
1630932209503,0.2949933409690857,0.1263473033905029,0.3422647416591644,0.6796069145202637
1630932209589,0.3273577392101288,0.1447857618331909,0.3498532772064209,0.6822757720947266
1630932209682,0.3730755746364593,0.1606992930173874,0.3538782894611358,0.67833411693573
1630932209802,0.4132680296897888,0.1692962795495987,0.3577958643436432,0.671216607093811
1630932209903,0.4408541321754455,0.1748339086771011,0.3640909194946289,0.6609356999397278
1630932209979,0.4622378945350647,0.1847793310880661,0.3729802370071411,0.648811936378479
1630932210059,0.4882318079471588,0.2009696066379547,0.3821393549442291,0.6410862803459167
1630932210200,0.5210638046264648,0.2181503027677536,0.3879367113113403,0.643697202205658
1630932210331,0.5535281896591187,0.230655238032341,0.3859289288520813,0.6558828949928284
1630932210462,0.5789687633514404,0.2374432533979416,0.3730557560920715,0.6697099804878235
1630932210532,0.5952416658401489,0.2402657717466354,0.3494076132774353,0.677638828754425
1630932210591,0.6147507429122925,0.2412771731615066,0.3178824186325073,0.6757096648216248
1630932210680,0.6371514201164246,0.2423115670680999,0.2827866673469543,0.664215624332428
1630932210828,0.6613656282424927,0.2449872642755508,0.2484952211380005,0.6471335291862488
1630932210928,0.6848422884941101,0.2500657141208648,0.2192408442497253,0.6304792165756226
1630932211023,0.7020351886749268,0.2558115124702453,0.1989162862300872,0.61859130859375
1630932211094,0.6918598413467407,0.2582505345344543,0.1885157376527786,0.612783670425415
1630932211235,0.6758497953414917,0.2549213171005249,0.1849509477615356,0.6134703755378723
1630932211312,0.6630566716194153,0.2464282810688018,0.181904599070549,0.6226120591163635
1630932211432,0.6564264893531799,0.2351142466068267,0.1726334542036056,0.6379106044769287
1630932211516,0.6496814489364624,0.2224840968847274,0.1523534804582595,0.6529319882392883
1630932211621,0.6320561170578003,0.2096222937107086,0.1217335686087608,0.6609804034233093
1630932211720,0.6004791855812073,0.1989770531654358,0.0868117287755012,0.6604251861572266
1630932211824,0.5654112100601196,0.1935804039239883,0.0573735162615776,0.6556626558303833
1630932211891,0.5443512797355652,0.1940425932407379,0.0438659526407718,0.6544470191001892
1630932212045,0.5530996918678284,0.1982484012842178,0.0513558089733123,0.6591853499412537
1630932212147,0.5639484524726868,0.2031547576189041,0.0747712180018425,0.6647539138793945
1630932212232,0.5703200101852417,0.206721693277359,0.1016830727458,0.6639483571052551
1630932212317,0.5695804953575134,0.2062192410230636,0.1208658367395401,0.6559011936187744
1630932212409,0.5641928315162659,0.1985947042703628,0.1286966502666473,0.6465998291969299
1630932212521,0.5596458911895752,0.1828781217336654,0.1273476779460907,0.6416770815849304
1630932212649,0.5618849396705627,0.1635830253362655,0.1194817200303077,0.6394273638725281
1630932212746,0.5686163902282715,0.1488717049360275,0.1054277047514915,0.6347235441207886
1630932212837,0.5782449245452881,0.143814668059349,0.088823452591896,0.6262075901031494
1630932212923,0.5872430801391602,0.1459570527076721,0.0776937454938888,0.6205958127975464
1630932213026,0.5925201773643494,0.1492144763469696,0.0795217752456665,0.6244620084762573
1630932213100,0.5988016724586487,0.1500090509653091,0.0934680625796318,0.6177560091018677
1630932213260,0.6074628829956055,0.148516371846199,0.1115021109580993,0.6140030026435852
1630932213326,0.6159815192222595,0.1489066630601883,0.1262528002262115,0.6110478639602661
1630932213442,0.6210770010948181,0.1558526456356048,0.1344579607248306,0.604962170124054
1630932213524,0.620703935623169,0.1699040383100509,0.1392609030008316,0.5932627320289612
1630932213640,0.6161450743675232,0.1866740733385086,0.1477912068367004,0.5777926445007324
1630932213703,0.6137487292289734,0.2014556676149368,0.1672366857528686,0.5651849508285522
1630932213865,0.6208362579345703,0.2113230377435684,0.1989099979400634,0.5626264214515686
1630932213953,0.6395860910415649,0.2154021561145782,0.2370028346776962,0.5716803073883057
1630932214070,0.664128839969635,0.2152190804481506,0.272365927696228,0.5906923413276672
1630932214130,0.6846101880073547,0.2141693532466888,0.301053524017334,0.6217262148857117
1630932214246,0.6846101880073547,0.213806465268135,0.3193492889404297,0.6217262148857117
1630932214327,0.6846101880073547,0.2202363163232803,0.3384766578674316,0.6217262148857117
1630932214513,0.6846101880073547,0.227253183722496,0.3560298681259155,0.6217262148857117
1630932214641,0.6846101880073547,0.2351336926221847,0.3571785390377044,0.6217262148857117
1630932214674,0.6846101880073547,0.2429758310317993,0.3479358851909637,0.4663844108581543
1630932214781,0.6846101880073547,0.2496591061353683,0.3570416569709778,0.4767243564128876
1630932214849,0.6846101880073547,0.251907080411911,0.3712286055088043,0.4861536026000976
1630932214961,0.6846101880073547,0.2437514066696167,0.3903794884681701,0.5026769638061523
1630932215089,0.6846101880073547,0.2194655090570449,0.4085597395896911,0.5236691236495972
1630932215182,0.6846101880073547,0.1783057451248169,0.4176216423511505,0.5402406454086304
1630932215252,0.6846101880073547,0.1243821904063224,0.4106902778148651,0.5476288795471191
1630932215387,0.6846101880073547,0.0722261443734169,0.3838556706905365,0.5470490455627441
1630932215451,0.6846101880073547,0.0722261443734169,0.3341096341609955,0.5429428219795227
1630932215548,0.424097865819931,0.0722261443734169,0.3341096341609955,0.5407562255859375
1630932215696,0.3815450966358185,0.0722261443734169,0.3341096341609955,0.5438639521598816
1630932215789,0.3460208177566528,0.0722261443734169,0.3341096341609955,0.5525349378585815
1630932215869,0.3215729594230652,0.0722261443734169,0.3341096341609955,0.5746130347251892
1630932215981,0.3068773448467254,0.0722261443734169,0.3341096341609955,0.5949199199676514
1630932216068,0.3022964298725128,0.0722261443734169,0.3341096341609955,0.6134963631629944
1630932216150,0.3094291985034942,0.0722261443734169,0.3341096341609955,0.6330657005310059
1630932216313,0.3261016607284546,0.0722261443734169,0.3341096341609955,0.6536988615989685
1630932216398,0.3474192917346954,0.0722261443734169,0.3341096341609955,0.6733801364898682
1630932216487,0.3690552115440368,0.0722261443734169,0.3341096341609955,0.6920152306556702
1630932216602,0.3883548974990845,0.0722261443734169,0.3341096341609955,0.7110320925712585
1630932216665,0.409155935049057,0.0722261443734169,0.3341096341609955,0.731555700302124
1630932216785,0.4289432764053345,0.0722261443734169,0.363526314496994,0.7530644536018372
1630932216901,0.4596003592014313,0.0722261443734169,0.4103740751743316,0.7754817605018616
1630932217070,0.4949405491352081,-0.025033064186573,0.4397959113121032,0.7991310954093933
1630932217122,0.5302446484565735,-0.0151380002498626,0.4515578746795654,0.8138259053230286
1630932217213,0.567660927772522,0.0028299686964601,0.4505225419998169,0.8274129629135132
1630932217285,0.5875348448753357,0.0171282850205898,0.4422743022441864,0.8389130234718323
1630932217378,0.6086059212684631,0.0227650105953216,0.4315784573554992,0.8490356206893921
1630932217509,0.6305208206176758,0.0241363160312175,0.4212488532066345,0.858812153339386
1630932217600,0.6524685621261597,0.030942989513278,0.4113298058509826,0.8681164979934692
1630932217754,0.6728113889694214,0.0524275191128253,0.4027510583400726,0.8764962553977966
1630932217794,0.6907906532287598,0.0891310945153236,0.3979154527187347,0.8855536580085754
1630932217912,0.7071692943572998,0.1311995536088943,0.3973485827445984,0.8963334560394287
1630932218037,0.7237967848777771,0.1665674000978469,0.4098059237003326,0.9059516191482544
1630932218113,0.7434033155441284,0.1889695227146148,0.4166402816772461,0.9100674390792848
1630932218255,0.7632298469543457,0.2107279449701309,0.4142221510410309,0.9100674390792848
1630932218335,0.7601248621940613,0.2273186892271042,0.4042746722698211,0.9100674390792848
1630932218431,0.731128990650177,0.2435185313224792,0.3943895995616913,0.9100674390792848
1630932218517,0.6785433292388916,0.2598513960838318,0.3924687802791595,0.9100674390792848
1630932218603,0.6139658093452454,0.2748311758041382,0.4004485011100769,0.9100674390792848
1630932218762,0.561223566532135,0.2881567180156708,0.4118568897247314,0.9100674390792848
1630932218855,0.561223566532135,0.3013399839401245,0.4200353324413299,0.9100674390792848
1630932218920,0.561223566532135,0.314907819032669,0.4237507283687591,0.9100674390792848
1630932219047,0.5302770733833313,0.3270543217658996,0.4251445233821869,0.603193461894989
1630932219136,0.514228343963623,0.3342200815677643,0.426666259765625,0.6241889595985413
1630932219204,0.5096047520637512,0.3325200080871582,0.4280811250209808,0.6241889595985413
1630932219349,0.512795090675354,0.320671021938324,0.4267650544643402,0.6241889595985413
1630932219432,0.512795090675354,0.3013537228107452,0.4210697412490845,0.6241889595985413
1630932219580,0.512795090675354,0.2805902659893036,0.4131409227848053,0.6241889595985413
1630932219632,0.512795090675354,0.2640479803085327,0.4087841510772705,0.6241889595985413
1630932219725,0.512795090675354,0.2527341246604919,0.4121874570846557,0.6241889595985413
1630932219813,0.4803508520126343,0.2434634864330291,0.4205086231231689,0.6241889595985413
1630932219945,0.4547151327133178,0.2326889932155609,0.4244663417339325,0.6241889595985413
1630932220034,0.4481287896633148,0.2184744775295257,0.4163312315940857,0.6241889595985413
1630932220173,0.4582805335521698,0.2007963806390762,0.3962592482566833,0.6241889595985413
1630932220270,0.4582805335521698,0.1819560080766677,0.3724735975265503,0.6324869394302368
1630932220352,0.4582805335521698,0.1658391654491424,0.3548428416252136,0.6324869394302368
1630932220452,0.4582805335521698,0.1549748182296753,0.3487563133239746,0.6324869394302368
1630932220586,0.4582805335521698,0.1487782597541809,0.3540850579738617,0.6324869394302368
1630932220669,0.4582805335521698,0.1453678160905838,0.3665543496608734,0.6324869394302368
1630932220785,0.4582805335521698,0.1469493359327316,0.3793585002422333,0.6324869394302368
1630932220845,0.4582805335521698,0.154869869351387,0.3868655264377594,0.7537428736686707
1630932220934,0.4582805335521698,0.1663137972354889,0.3875375688076019,0.7046774625778198
1630932221027,0.4582805335521698,0.1756054908037185,0.3821061253547668,0.6663124561309814
1630932221186,0.4582805335521698,0.1794681400060653,0.3695101141929626,0.6447187662124634
1630932221249,0.4582805335521698,0.1790889799594879,0.3482000529766083,0.6368629932403564
1630932221353,0.4582805335521698,0.1786225438117981,0.320281058549881,0.633926272392273
1630932221442,0.4582805335521698,0.1819402277469635,0.2915512025356293,0.6275599598884583
1630932221535,0.4582805335521698,0.192899003624916,0.2682376503944397,0.6142111420631409
1630932221647,0.4582805335521698,0.2123313099145889,0.2532638907432556,0.5961006879806519
1630932221781,0.4582805335521698,0.2345151603221893,0.2455196678638458,0.5783931016921997
1630932221868,0.4582805335521698,0.2514335215091705,0.2410802841186523,0.5645168423652649
1630932221964,0.4582805335521698,0.2615757286548614,0.2332010716199875,0.5545606017112732
1630932222090,0.4582805335521698,0.2710150182247162,0.2156214267015457,0.5159997940063477
1630932222181,0.4582805335521698,0.2860702276229858,0.1883211135864257,0.4846674501895904
1630932222248,0.4582805335521698,0.3033576607704162,0.1591370850801468,0.4747710824012756
1630932222383,0.4582805335521698,0.3146596550941467,0.1389118134975433,0.4918378293514251
1630932222482,0.4582805335521698,0.316611111164093,0.1333959251642227,0.523041844367981
1630932222610,0.4582805335521698,0.3139984607696533,0.1405836790800094,0.5500569939613342
1630932222672,0.4582805335521698,0.3157639503479004,0.1536943316459655,0.5627954602241516
1630932222772,0.4582805335521698,0.3260053396224975,0.1659838855266571,0.5624719262123108
1630932222880,0.4582805335521698,0.3409155309200287,0.1749184280633926,0.5581824779510498
1630932223015,0.4582805335521698,0.3535857498645782,0.1828429251909256,0.5600882768630981
1630932223109,0.4582805335521698,0.3591763973236084,0.1917919516563415,0.5668857097625732
1630932223196,0.4582805335521698,0.3567366898059845,0.1993915885686874,0.5810642242431641
1630932223280,0.4582805335521698,0.3499468564987182,0.2024493962526321,0.5988785028457642
1630932223373,0.4582805335521698,0.3450151979923248,0.2046309113502502,0.6168991327285767
1630932223479,0.4582805335521698,0.3453706800937652,0.2150640487670898,0.634556770324707
1630932223665,0.4582805335521698,0.3494675755500793,0.2172257900238037,0.6526448130607605
1630932223720,0.4582805335521698,0.3551649451255798,0.2192450165748596,0.6685319542884827
1630932223812,0.4582805335521698,0.3634303510189056,0.2206300199031829,0.6747913956642151
1630932223896,0.4582805335521698,0.3806386590003967,0.2207672744989395,0.6635813117027283
1630932223984,0.4582805335521698,0.4101724624633789,0.2191372513771057,0.634320855140686
1630932224072,0.4582805335521698,0.4459513127803802,0.2151557505130767,0.5975831747055054
1630932224214,0.4582805335521698,0.4558639824390411,0.2114288210868835,0.5975831747055054
1630932224322,0.4582805335521698,0.4634374380111694,0.213240772485733,0.5975831747055054
1630932224409,0.4582805335521698,0.4692999124526977,0.465419739484787,0.5975831747055054
1630932224501,0.4582805335521698,0.4770553708076477,0.5823622941970825,0.5975831747055054
1630932224602,0.6823646426200867,0.489656537771225,0.6426093578338623,0.7954500913619995
1630932224686,0.667103111743927,0.5078491568565369,0.6782487034797668,0.7782319784164429
1630932224854,0.6537216901779175,0.522898256778717,0.7094722390174866,0.7635249495506287
1630932224933,0.6357800364494324,0.5419476628303528,0.7464339733123779,0.7505510449409485
1630932225013,0.613872766494751,0.5556887984275818,0.7903783917427063,0.7420263886451721
1630932225136,0.5935081839561462,0.5592947006225586,0.7903783917427063,0.7409013509750366
1630932225220,0.5786030888557434,0.5537365078926086,0.7903783917427063,0.7456438541412354
1630932225286,0.5671094059944153,0.5442493557929993,0.7903783917427063,0.7510016560554504
1630932225464,0.5553674697875977,0.5331395864486694,0.7903783917427063,0.7530858516693115
1630932225524,0.5426468253135681,0.5206081867218018,0.7928144335746765,0.7533310055732727
1630932225636,0.5426468253135681,0.5086650252342224,0.8016723394393921,0.7533310055732727
1630932225730,0.5426468253135681,0.5231825113296509,0.8016723394393921,0.7533310055732727
1630932225826,0.5157009363174438,0.5276118516921997,0.8016723394393921,0.743138313293457
1630932225917,0.4939424097537994,0.5215831995010376,0.7647737860679626,0.7359904050827026
1630932226050,0.4780049920082092,0.5082541108131409,0.7425158619880676,0.7326030731201172
1630932226149,0.4624249339103699,0.491868108510971,0.7405887842178345,0.7332148551940918
1630932226229,0.4416964948177337,0.4756463468074798,0.7591758966445923,0.7370102405548096
1630932226342,0.4178197383880615,0.4622198343276977,0.7915081977844238,0.7443987727165222
1630932226414,0.4005584716796875,0.4579291939735412,0.7915081977844238,0.7565519213676453
1630932226507,0.3968618512153625,0.4537703394889831,0.7915081977844238,0.7708277702331543
1630932226678,0.4002485573291778,0.4537404179573059,0.7915081977844238,0.7800616025924683
1630932226753,0.4002485573291778,0.4570387601852417,0.7915081977844238,0.7800616025924683
1630932226840,0.4002485573291778,0.4586670398712158,0.7915081977844238,0.7800616025924683
1630932226955,0.4002485573291778,0.452489972114563,0.7915081977844238,0.7800616025924683
1630932227038,0.4002485573291778,0.4324050545692444,0.7915081977844238,0.7800616025924683
1630932227123,0.4002485573291778,0.3929992616176605,0.7915081977844238,0.7800616025924683
1630932227284,0.4002485573291778,0.3351043462753296,0.7915081977844238,0.7800616025924683
1630932227350,0.4002485573291778,0.2609317898750305,0.7915081977844238,0.7800616025924683
1630932227480,0.5855728983879089,0.2116770893335342,0.7915081977844238,0.7800616025924683
1630932227546,0.607882559299469,0.1878432333469391,0.7915081977844238,0.7800616025924683
1630932227636,0.607882559299469,0.1872178167104721,0.7915081977844238,0.7457935214042664
1630932227736,0.607882559299469,0.1971311718225479,0.7915081977844238,0.7457935214042664
1630932227886,0.607882559299469,0.1971311718225479,0.7915081977844238,0.7457935214042664
1630932227986,0.607882559299469,0.1971311718225479,0.7915081977844238,0.7457935214042664
1630932228071,0.607882559299469,0.1971311718225479,0.7915081977844238,0.7457935214042664
1630932228172,0.607882559299469,0.2527480125427246,0.2619284391403198,0.758991539478302
1630932228254,0.607882559299469,0.2737404108047485,0.2976436018943786,0.7626692056655884
1630932228370,0.6090591549873352,0.2752988040447235,0.3250324726104736,0.7550457119941711
1630932228492,0.614494800567627,0.2647147178649902,0.3349001705646515,0.7404794096946716
1630932228584,0.6160578727722168,0.251194417476654,0.328298807144165,0.7236099243164062
1630932228671,0.6190508604049683,0.2427434176206588,0.3162705898284912,0.7071356177330017
1630932228774,0.6079953908920288,0.2421018183231353,0.3092517256736755,0.6934242248535156
1630932228852,0.5870007872581482,0.2470863610506057,0.3089497089385986,0.6685102581977844
1630932228945,0.5674030184745789,0.2487825155258178,0.3111615180969238,0.6586740016937256
1630932229141,0.5554356575012207,0.244455873966217,0.3126768171787262,0.6714163422584534
1630932229179,0.5731922388076782,0.2271296828985214,0.3125596940517425,0.6972638368606567
1630932229315,0.589941680431366,0.2103596776723861,0.3100855648517608,0.7101109623908997
1630932229384,0.5984112024307251,0.19669871032238,0.3137556612491607,0.7168668508529663
1630932229461,0.5958592295646667,0.1843873560428619,0.3088738918304443,0.7231126427650452
1630932229568,0.584443211555481,0.172393187880516,0.2984625995159149,0.7315784692764282
1630932229706,0.5683914422988892,0.1444131433963775,0.2848313748836517,0.7337504029273987
1630932229820,0.5527974367141724,0.1205928176641464,0.2692705988883972,0.732134222984314
1630932229905,0.5366457104682922,0.1051875576376915,0.2540878057479858,0.7263415455818176
1630932230003,0.5253567099571228,0.0964186191558837,0.2432921528816223,0.7178714871406555
1630932230078,0.5247167348861694,0.0883801728487014,0.2374532669782638,0.7098237872123718
1630932230189,0.5360605120658875,0.074969433248043,0.2318522632122039,0.7048494815826416
1630932230305,0.5533260703086853,0.0528048612177372,0.2220160663127899,0.7022140622138977
1630932230423,0.5676132440567017,0.0237983167171478,0.2078978270292282,0.6968977451324463
1630932230510,0.57266765832901,-0.0041793677955865,0.1931571066379547,0.6825817823410034
1630932230612,0.5669214725494385,-0.0240442994982004,0.181646317243576,0.6570766568183899
1630932230680,0.5537069439888,-0.0362765677273273,0.1756001114845276,0.626926839351654
1630932230771,0.5411344766616821,-0.046729564666748,0.176069974899292,0.602730929851532
1630932230919,0.53659588098526,-0.0570791773498058,0.1838054955005645,0.5892630815505981
1630932231017,0.5421208143234253,-0.0619793124496936,0.1968428939580917,0.5792165994644165
1630932231111,0.5538987517356873,-0.0580058582127094,0.2110190689563751,0.5633135437965393
1630932231206,0.5677944421768188,-0.0493847131729126,0.2209655791521072,0.5436615943908691
1630932231308,0.5814193487167358,-0.0414009541273117,0.223785400390625,0.5323334336280823
1630932231403,0.5924214720726013,-0.034830130636692,0.2206025421619415,0.5410974025726318
1630932231532,0.5959279537200928,-0.0286569651216268,0.2168961763381958,0.5691328644752502
1630932231620,0.5908223390579224,-0.0239904709160327,0.2211436331272125,0.6043297052383423
1630932231711,0.5836803317070007,-0.0219362508505582,0.2389580011367797,0.6356619596481323
1630932231825,0.584758460521698,-0.0192377381026744,0.2675529420375824,0.6594710946083069
1630932231917,0.596015989780426,-0.0093496777117252,0.2976657450199127,0.6782132983207703
1630932232004,0.6086211800575256,0.011519530788064,0.3205207288265228,0.6948801875114441
1630932232137,0.6144505143165588,0.0404729209840297,0.3326850235462188,0.7103529572486877
1630932232244,0.6118312478065491,0.0708110034465789,0.3353227078914642,0.724059522151947
1630932232338,0.6030722856521606,0.0967196971178054,0.331222653388977,0.735074520111084
1630932232430,0.5908993482589722,0.1165586113929748,0.3220954537391662,0.7418662309646606
1630932232520,0.5784327983856201,0.1318833827972412,0.3090949654579162,0.7431427240371704
1630932232604,0.5687525868415833,0.1439141631126403,0.2945936024188995,0.7391666769981384
1630932232741,0.5623939633369446,0.1511350125074386,0.2829573452472687,0.7318020462989807
1630932232847,0.5570462346076965,0.1507889479398727,0.2768583595752716,0.7226952314376831
1630932232919,0.5511316657066345,0.1431735306978225,0.2752140164375305,0.7114381194114685
1630932233028,0.5468777418136597,0.1332179456949234,0.2740124762058258,0.6970969438552856
1630932233150,0.5460530519485474,0.1268761605024337,0.2672334909439087,0.6806159019470215
1630932233211,0.5457874536514282,0.1262251585721969,0.249065414071083,0.6633553504943848
1630932233371,0.5395572185516357,0.1276952922344207,0.2165948748588562,0.646224856376648
1630932233454,0.525062620639801,0.1253600865602493,0.1738440245389938,0.6294264197349548
1630932233546,0.5081086754798889,0.1160168275237083,0.1318077892065048,0.6140722632408142
1630932233658,0.4959181249141693,0.1001031622290611,0.1007949113845825,0.600338339805603
1630932233722,0.4896900355815887,0.0810112208127975,0.0828444734215736,0.5855834484100342
1630932233837,0.4861080348491668,0.0631315112113952,0.0740657001733779,0.5654207468032837
1630932233974,0.4835048913955688,0.0504915229976177,0.0707193315029144,0.5409057140350342
1630932234065,0.4826175272464752,0.0455064177513122,0.0706168115139007,0.5216874480247498
1630932234153,0.4817085564136505,0.0476601831614971,0.0714633390307426,0.5192162990570068
1630932234238,0.4780634045600891,0.0539346188306808,0.0695600807666778,0.5326798558235168
1630932234348,0.4699834287166595,0.0604768879711627,0.0626901164650917,0.549799919128418
1630932234438,0.459322452545166,0.0632167384028434,0.0524907447397708,0.5589036345481873
1630932234602,0.4501076638698578,0.0601052679121494,0.0422724932432174,0.5563103556632996
1630932234669,0.4484805166721344,0.0533585846424102,0.0353220291435718,0.5457132458686829
1630932234783,0.4561753571033478,0.0475088134407997,0.0333827249705791,0.5340301394462585
1630932234884,0.4673369526863098,0.0453487262129783,0.0373193435370922,0.5254391431808472
1630932234997,0.4741555452346802,0.0469099171459674,0.0457246862351894,0.5205241441726685
1630932235061,0.4744167625904083,0.0500622540712356,0.053370926529169,0.517325222492218
1630932235188,0.4735606908798218,0.0542192086577415,0.0542317740619182,0.5146933794021606
1630932235265,0.4777320027351379,0.0603136457502841,0.0484300628304481,0.5122388601303101
1630932235370,0.485575258731842,0.0686660781502723,0.0438919514417648,0.5105693340301514
1630932235470,0.4906472861766815,0.0759215876460075,0.0505000986158847,0.5087294578552246
1630932235562,0.4890326857566833,0.0759447813034057,0.0699132680892944,0.5042198300361633
1630932235678,0.4839127659797668,0.0647249817848205,0.0944979265332222,0.4939624965190887
1630932235811,0.4807129800319671,0.0443052053451538,0.1162263602018356,0.4781345725059509
1630932235901,0.482866883277893,0.0213363207876682,0.134312018752098,0.4636658728122711
1630932235960,0.4882636368274688,0.0027947092894464,0.1545923501253128,0.460239440202713
1630932236076,0.4911048412322998,-0.0088700866326689,0.1810821592807769,0.4700618982315063
1630932236213,0.483061671257019,-0.0161662530153989,0.2105331569910049,0.4848085641860962
1630932236279,0.4605154693126678,-0.0224369261413812,0.235978826880455,0.4943461716175079
1630932236404,0.4314645230770111,-0.0256667174398899,0.2530803084373474,0.4951886236667633
1630932236506,0.4126041829586029,-0.0211133360862731,0.2625063061714172,0.4895247220993042
1630932236607,0.4137945473194122,-0.0079480418935418,0.2684320509433746,0.4824186265468597
1630932236676,0.4268465042114258,0.0059628398157656,0.2741567194461822,0.4792370796203613
1630932236780,0.4368379414081573,0.0117959035560488,0.2788932919502258,0.4848386347293854
1630932236900,0.4381455481052398,0.006832371931523,0.2792413532733917,0.5000690817832947
1630932237037,0.4347584247589111,-0.0057504917494952,0.2722804844379425,0.5228663086891174
1630932237099,0.4312488436698913,-0.0201577991247177,0.2591312229633331,0.5573200583457947
1630932237222,0.4315588772296905,-0.0320922061800956,0.2445146590471267,0.6078006029129028
1630932237307,0.4407942295074463,-0.0379360243678092,0.2334455847740173,0.6690466403961182
1630932237396,0.4605678915977478,-0.0336476303637027,0.2276769280433654,0.7270722389221191
1630932237485,0.4855607748031616,-0.017252204939723,0.2230123430490493,0.7709286212921143
1630932237613,0.5085564851760864,0.0088942795991897,0.2128625661134719,0.798642098903656
1630932237707,0.528008759021759,0.0395815856754779,0.1951155960559845,0.8147984147071838
1630932237797,0.5454612374305725,0.0681265816092491,0.1739029437303543,0.8248046040534973
1630932237912,0.5609645247459412,0.0863608047366142,0.1554123908281326,0.8326802253723145
1630932238022,0.565332293510437,0.0882370397448539,0.142447218298912,0.8419109582901001
1630932238088,0.5650162100791931,0.0735359266400337,0.1337376683950424,0.8533138632774353
1630932238240,0.5626752972602844,0.0515401363372802,0.1299380511045456,0.8652157187461853
1630932238333,0.5631728172302246,0.0349807329475879,0.1342691779136657,0.874954879283905
1630932238444,0.5706535577774048,0.0321817100048065,0.1459635496139526,0.882125198841095
1630932238524,0.6365386843681335,0.0407366678118705,0.1589406728744506,0.8876585960388184
1630932238598,0.6868601441383362,0.0511878952383995,0.1675029247999191,0.888494074344635
1630932238695,0.7167747020721436,0.0568044558167457,0.1699259877204895,0.8786081075668335
1630932238853,0.7252362370491028,0.0567258223891258,0.1670639365911483,0.8546662926673889
1630932238949,0.7140046954154968,0.0528923980891704,0.1606156527996063,0.8198692798614502
1630932239039,0.6890305280685425,0.0550091862678527,0.1545764356851577,0.781478762626648
1630932239125,0.6626608371734619,0.0506808012723922,0.1570821851491928,0.746329128742218
1630932239214,0.662917971611023,0.0380020178854465,0.1510988622903823,0.718848466873169
1630932239317,0.6656907796859741,0.0179098099470138,0.1500949263572693,0.7018544673919678
1630932239481,0.6680828332901001,-0.0040888576768338,0.1537273675203323,0.6959109306335449
1630932239574,0.6680828332901001,-0.0190197471529245,0.1604786664247512,0.6964048147201538
1630932239654,0.6680828332901001,-0.0195309687405824,0.1690996885299682,0.6981410980224609
1630932239752,0.6680828332901001,-0.0080429520457983,0.1766145676374435,0.6976449489593506
1630932239815,0.6455698013305664,0.0052129202522337,0.1785340011119842,0.6926143765449524
1630932239937,0.6340277791023254,0.016923751682043,0.1814081221818924,0.6804260611534119
1630932240065,0.5884955525398254,0.0080858673900365,0.2016035318374633,0.6592521071434021
1630932240156,0.5734708309173584,0.0028379631694406,0.2347288876771927,0.630704939365387
1630932240248,0.5897595286369324,0.0259367525577545,0.2688642144203186,0.6017905473709106
1630932240357,0.6190307140350342,0.0750861838459968,0.2965908050537109,0.582383930683136
1630932240454,0.6489553451538086,0.1277420073747635,0.3195069432258606,0.5773655772209167
1630932240534,0.683540403842926,0.1397449225187301,0.3401249945163727,0.5841067433357239
1630932240665,0.7275641560554504,0.1451241970062255,0.3532098233699798,0.5957645177841187
1630932240757,0.7519490718841553,0.1451163291931152,0.3563421964645386,0.6075735688209534
1630932240905,0.7751150131225586,0.1403578668832779,0.3507522642612457,0.6180043816566467
1630932240962,0.7897880673408508,0.1347302347421646,0.3397574722766876,0.6257443428039551
1630932241055,0.7955186367034912,0.1343107968568802,0.3298240900039673,0.6290075182914734
1630932241164,0.7950596809387207,0.1421741545200348,0.3238908648490906,0.6263109445571899
1630932241297,0.7911970019340515,0.1545260548591613,0.319245845079422,0.6179938316345215
1630932241359,0.8013777136802673,0.1651816964149475,0.3138472735881805,0.6068886518478394
1630932241509,0.8156083822250366,0.1776426136493683,0.313326358795166,0.5976433157920837
1630932241588,0.8248499035835266,0.1889865696430206,0.3071291148662567,0.5957891345024109
1630932241686,0.8272702097892761,0.1976790130138397,0.2972867786884308,0.6019883751869202
1630932241769,0.8051155209541321,0.2012360095977783,0.2855216562747955,0.6106144189834595
1630932241920,0.7824921011924744,0.1983431130647659,0.2736274302005768,0.6146743297576904
1630932241970,0.7639716267585754,0.1902806907892227,0.260948896408081,0.6123564839363098
1630932242088,0.7439121007919312,0.1796129494905471,0.2448843866586685,0.6063248515129089
1630932242166,0.7123592495918274,0.1684916317462921,0.2251933515071869,0.6006866693496704
1630932242283,0.664129376411438,0.1590269654989242,0.2079360783100128,0.5972203612327576
1630932242343,0.6033583283424377,0.1525380909442901,0.2009147703647613,0.5963644981384277
1630932242503,0.5379112362861633,0.1467401087284088,0.2061584889888763,0.5982630252838135
1630932242592,0.4748278260231018,0.1365471631288528,0.218077152967453,0.6023398041725159
1630932242680,0.4205829203128814,0.1192059889435768,0.2298768311738968,0.6073864698410034
1630932242789,0.3814606964588165,0.0976825729012489,0.2390652745962143,0.6127740144729614
1630932242915,0.3572876453399658,0.0779228582978248,0.2454724907875061,0.6192129254341125
1630932242996,0.3752649128437042,0.0616869293153286,0.2487774044275283,0.6277028322219849
1630932243114,0.3820681273937225,0.0448982194066047,0.248779758810997,0.6368391513824463
1630932243198,0.3772430121898651,0.0239890720695257,0.2470533400774002,0.6456004977226257
1630932243322,0.3605256378650665,0.0013810296077281,0.2457189261913299,0.655697762966156
1630932243394,0.3525097668170929,-0.0148182623088359,0.2460434138774871,0.6693050265312195
1630932243490,0.3545811474323272,-0.018747741356492,0.2477684766054153,0.6841675043106079
1630932243603,0.3629534542560577,-0.0119373323395848,0.2499895095825195,0.6953057050704956
1630932243708,0.3700670301914215,8.976356912171468e-05,0.2514858841896057,0.6993467807769775
1630932243802,0.3731611967086792,0.0131615530699491,0.2507830858230591,0.6971044540405273
1630932243912,0.3801866173744201,0.0247813314199447,0.247243732213974,0.6908531785011292
1630932244002,0.3900909721851349,0.0325480103492736,0.2408673763275146,0.6816815733909607
1630932244101,0.4021062552928924,0.0346275642514228,0.2320033460855484,0.6694054007530212
1630932244182,0.4088517129421234,0.0309825502336025,0.2217480242252349,0.6553944945335388
1630932244352,0.4051778614521026,0.0235018953680992,0.211385428905487,0.6426016688346863
1630932244426,0.3919157981872558,0.0141224907711148,0.19954913854599,0.6333762407302856
1630932244515,0.3792873322963714,0.0071697644889354,0.1829641610383987,0.6258590817451477
1630932244622,0.3812347650527954,0.0089206239208579,0.1614686995744705,0.6155000925064087
1630932244693,0.4025865197181701,0.021053709089756,0.1392756849527359,0.5984125137329102
1630932244796,0.4328038990497589,0.0354961827397346,0.1230943128466606,0.5721194744110107
1630932244946,0.4574040174484253,0.0406109243631362,0.1145543456077575,0.535297155380249
1630932245041,0.4711392521858215,0.0319075435400009,0.1099596545100212,0.4907410442829132
1630932245119,0.4786790311336517,0.0134027581661939,0.1047921627759933,0.4480941891670227
1630932245232,0.4859005510807037,-0.0085991136729717,0.0990465804934501,0.4179804027080536
1630932245335,0.4920143783092499,-0.0316983982920646,0.094367504119873,0.3997697830200195
1630932245415,0.4815906584262848,-0.0535555332899093,0.0887213125824928,0.3843288123607635
1630932245552,0.4686554968357086,-0.0660056844353675,0.0766780078411102,0.3655459582805633
1630932245632,0.4565462470054626,-0.0594874769449234,0.0562919862568378,0.3474338054656982
1630932245728,0.4523763656616211,-0.0353195294737815,0.0325420536100864,0.3364688456058502
1630932245810,0.4531799852848053,-0.0031217683572322,0.0149238994345068,0.3335838317871094
1630932245925,0.4573855400085449,0.0296841152012348,0.010381837375462,0.3349409699440002
1630932246014,0.460155725479126,0.058141678571701,0.0182236470282077,0.3400841057300567
1630932246179,0.4565333127975464,0.0777333676815033,0.0308001656085252,0.3552054166793823
1630932246239,0.4453229308128357,0.0867197886109352,0.040179681032896,0.3852402865886688
1630932246332,0.4302491545677185,0.0891625881195068,0.0427958667278289,0.4290380477905273
1630932246415,0.4155137538909912,0.0920481160283088,0.0399654731154441,0.4789634943008423
1630932246531,0.4024854898452759,0.0976718664169311,0.033945295959711,0.5251661539077759
1630932246654,0.3904214203357696,0.1029674261808395,0.0267070904374122,0.559728741645813
1630932246807,0.3804053068161011,0.1057779043912887,0.0188374668359756,0.5797317028045654
1630932246866,0.3756320476531982,0.1075653061270713,0.0120036136358976,0.587834358215332
1630932246959,0.3775157630443573,0.109884425997734,0.0091339563950896,0.5899110436439514
1630932247065,0.3842511177062988,0.1114384308457374,0.0129841435700654,0.5910982489585876
1630932247153,0.3910099864006042,0.1100004166364669,0.0222263038158416,0.5927321910858154
1630932247250,0.3923073709011078,0.1053493693470954,0.0320189706981182,0.5935878157615662
1630932247376,0.3853116929531097,0.0976988226175308,0.0369592756032943,0.5927010774612427
1630932247503,0.371715635061264,0.0850292816758155,0.0355356521904468,0.5907697081565857
1630932247570,0.3565519452095032,0.064899556338787,0.0324895121157169,0.5891048908233643
1630932247668,0.3454269766807556,0.0378659218549728,0.0371591299772262,0.5861270427703857
1630932247752,0.3410676121711731,0.0090598948299884,0.058884460479021,0.5778375864028931
1630932247841,0.3430894911289215,-0.0132358875125646,0.0959663838148117,0.5597886443138123
1630932247995,0.3493428528308868,-0.0232554897665977,0.1368097364902496,0.5303686261177063
1630932248083,0.3573722839355469,-0.0214562974870204,0.1704094409942627,0.4943740367889404
1630932248171,0.3656258285045624,-0.0144655248150229,0.1933813840150833,0.4623767137527466
1630932248282,0.3730463087558746,-0.0098792230710387,0.2088043689727783,0.4435783326625824
1630932248379,0.3775043189525604,-0.0095326974987983,0.2200066894292831,0.4377780556678772
1630932248497,0.3762541711330414,-0.0099463071674108,0.2283555120229721,0.4358437955379486
1630932248578,0.3689746558666229,-0.0082728005945682,0.2337808012962341,0.4314512014389038
1630932248698,0.3606404662132263,-0.0058947908692061,0.2359178513288498,0.4280451238155365
1630932248786,0.3579082489013672,-0.0049872803501784,0.2355207055807113,0.4324046671390533
1630932248882,0.3627578020095825,-0.0052813896909356,0.2360904663801193,0.4449146091938019
1630932248959,0.3719515800476074,-0.0041201990097761,0.2411861568689346,0.4583686590194702
1630932249095,0.3827446699142456,0.0017827225383371,0.2494960725307464,0.4655022025108337
1630932249198,0.390503853559494,0.0116365859284996,0.2539812624454498,0.460730642080307
1630932249337,0.3961423933506012,0.0239615347236394,0.2465055584907531,0.4530589878559112
1630932249409,0.3960402905941009,0.036853764206171,0.224729299545288,0.4458753168582916
1630932249495,0.3885637521743774,0.0442923903465271,0.1936166733503341,0.4437955021858215
1630932249604,0.3753594756126404,0.0458661057054996,0.1631762981414795,0.4483606219291687
1630932249673,0.3592908382415771,0.0479904823005199,0.1433604210615158,0.4561845064163208
1630932249808,0.3426754772663116,0.0586668662726879,0.1386836171150207,0.4639457464218139
1630932249918,0.3294200301170349,0.0789311900734901,0.1344081461429596,0.4738130867481231
1630932250006,0.3272320628166199,0.1016973257064819,0.130614086985588,0.4942100048065185
1630932250077,0.3421963453292846,0.1198093444108963,0.1271087080240249,0.5290360450744629
1630932250198,0.3693337440490722,0.1307703703641891,0.1260779649019241,0.567566454410553
1630932250299,0.3693337440490722,0.1332974731922149,0.1281410753726959,0.567566454410553
1630932250414,0.3693337440490722,0.1332974731922149,0.1287869811058044,0.567566454410553
1630932250495,0.3693337440490722,0.1332974731922149,0.1216932833194732,0.567566454410553
1630932250591,0.3693337440490722,0.1332974731922149,0.1052748784422874,0.567566454410553
1630932250683,0.3693337440490722,0.1332974731922149,0.0864975303411483,0.567566454410553
1630932250799,0.3693337440490722,0.1332974731922149,0.0760727450251579,0.3669567704200744
1630932250905,0.3693337440490722,0.1332974731922149,0.0806274563074112,0.3855340480804443
1630932251039,0.3693337440490722,0.1332974731922149,0.0806274563074112,0.4075016975402832
1630932251130,0.3693337440490722,0.1332974731922149,0.0806274563074112,0.429617315530777
1630932251233,0.3693337440490722,0.1332974731922149,0.0806274563074112,0.445645123720169
1630932251301,0.3693337440490722,0.1332974731922149,0.0806274563074112,0.4508689939975738
1630932251402,0.3693337440490722,0.1332974731922149,0.0806274563074112,0.4461967945098877
1630932251484,0.3693337440490722,0.1332974731922149,0.2321819365024566,0.4381388425827026
1630932251641,0.3693337440490722,-0.2164220213890075,0.2499367594718933,0.4338317513465881
1630932251736,0.3693337440490722,-0.2643519341945648,0.246690958738327,0.4361305236816406
1630932251824,0.3693337440490722,-0.2854728400707245,0.2299809902906417,0.442581832408905
1630932251947,0.3693337440490722,-0.2814455330371856,0.2121921777725219,0.442581832408905
1630932251995,0.3693337440490722,-0.2612533271312713,0.2014472633600235,0.4469705820083618
1630932252124,0.3693337440490722,-0.2388471215963363,0.196789413690567,0.4550135433673858
1630932252261,0.3693337440490722,-0.2230135798454284,0.1934730112552642,0.4634702503681183
1630932252331,0.3693337440490722,-0.2134277373552322,0.1896028369665146,0.4694932401180267
1630932252422,0.3693337440490722,-0.2029023170471191,0.1872789114713668,0.4713101983070373
1630932252542,0.3693337440490722,-0.187136173248291,0.1894205659627914,0.4671491980552673
1630932252619,0.3693337440490722,-0.1721988469362259,0.1957701742649078,0.4551705121994018
1630932252731,0.3693337440490722,-0.1721988469362259,0.2096581608057022,0.4384635388851166
1630932252847,0.3693337440490722,-0.1892943978309631,0.2245509326457977,0.4272544085979461
1630932252953,0.3693337440490722,-0.1911192536354065,0.2349021136760711,0.4334105551242828
1630932253037,0.3693337440490722,-0.1787010729312896,0.237679123878479,0.4334105551242828
1630932253132,0.3693337440490722,-0.1556978821754455,0.2336316257715225,0.4334105551242828
1630932253216,0.3693337440490722,-0.1283588111400604,0.2270484566688537,0.4334105551242828
1630932253335,0.3693337440490722,-0.1032019332051277,0.2223709970712661,0.4334105551242828
1630932253471,0.3693337440490722,-0.0849836394190788,0.2202053964138031,0.4334105551242828
1630932253590,0.3693337440490722,-0.0762637257575988,0.2183876633644104,0.4334105551242828
1630932253657,0.3693337440490722,-0.0287035107612609,0.2163673937320709,0.4334105551242828
1630932253758,0.3693337440490722,0.0139623070135712,0.2154409885406494,0.4334105551242828
1630932253853,0.3693337440490722,0.0581725127995014,0.2167951315641403,0.4334105551242828
1630932253931,0.3693337440490722,0.1001555919647216,0.2201630026102066,0.4334105551242828
1630932254066,0.3693337440490722,0.1335299462080001,0.2240027338266372,0.4334105551242828
1630932254154,0.3693337440490722,0.160837173461914,0.2282505482435226,0.4334105551242828
1630932254249,0.3693337440490722,0.1587421745061874,0.2330674082040786,0.5935450792312622
1630932254333,0.3686350584030151,0.1533093601465225,0.2357443571090698,0.5904423594474792
1630932254470,0.3475000560283661,0.1495811343193054,0.234171837568283,0.6082587242126465
1630932254538,0.3288231194019317,0.1514006406068802,0.2294472008943557,0.6415470242500305
1630932254697,0.3143149316310882,0.1564761251211166,0.2258169203996658,0.6707046627998352
1630932254763,0.3052113652229309,0.1586892008781433,0.226448118686676,0.6828718185424805
1630932254900,0.3020400106906891,0.1538036465644836,0.2306621223688125,0.6781789660453796
1630932254956,0.3043396174907684,0.1428614556789398,0.2357688695192337,0.6648995280265808
1630932255071,0.3114341795444488,0.1304714232683181,0.2420505136251449,0.6496837735176086
1630932255156,0.3231628537178039,0.1206269040703773,0.250569999217987,0.6341508030891418
1630932255324,0.3365203440189361,0.1182367727160453,0.2604874968528747,0.6175928115844727
1630932255386,0.3471855521202087,0.1219899281859397,0.268381118774414,0.600958526134491
1630932255499,0.3515275120735168,0.1254495680332183,0.2705219388008117,0.5868909955024719
1630932255592,0.3466683328151703,0.12317456305027,0.2661058604717254,0.5708866119384766
1630932255655,0.3390295803546905,0.115529365837574,0.2570216357707977,0.5550261735916138
1630932255770,0.3348845839500427,0.1088815107941627,0.2453046441078186,0.5418821573257446
1630932255889,0.3375450670719147,0.1092335730791091,0.231551244854927,0.5295398235321045
