timestamp,TP9,AF7,AF8,TP10
1630932113030,0.8803406357765198,1.2798064947128296,1.2455830574035645,0.6120587587356567
1630932113193,0.8803406357765198,1.2798064947128296,1.2455830574035645,0.6120587587356567
1630932113239,0.8803406357765198,1.2798064947128296,1.2455830574035645,0.6120587587356567
1630932113371,0.8803406357765198,1.2798064947128296,1.2455830574035645,0.6120587587356567
1630932113503,0.8803406357765198,1.2798064947128296,1.2455830574035645,0.6120587587356567
1630932113539,0.8803406357765198,1.2798064947128296,1.2455830574035645,0.6120587587356567
1630932113665,0.8803406357765198,1.2798064947128296,1.2455830574035645,0.6120587587356567
1630932113747,0.8803406357765198,1.2798064947128296,1.2455830574035645,0.6120587587356567
1630932113906,0.8803406357765198,1.2798064947128296,1.2455830574035645,0.6120587587356567
1630932113950,0.8803406357765198,0.1263283193111419,1.2455830574035645,0.6120587587356567
1630932114102,0.8803406357765198,0.1298670619726181,1.2455830574035645,0.6120587587356567
1630932114202,0.8803406357765198,0.1343021094799041,1.2455830574035645,0.6120587587356567
1630932114262,0.8803406357765198,0.121018536388874,1.2455830574035645,0.6120587587356567
1630932114556,0.8803406357765198,0.1207023561000824,1.2455830574035645,0.6120587587356567
1630932114621,0.8803406357765198,0.0926960036158561,1.2455830574035645,0.6120587587356567
1630932114689,0.8803406357765198,0.1135032102465629,1.2455830574035645,0.525038480758667
1630932114773,0.8803406357765198,0.1193490251898765,1.2455830574035645,0.7124133110046387
1630932114784,0.8803406357765198,0.1193490251898765,1.2455830574035645,0.8621188998222351
1630932114865,0.8803406357765198,0.1193490251898765,1.2455830574035645,0.945424735546112
1630932115032,0.8803406357765198,0.1193490251898765,1.2455830574035645,0.9616841673851012
1630932115289,0.8803406357765198,0.1193490251898765,1.2455830574035645,0.9616841673851012
1630932115442,0.8803406357765198,0.1193490251898765,1.2455830574035645,0.9616841673851012
1630932115526,0.8803406357765198,0.1193490251898765,1.2455830574035645,0.9616841673851012
1630932115540,0.8803406357765198,0.1193490251898765,1.2455830574035645,0.9616841673851012
1630932115651,0.8803406357765198,0.0224801041185855,0.1780227571725845,0.9616841673851012
1630932115815,0.8803406357765198,-0.0270287375897169,0.2289551645517349,0.9616841673851012
1630932115849,0.8803406357765198,-0.0312763638794422,0.258009135723114,0.9634669423103333
1630932115875,0.8803406357765198,-0.0492150671780109,0.2624945938587188,0.9824405312538148
1630932116052,0.8803406357765198,-0.050830353051424,0.2631959319114685,0.9887387156486512
1630932116113,0.8803406357765198,-0.0567678660154342,0.2968737781047821,0.9851058721542358
1630932116182,0.8803406357765198,-0.0776922479271888,0.4022580087184906,0.9797390103340148
1630932116212,0.8803406357765198,-0.1153844445943832,0.4605498611927032,0.984452188014984
1630932116369,0.8803406357765198,-0.1678652018308639,0.4605754613876343,0.9921584725379944
1630932116374,0.8803406357765198,-0.1337599158287048,0.4605754613876343,0.9928176403045654
1630932116663,0.8803406357765198,-0.117514356970787,0.4605754613876343,0.9429722428321838
1630932116720,0.8803406357765198,-0.0789602920413017,0.4605754613876343,0.9429722428321838
1630932116854,0.8803406357765198,-0.0794686675071716,0.452493667602539,0.9296339154243468
1630932117049,0.8803406357765198,-0.0828701257705688,0.452493667602539,0.9246905446052552
1630932117178,0.8803406357765198,-0.0840488076210022,0.452493667602539,0.9226244688034058
1630932117284,0.8803406357765198,-0.0845444947481155,0.4523435831069946,0.9226244688034058
1630932117440,0.8803406357765198,-0.0852770060300827,0.4444614052772522,0.922723948955536
1630932117464,0.8803406357765198,-0.0710784643888473,0.42641481757164,0.9252225756645204
1630932117507,0.8803406357765198,-0.0522885285317897,0.4095489382743835,0.9072390794754028
1630932117641,0.8126798272132874,-0.0408484563231468,0.48717200756073,0.8078396320343018
1630932117738,0.8126798272132874,-0.0412656292319297,0.6911557912826538,0.6566730737686157
1630932117781,0.8126798272132874,-0.0332239493727684,0.852838397026062,0.5849931836128235
1630932117868,0.8126798272132874,-0.0033040542621165,0.9087051749229432,0.5546615123748779
1630932117934,0.8126798272132874,0.0518638379871845,0.9064037203788756,0.550981879234314
1630932117987,0.8126798272132874,0.1840623766183853,0.905950367450714,0.5589661598205566
1630932118025,0.8126798272132874,0.2523956000804901,0.905950367450714,0.5708519816398621
1630932118130,0.8126798272132874,0.2536469101905823,0.905950367450714,0.6065816283226013
1630932118335,0.8199926614761353,0.2466785311698913,0.905950367450714,0.6353615522384644
1630932118599,0.8199926614761353,0.2606990337371826,0.905950367450714,0.6353615522384644
1630932118783,0.7520719170570374,0.2738641798496246,0.905950367450714,0.6250022649765015
1630932118913,0.6138220429420471,0.3073996603488922,0.905950367450714,0.6087461709976196
1630932118928,0.4311882257461548,0.340066909790039,0.905950367450714,0.592824399471283
1630932119182,0.3492924869060516,0.3453386127948761,0.905950367450714,0.592824399471283
1630932119205,0.3115385472774505,0.3412360846996307,0.905950367450714,0.592824399471283
1630932119300,0.3024216592311859,0.3349826037883758,0.9025442004203796,0.592824399471283
1630932119380,0.2954253852367401,0.3346710801124573,0.8275253772735596,0.592824399471283
1630932119427,0.2662374377250671,0.3346710801124573,0.4112326204776764,0.592824399471283
1630932119545,0.21663299202919,0.3344641327857971,0.4112326204776764,0.592824399471283
1630932119653,0.21663299202919,0.3209022283554077,0.4112326204776764,0.592824399471283
1630932119823,0.21663299202919,0.3122003972530365,0.4112326204776764,0.592824399471283
1630932119972,0.21663299202919,0.3122003972530365,0.3822566568851471,0.592824399471283
1630932120044,0.21663299202919,0.3138417899608612,0.3827527165412903,0.592824399471283
1630932120135,0.21663299202919,0.3307846784591675,0.3827527165412903,0.592824399471283
1630932120192,0.21663299202919,0.3510090112686157,0.3827527165412903,0.592824399471283
1630932120278,0.21663299202919,0.3510414958000183,0.3827527165412903,0.592824399471283
1630932120321,0.21663299202919,0.3510414958000183,0.3827527165412903,0.592824399471283
1630932120476,0.21663299202919,0.2795527577400207,0.309204488992691,0.592824399471283
1630932120483,0.21663299202919,0.3424202501773834,0.3686647415161133,0.592824399471283
1630932120604,0.21663299202919,0.2243337333202362,0.2556397616863251,0.592824399471283
1630932120626,0.21663299202919,0.2025101631879806,0.272491455078125,0.592824399471283
1630932120752,0.21663299202919,0.1978239119052887,0.2842980921268463,0.592824399471283
1630932120876,0.21663299202919,0.1978239119052887,0.2908335030078888,0.592824399471283
1630932120976,0.21663299202919,0.214923083782196,0.2919566035270691,0.592824399471283
1630932121237,0.21663299202919,0.2591518461704254,0.3005697727203369,0.592824399471283
1630932121258,0.21663299202919,0.2838742136955261,0.3005697727203369,0.592824399471283
1630932121329,0.21663299202919,0.3022936880588531,0.2498165816068649,0.592824399471283
1630932121351,0.21663299202919,0.2992730438709259,0.2923014461994171,0.592824399471283
1630932121445,0.21663299202919,0.3022936880588531,0.2109879255294799,0.592824399471283
1630932121648,0.21663299202919,0.2750369310379028,0.2057928740978241,0.592824399471283
1630932121762,0.21663299202919,0.1995385289192199,0.2057928740978241,0.592824399471283
1630932121804,0.21663299202919,0.1583446264266967,0.2057928740978241,0.592824399471283
1630932121874,0.21663299202919,0.2114302515983581,0.2057928740978241,0.592824399471283
1630932122094,0.21663299202919,0.2930283546447754,0.2752754688262939,0.592824399471283
1630932122179,0.21663299202919,0.2911620140075683,0.3594330251216888,0.592824399471283
1630932122228,0.21663299202919,0.2911620140075683,0.3789930939674377,0.592824399471283
1630932122316,0.21663299202919,0.2893071472644806,0.3871493339538574,0.592824399471283
1630932122427,0.21663299202919,0.2869501113891601,0.389116883277893,0.592824399471283
1630932122522,0.21663299202919,0.2857154011726379,0.389116883277893,0.592824399471283
1630932122565,0.21663299202919,0.2820906043052673,0.389116883277893,0.592824399471283
1630932122695,0.21663299202919,0.2646179497241974,0.3826315701007843,0.592824399471283
1630932122784,0.21663299202919,0.2316395044326782,0.3783793449401855,0.592824399471283
1630932122950,0.21663299202919,0.2044389843940735,0.3783793449401855,0.592824399471283
1630932122964,0.21663299202919,0.209053635597229,0.3783793449401855,0.592824399471283
1630932123083,0.21663299202919,0.2119437754154205,0.4116736352443695,0.592824399471283
1630932123210,0.21663299202919,0.2418712377548217,0.4618133306503296,0.592824399471283
1630932123322,0.21663299202919,0.2718467712402344,0.5069873929023743,0.592824399471283
1630932123498,0.21663299202919,0.3002646565437317,0.5312080383300781,1.0591217279434204
1630932123523,0.21663299202919,0.1940262615680694,0.5305544137954712,1.0680301189422607
1630932123614,0.21663299202919,0.2107045650482177,0.5293176174163818,1.0680301189422607
1630932123750,0.21663299202919,0.2190618067979812,0.5256446003913879,1.0697582960128784
1630932123780,0.21663299202919,0.2203341424465179,0.5103669762611389,1.070714235305786
1630932123933,0.21663299202919,0.2220504134893417,0.484336793422699,1.070714235305786
1630932124112,0.21663299202919,0.2271672636270523,0.4825016558170318,1.070714235305786
1630932124149,0.21663299202919,0.2358760237693786,0.4898111820220947,1.070714235305786
1630932124214,0.4695008993148803,0.2453005015850067,0.4959968030452728,1.070714235305786
1630932124345,0.4695008993148803,0.2525685429573059,0.4959968030452728,1.070714235305786
1630932124440,0.4695008993148803,0.2552100419998169,0.4959968030452728,1.070714235305786
1630932124502,0.4695008993148803,0.2552100419998169,0.4952220618724823,1.070714235305786
1630932124666,0.4695008993148803,0.2552100419998169,0.486919492483139,1.070714235305786
1630932124798,0.4695008993148803,0.2552100419998169,0.3832526504993438,0.9716007113456726
1630932124807,0.4695008993148803,0.2552100419998169,0.4335728883743286,1.0444682836532593
1630932124921,0.4695008993148803,0.2545177340507507,0.3662154078483581,0.8816530108451843
1630932125002,0.4695008993148803,0.2480685412883758,0.328507512807846,0.8373097777366638
1630932125115,0.4695008993148803,0.1898423731327057,0.2750051021575928,0.7838075757026672
1630932125280,0.4695008993148803,0.1543961763381958,0.2292328774929046,0.688534677028656
1630932125388,0.4695008993148803,0.1634074598550796,0.2155897170305252,0.5873546004295349
1630932125413,0.4695008993148803,0.1750467866659164,0.2130702137947082,0.52315354347229
1630932125503,0.4695008993148803,0.1750467866659164,0.2130702137947082,0.4995189309120178
1630932125590,0.4695008993148803,0.1750467866659164,0.2088414430618286,0.4939904510974884
1630932125774,0.4695008993148803,0.1750467866659164,0.190109372138977,0.4939904510974884
1630932125843,0.4695008993148803,0.1750467866659164,0.1742101907730102,0.4939904510974884
1630932125995,0.4695008993148803,0.1750467866659164,0.1681029200553894,0.4939904510974884
1630932126127,0.4695008993148803,0.1750467866659164,0.1681029200553894,0.4939904510974884
1630932126271,0.4695008993148803,0.1750467866659164,0.1681029200553894,0.4939904510974884
1630932126301,0.4695008993148803,0.1750467866659164,0.1681029200553894,0.4939904510974884
1630932126379,0.4695008993148803,0.1750467866659164,0.1681029200553894,0.4939904510974884
1630932126606,0.4695008993148803,0.1750467866659164,0.1681029200553894,0.4939904510974884
1630932126691,0.4695008993148803,0.1571415364742279,0.1681029200553894,0.4939904510974884
1630932126732,0.4695008993148803,0.1571415364742279,0.1681029200553894,0.4939904510974884
1630932126768,0.4695008993148803,0.1571415364742279,0.1681029200553894,0.4939904510974884
1630932126855,0.4695008993148803,0.1571415364742279,0.1681029200553894,0.4939904510974884
1630932126908,0.4695008993148803,0.1571415364742279,0.1681029200553894,0.4939904510974884
1630932127160,0.5421839952468872,0.1571415364742279,0.1681029200553894,0.4939904510974884
1630932127227,0.5617192983627319,0.1571415364742279,0.1681029200553894,0.5039511322975159
1630932127316,0.6103417277336121,0.1571415364742279,0.1681029200553894,0.5109490156173706
1630932127391,0.6410861015319824,-0.0282784346491098,0.1681029200553894,0.5171583890914917
1630932127421,0.6417638063430786,0.0578298941254615,0.1681029200553894,0.5190541744232178
1630932127553,0.6473678946495056,0.1028068140149116,0.1681029200553894,0.5192082524299622
1630932127694,0.6597906351089478,0.1519362926483154,0.1681029200553894,0.5204377174377441
1630932127812,0.672930121421814,0.215449184179306,0.1681029200553894,0.5256940722465515
1630932127854,0.6962355375289917,0.3067638278007507,0.1681029200553894,0.5334773063659668
1630932127961,0.7267206907272339,0.3665351569652557,0.1681029200553894,0.5526614189147949
1630932128030,0.7506798505783081,0.3691502511501312,0.1681029200553894,0.5991790890693665
1630932128227,0.7546522617340088,0.3691502511501312,0.1681029200553894,0.6290248036384583
1630932128257,0.7415223717689514,0.3698999881744385,0.1681029200553894,0.6365760564804077
1630932128355,0.6971102952957153,0.3748008012771606,0.1681029200553894,0.6375725269317627
1630932128482,0.6496738195419312,0.3770840764045715,0.1681029200553894,0.6383349895477295
1630932128603,0.6377376914024353,0.3770840764045715,0.1681029200553894,0.6024880409240723
1630932128659,0.6377376914024353,0.3770840764045715,0.1681029200553894,0.5930038094520569
1630932128813,0.6532129645347595,0.3770840764045715,0.1681029200553894,0.6183844208717346
1630932128903,0.6915556788444519,0.3693249225616455,0.1681029200553894,0.6456146836280823
1630932128994,0.7216650247573853,0.360915333032608,0.1681029200553894,0.6831661462783813
1630932129041,0.7596060633659363,0.3541590571403503,0.1681029200553894,0.6913335919380188
1630932129148,0.8088318109512329,0.3520980477333069,0.1681029200553894,0.7166128158569336
1630932129257,0.9309674501419068,0.3699125051498413,0.1681029200553894,0.7724574208259583
1630932129371,1.038265347480774,0.3933420479297638,0.1681029200553894,0.84156334400177
1630932129559,1.1037079095840454,0.3631118237972259,0.1681029200553894,0.88700270652771
1630932129614,1.138986110687256,0.301717460155487,0.1681029200553894,0.9161491990089417
1630932129690,1.1415468454360962,0.3999873101711273,0.1681029200553894,0.9248012900352478
1630932129782,1.142494797706604,0.5034468770027161,0.1681029200553894,0.9248012900352478
1630932129937,1.142494797706604,0.5419281125068665,0.1681029200553894,0.9248012900352478
1630932129959,1.142494797706604,0.5419281125068665,0.1681029200553894,0.9248012900352478
1630932130172,1.142494797706604,0.5419281125068665,0.1681029200553894,0.9248012900352478
1630932130212,1.142494797706604,0.5419281125068665,0.1681029200553894,0.9248012900352478
1630932130290,1.1447590589523315,0.5419281125068665,0.1681029200553894,0.921228051185608
1630932130373,1.160024881362915,0.5419281125068665,0.1681029200553894,0.9169105291366576
1630932130475,1.165138602256775,0.54437255859375,0.1681029200553894,0.9092929363250732
1630932130694,1.1593868732452393,0.5659955739974976,0.1681029200553894,0.8765369057655334
1630932130800,1.148764967918396,0.5757991075515747,0.1681029200553894,0.8297309279441833
1630932130899,1.146589994430542,0.5757991075515747,0.1681029200553894,0.8092852830886841
1630932131031,1.146589994430542,0.5757991075515747,0.1681029200553894,0.8143901824951172
1630932131128,1.131127119064331,0.5692641735076904,0.1681029200553894,0.7416475415229797
1630932131191,1.0652698278427124,0.5684406161308289,-0.4250138998031616,0.6675808429718018
1630932131317,0.9684685468673706,0.5731757283210754,-0.3795951306819916,0.6454246044158936
1630932131406,0.8732758164405823,0.5379041433334351,-0.3158217370510101,0.6454246044158936
1630932131585,0.8283389806747437,0.4877725839614868,-0.2633326947689056,0.6454246044158936
1630932131612,0.822537362575531,0.4810231328010559,-0.2341523021459579,0.6454246044158936
1630932131718,0.822537362575531,0.4818265736103058,-0.2214780151844024,0.6454246044158936
1630932131925,0.822537362575531,0.4826015532016754,-0.1692588627338409,0.6227982640266418
1630932131975,0.8210973739624023,0.4826015532016754,-0.074708767235279,0.5394993424415588
1630932132104,0.772926390171051,0.4826015532016754,0.0068886778317391,0.4407483339309692
1630932132185,0.6796843409538269,0.4795242846012115,0.0584560446441173,0.3669032156467438
1630932132265,0.6150593757629395,0.4785181283950805,0.0767629966139793,0.3669032156467438
1630932132380,0.5753371715545654,0.4751526713371277,0.0787490233778953,0.3669032156467438
1630932132437,0.5753371715545654,0.4751526713371277,0.0921417996287345,0.3669032156467438
1630932132529,0.5753371715545654,0.4751526713371277,0.137703076004982,0.3669032156467438
1630932132729,0.5753371715545654,0.4751526713371277,0.137703076004982,0.3669032156467438
1630932132777,0.5753371715545654,0.4751526713371277,0.137703076004982,0.3669032156467438
1630932132848,0.5753371715545654,0.4380744099617004,0.137703076004982,0.3669032156467438
1630932132930,0.5753371715545654,0.2997964024543762,0.137703076004982,0.3669032156467438
1630932132994,0.5753371715545654,0.1517733633518219,0.137703076004982,0.3669032156467438
1630932133162,0.5753371715545654,0.086111307144165,0.137703076004982,0.3669032156467438
1630932133313,1.0930168628692627,0.068094678223133,0.1336681693792343,0.3669032156467438
1630932133374,1.0935157537460327,0.0523795299232006,0.1250428259372711,0.3669032156467438
1630932133454,1.0935157537460327,0.0354139544069767,0.1226391345262527,0.3669032156467438
1630932133603,1.0935157537460327,0.0151131199672818,0.1223878413438797,0.3669032156467438
1630932133665,1.0935157537460327,0.00624764803797,0.1034260541200637,0.3669032156467438
1630932133853,1.0935157537460327,0.1229431107640266,0.1034260541200637,0.3669032156467438
1630932134048,1.095017671585083,0.1644015163183212,0.1034260541200637,0.3669032156467438
1630932134116,1.1029928922653198,0.1721163988113403,0.1034260541200637,0.3669032156467438
1630932134253,1.114358901977539,0.1704290211200714,0.1034260541200637,0.8222247958183289
1630932134290,1.114358901977539,0.1910784691572189,0.1034260541200637,0.8222247958183289
1630932134340,1.114358901977539,0.272949755191803,0.1034260541200637,0.8222247958183289
1630932134540,1.1033498048782349,0.3650931715965271,0.1034260541200637,0.8222247958183289
1630932134664,1.090792894363403,0.3921244442462921,0.1034260541200637,0.8390471339225769
1630932134666,1.0466539859771729,0.3978969156742096,0.1034260541200637,0.8390471339225769
1630932134745,0.9484065175056458,0.397903710603714,0.1034260541200637,0.8390471339225769
1630932134832,0.868754506111145,0.397903710603714,0.1034260541200637,0.8390471339225769
1630932135230,0.834467887878418,0.397903710603714,0.1034260541200637,0.8390471339225769
1630932135263,0.8247308731079102,0.397903710603714,0.1034260541200637,0.8390471339225769
1630932135513,0.8213119506835938,0.397903710603714,0.1034260541200637,0.8416582942008972
1630932135579,0.8204240798950195,0.3803434669971466,0.1034260541200637,0.8568023443222046
1630932135690,0.8204240798950195,0.3674819469451904,0.1034260541200637,0.7961742281913757
1630932135902,0.8204240798950195,0.3674819469451904,0.1034260541200637,0.7528657913208008
1630932136140,0.8204240798950195,0.3674819469451904,0.1034260541200637,0.7548739910125732
1630932136177,0.8204240798950195,0.3676436841487884,0.1034260541200637,0.7548739910125732
1630932136181,0.8204240798950195,0.3693396151065826,0.1034260541200637,0.7548739910125732
1630932136220,1.2534739971160889,0.3377526998519897,0.1034260541200637,0.752626895904541
1630932136221,0.8204240798950195,0.3536010980606079,0.1034260541200637,0.7537153959274292
1630932136274,1.2534739971160889,1.436532974243164,0.1034260541200637,1.2521140575408936
1630932136306,1.2534739971160889,1.436532974243164,0.1034260541200637,1.2521140575408936
1630932136310,1.2534739971160889,1.436532974243164,0.1034260541200637,1.2521140575408936
1630932136373,1.2534739971160889,1.436532974243164,0.1086214929819107,1.2521140575408936
1630932136513,1.2534739971160889,1.436532974243164,0.306847482919693,1.2521140575408936
1630932136681,1.2534739971160889,1.436532974243164,0.3964926600456238,1.2521140575408936
1630932136757,1.2534739971160889,1.436532974243164,0.4117854237556457,1.2521140575408936
1630932136982,1.2534739971160889,1.436532974243164,0.4117854237556457,1.2513762712478638
1630932137069,1.2534739971160889,1.490581512451172,1.194492220878601,1.2479585409164429
1630932137100,1.2534739971160889,1.490581512451172,1.194492220878601,1.2460174560546875
1630932137228,1.2534739971160889,1.490581512451172,1.194492220878601,1.2460174560546875
1630932137273,1.2534739971160889,1.490581512451172,1.194492220878601,1.2460174560546875
1630932137314,1.2534739971160889,1.490581512451172,1.194492220878601,1.2460174560546875
1630932137453,1.2534739971160889,1.490581512451172,1.194492220878601,1.2460174560546875
1630932137513,1.2534739971160889,1.490581512451172,1.194492220878601,1.2460174560546875
1630932137763,0.3298467099666595,1.4439505338668823,1.194492220878601,0.3309758603572845
1630932137768,1.2534739971160889,1.4439505338668823,1.194492220878601,1.2460174560546875
1630932137790,0.4211975038051605,1.4439505338668823,1.194492220878601,0.3309758603572845
1630932137895,0.476042240858078,1.4439505338668823,1.194492220878601,0.3309758603572845
1630932138023,0.498980849981308,1.4439505338668823,1.194492220878601,0.3309758603572845
1630932138122,0.5046173334121704,1.4439505338668823,1.194492220878601,0.3309758603572845
1630932138232,0.5046173334121704,1.4439505338668823,1.194492220878601,0.3463839590549469
1630932138302,0.5046173334121704,1.4439505338668823,1.194492220878601,0.364549458026886
1630932138454,0.5046173334121704,-0.0143960257992148,0.1897245645523071,0.3656489551067352
1630932138626,0.5046173334121704,-0.0450082831084728,0.2611419856548309,0.3656489551067352
1630932138754,0.5223026871681213,-0.0577038899064064,0.3429459929466247,0.3656489551067352
1630932138781,0.5087330937385559,-0.0521429665386676,0.3261634707450866,0.3656489551067352
1630932138821,0.53279048204422,-0.063558280467987,0.3458494842052459,0.3656489551067352
1630932139019,0.518822193145752,-0.0593704804778099,0.3458494842052459,0.3560847043991089
1630932139106,0.518822193145752,-0.0272893570363521,0.374821275472641,0.3866400718688965
1630932139354,0.518822193145752,-0.0291766319423913,0.4348706007003784,0.4359081089496612
1630932139400,0.5280839800834656,-0.0143462549895048,0.4185487627983093,0.4737753868103027
1630932139604,0.5460838079452515,-0.0096182413399219,0.4017877876758575,0.5058794021606445
1630932139608,0.5657410025596619,-0.0103383101522922,0.4017877876758575,0.5968140363693237
1630932139610,0.6226803064346313,-0.0143012125045061,0.4017877876758575,0.5968140363693237
1630932145116,0.0,0.0,0.0,0.0
1630932145186,0.0,0.0,0.0,0.0
1630932145290,0.0,0.0,0.0,0.0
1630932145376,0.0,0.0,0.0,0.0
1630932145471,0.0,0.0,0.0,0.0
1630932145627,0.0,0.0,0.0,0.0
1630932145698,0.0,0.0,0.0,0.0
1630932145786,0.0,0.0,0.0,0.0
1630932145870,0.0,0.0,0.0,0.0
1630932145964,0.0,0.0,0.0,0.0
1630932146053,0.0,0.0,0.0,0.0
1630932146205,0.0,0.0,0.0,0.0
1630932146322,0.0,0.0,0.0,0.0
1630932146413,0.0,0.0,0.0,0.0
1630932146504,0.0,0.0,0.0,0.0
1630932146591,0.0,0.0,0.0,0.0
1630932146720,0.0,0.0,0.0,0.0
1630932146814,0.0,0.0,0.0,0.0
1630932146908,0.0,0.0,0.0,0.0
1630932147013,0.0,0.0,0.0,0.0
1630932147216,0.0,0.0,0.0,0.0
1630932147303,0.5636718273162842,-0.2311648726463318,-0.1471625417470932,0.774651050567627
1630932147444,0.5747148990631104,-0.1244999691843986,-0.1051756888628006,0.8307093977928162
1630932147534,0.5983648896217346,-0.0313238725066185,-0.0830812826752662,0.8347777724266052
1630932147616,0.6121953725814819,0.0337665379047393,-0.0730071291327476,0.8458458185195923
1630932147727,0.6206794381141663,0.085457719862461,-0.0721060782670974,0.8592451810836792
1630932147823,0.6273302435874939,0.1159866377711296,-0.067954696714878,0.8797557950019836
1630932147913,0.6291760802268982,0.1309165507555008,-0.0661329105496406,0.9079270958900452
1630932148045,0.6391480565071106,0.1346501857042312,-0.0661329105496406,0.922974705696106
1630932148135,0.6447096467018127,0.1394242495298385,-0.0661329105496406,0.9377140998840332
1630932148252,0.6458806991577148,0.1427663415670395,-0.0553576126694679,0.9463284611701964
1630932148317,0.6458806991577148,0.1496966034173965,-0.0552695989608764,0.9506669640541076
1630932148422,0.6527430415153503,0.1496966034173965,-0.0540620163083076,0.9506669640541076
1630932148536,0.6659640669822693,0.1496966034173965,-0.0542052946984767,0.9506669640541076
1630932148676,0.6723259091377258,0.1515963822603225,-0.0439164526760578,0.9506669640541076
1630932148729,0.6723259091377258,0.1650114804506302,-0.0163033679127693,0.9506669640541076
1630932148831,0.6723259091377258,0.2017470896244049,0.0234749391674995,0.9503494501113892
1630932148919,0.6701174974441528,0.2381844371557235,0.0434726141393184,0.938740611076355
1630932149029,0.6665938496589661,0.2573433518409729,0.0455301329493522,0.8863570094108582
1630932149162,0.6604031324386597,0.2443111836910247,0.0556084513664245,0.8410868048667908
1630932149251,0.6608311533927917,0.1985049694776535,0.0758033692836761,0.8426019549369812
1630932149368,0.6767982840538025,0.1309343725442886,0.1263409256935119,0.8446650505065918
1630932149483,0.6761353611946106,0.1163278669118881,0.1923980265855789,0.8446650505065918
1630932149547,0.6913495063781738,0.1021219566464424,0.2983818650245666,0.8150174617767334
1630932149641,0.6977267265319824,0.0977705791592598,0.3749124407768249,0.7369714975357056
1630932149738,0.7131578326225281,0.0967459604144096,0.4157081544399261,0.6809845566749573
1630932149881,0.7131578326225281,0.0972915962338447,0.4392630159854889,0.6790449619293213
1630932149980,0.721479058265686,0.1219766959547996,0.4615062773227691,0.6642365455627441
1630932150056,0.7660189867019653,0.1637555807828903,0.4668865501880646,0.682816743850708
1630932150141,0.904561161994934,0.211918368935585,0.4668865501880646,0.7496973276138306
1630932150233,1.0423299074172974,0.2265339493751526,0.4668865501880646,0.846833348274231
1630932150322,1.1101421117782593,0.2337864637374878,0.46738201379776,0.8873119354248047
1630932150486,1.134554743766785,0.2233690321445465,0.4599280953407287,0.8873119354248047
1630932150565,1.140361189842224,0.224512293934822,0.4452977180480957,0.8875969648361206
1630932150664,1.151492953300476,0.2364761382341385,0.4398703873157501,0.8954494595527649
1630932150747,1.169522762298584,0.2598289251327514,0.4402232766151428,0.8930011987686157
1630932150863,1.162449836730957,0.2598405182361603,0.4409628808498382,0.8930011987686157
1630932150952,1.1587822437286377,0.2356533408164978,0.4416095912456512,0.8930011987686157
1630932151103,1.1587822437286377,0.2302924394607544,0.4456739723682403,0.8930011987686157
1630932151199,1.1587822437286377,0.2302924394607544,0.4551191031932831,0.8930011987686157
1630932151289,1.1587822437286377,0.2302924394607544,0.4686977565288543,0.8930011987686157
1630932151355,1.1587822437286377,0.2302924394607544,0.4500103890895843,0.8930011987686157
1630932151466,1.158203363418579,0.2297378033399582,0.3943896293640136,0.899842381477356
1630932151555,1.155410647392273,0.2242782115936279,0.3057355582714081,0.9271172881126404
1630932151685,1.159589409828186,0.2058128416538238,0.2101329565048217,0.931882619857788
1630932151804,1.1763153076171875,0.1606428772211074,0.1533858031034469,0.9236801266670228
1630932151890,1.1649045944213867,0.0824494883418083,0.1624687761068344,0.8756231069564819
1630932151982,1.1355758905410769,-0.0208888687193393,0.1768566071987152,0.773882269859314
1630932152072,1.0890967845916748,-0.0803854316473007,0.1789314895868301,0.7787447571754456
1630932152156,1.0266956090927124,0.0700932443141937,0.1789314895868301,0.836922824382782
1630932152287,0.9806020855903624,0.0589669682085514,0.1893626600503921,0.8399465084075928
1630932152382,0.9806020855903624,-0.0140379406511783,0.2644977867603302,0.8399465084075928
1630932152485,0.9806020855903624,-0.0329603217542171,0.2952587604522705,0.8399465084075928
1630932152630,0.9806020855903624,0.066531516611576,0.2952587604522705,0.8399465084075928
1630932152674,0.9806020855903624,0.1642531156539917,0.2952587604522705,0.8399465084075928
1630932152781,0.9806020855903624,0.1962846964597702,0.2944827973842621,0.8399465084075928
1630932152912,0.9806020855903624,0.1962846964597702,0.2694881558418274,0.8353612422943115
1630932153003,0.9828592538833618,0.1962846964597702,0.2985919713973999,0.8414075374603271
1630932153102,1.0265388488769531,0.1888581067323684,0.3618361949920654,0.8637740015983582
1630932153210,1.093962788581848,0.1902170777320861,0.3832080066204071,0.9180266261100768
1630932153331,1.128981590270996,0.1937195509672165,0.3945315778255462,0.9565069675445556
1630932153385,1.1215418577194214,0.1954052746295929,0.4116316735744476,0.974077582359314
1630932153526,1.0787248611450195,0.1956019699573516,0.4149111807346344,0.9914953708648682
1630932153613,0.9680203795433044,0.1956019699573516,0.3951647877693176,1.0692689418792725
1630932153699,1.0351126194000244,0.1820789724588394,0.3919530510902405,1.11032235622406
1630932153806,1.082063913345337,0.156950369477272,0.3919530510902405,1.1094937324523926
1630932153900,1.1115741729736328,0.1452807784080505,0.3919530510902405,1.1219030618667605
1630932154000,1.1168972253799438,0.1233211159706115,0.3882580101490021,1.1392745971679688
1630932154152,1.119706153869629,0.1123066768050193,0.3882580101490021,1.148645281791687
1630932154242,1.1368622779846191,0.1173641234636306,0.3882580101490021,1.1559698581695557
1630932154325,1.1594377756118774,0.0683030188083648,0.3868002295494079,1.159318447113037
1630932154437,1.1755995750427246,-0.0328982397913932,0.3812247812747955,1.1792789697647097
1630932154505,1.1816048622131348,-0.088201142847538,0.3785780668258667,1.1926476955413818
1630932154627,1.1866161823272705,-0.0956410691142082,0.3776807188987732,1.1928685903549194
1630932154761,1.1918253898620603,-0.0956410691142082,0.3352848887443542,1.1977695226669312
1630932154847,1.1880055665969849,-0.1033139526844024,0.3063809275627136,1.2027854919433594
1630932154934,1.1464595794677734,-0.1143097057938575,0.2977335453033447,1.1885930299758911
1630932155024,1.1066546440124512,-0.1277187615633011,0.2716666758060455,1.171078324317932
1630932155118,1.102285623550415,-0.1179366409778595,0.2148852795362472,1.1534974575042725
1630932155248,1.102285623550415,-0.0882980898022651,0.1092543974518776,1.1449317932128906
1630932155329,1.102285623550415,-0.0721919685602188,-0.0152758806943893,1.1449317932128906
1630932155426,1.101936936378479,-0.0459793768823146,-0.0484698824584484,1.1428238153457642
1630932155510,1.0827414989471436,-0.0534216649830341,-0.0575207024812698,1.14007568359375
1630932155648,1.0272104740142822,-0.0628050491213798,-0.0593760795891284,1.1254037618637085
1630932155715,0.9661733508110046,-0.0906383246183395,-0.0593760795891284,1.10402512550354
1630932155845,0.9440749287605286,-0.1098876073956489,-0.0415078923106193,1.1641112565994265
1630932155939,1.4186774492263794,-0.1215410381555557,0.0041193524375557,1.2471165657043457
1630932156070,1.4491373300552368,-0.1242813244462013,0.0570499077439308,1.2785415649414062
1630932156138,1.4511045217514038,-0.1242813244462013,0.0392720103263855,1.2555272579193115
1630932156255,1.4530596733093262,-0.1242813244462013,-0.0046701030805706,1.2467694282531738
1630932156337,1.4603114128112793,-0.1242813244462013,0.1959640681743621,1.2419419288635254
1630932156427,1.4979217052459717,-0.1242813244462013,0.224195972084999,1.229196310043335
1630932156567,1.5374159812927246,-0.1242813244462013,0.2331527024507522,1.217949390411377
1630932156665,1.5527898073196411,-0.1242813244462013,0.2331527024507522,1.2111942768096924
1630932156742,1.5598305463790894,-0.1242813244462013,0.2346268445253372,1.2081754207611084
1630932156854,1.5598305463790894,-0.1242813244462013,0.2346268445253372,1.2222195863723757
1630932156955,1.5598305463790894,-0.1242813244462013,0.2346268445253372,1.23612380027771
1630932157052,1.5598305463790894,-0.1242813244462013,0.2346268445253372,1.2483606338500977
1630932157220,1.5598305463790894,-0.1242813244462013,0.2367163300514221,1.2518576383590698
1630932157281,1.5598305463790894,-0.2680630087852478,0.2509931325912475,1.2518576383590698
1630932157402,1.5598305463790894,-0.2605335116386413,0.2753871381282806,1.250335693359375
1630932157459,1.5589135885238647,-0.2534716427326202,0.2753163576126098,1.2500437498092651
1630932157550,1.520844340324402,-0.240213468670845,0.2563732862472534,1.22238290309906
1630932157637,1.431246995925903,-0.2182023376226425,0.2563732862472534,1.133159875869751
1630932157776,1.3302230834960938,-0.1769407391548156,0.2563732862472534,1.0359163284301758
1630932157909,1.3263163566589355,-0.1436433941125869,0.2470505833625793,0.9551506042480468
1630932157972,1.3246793746948242,-0.0886110514402389,0.2222512662410736,0.9620083570480348
1630932158076,1.3156077861785889,-0.0683844611048698,0.2035238295793533,0.9620090126991272
1630932158162,1.2981094121932983,-0.0243658106774091,0.2035238295793533,0.9620090126991272
1630932158240,1.2729346752166748,0.0076525644399225,0.2035238295793533,0.9620090126991272
1630932158405,1.230035662651062,0.0286335814744234,0.2035238295793533,0.9596434235572816
1630932158490,1.17876935005188,0.0384712517261505,0.2035238295793533,0.9272931218147278
1630932158583,1.1238840818405151,0.0322869904339313,0.2035238295793533,0.9163711071014404
1630932158686,1.0731914043426514,0.0272209141403436,0.2012996971607208,0.9039666652679444
1630932158756,1.045135736465454,0.0708407759666442,0.2012996971607208,0.8820202946662903
1630932158853,1.045135736465454,0.1845935881137848,0.2272680848836898,0.8726190328598022
1630932159013,1.045135736465454,0.2486569285392761,0.1364998668432235,0.8781858086585999
1630932159132,1.045135736465454,0.2743736207485199,0.0651459693908691,0.8781858086585999
1630932159206,1.045135736465454,0.2887617945671081,0.0544433332979679,0.8781858086585999
1630932159292,1.042325735092163,0.2887617945671081,0.0807888731360435,0.8610789775848389
1630932159378,1.0086259841918943,0.2887617945671081,0.1332341134548187,0.8137474656105042
1630932159479,0.8979429602622986,0.2873830199241638,0.1793112605810165,0.7212151288986206
1630932159606,0.8979429602622986,0.2831734418869018,0.2338466048240661,0.6607639193534851
1630932159713,0.8979429602622986,0.3400370478630066,0.2787098288536072,0.7481204271316528
1630932159831,0.8979429602622986,0.4440780282020569,0.2787098288536072,0.8412603735923767
1630932159899,0.8979429602622986,0.4807533025741577,0.2787098288536072,0.8799895644187927
1630932159988,0.8979429602622986,0.4807533025741577,0.2787098288536072,0.8799895644187927
1630932160090,0.8979429602622986,0.4807533025741577,0.2787098288536072,0.8799895644187927
1630932160216,0.8979429602622986,0.4807533025741577,0.2787098288536072,0.8799895644187927
1630932160346,0.8979429602622986,0.4807533025741577,0.3005469739437103,0.8799895644187927
1630932160407,0.8979429602622986,0.4807533025741577,0.3018764853477478,0.8799895644187927
1630932160502,0.8979429602622986,0.4807533025741577,0.3018764853477478,0.8799895644187927
1630932160589,0.8979429602622986,0.4766126871109009,0.2988973557949066,0.8799895644187927
1630932160679,0.8979429602622986,0.4683445692062378,0.2969355285167694,0.8799895644187927
1630932160837,0.8979429602622986,0.4544089436531067,0.2969355285167694,0.8799895644187927
1630932160926,0.8979429602622986,0.443524032831192,0.2969355285167694,0.8799895644187927
1630932161071,0.8979429602622986,0.4302809536457062,0.2969355285167694,0.8799895644187927
1630932161139,0.8979429602622986,0.4210590422153473,0.2969355285167694,0.8799895644187927
1630932161215,0.8979429602622986,0.4175742864608764,0.1812564581632614,0.8791689276695251
1630932161310,0.8979429602622986,0.3978868722915649,0.2130232900381088,0.8401172757148743
1630932161449,0.5963467359542847,0.2889981269836426,0.2462864220142364,0.7395386695861816
1630932161535,0.6225248575210571,0.0633103027939796,0.2462864220142364,0.6296833753585815
1630932161622,0.6327667832374573,-0.1142065003514289,0.2462864220142364,0.6230055093765259
1630932161711,0.6346250772476196,-0.1854714453220367,0.2462864220142364,0.6230055093765259
1630932161824,0.6368765830993652,-0.2161072939634323,0.2448507845401764,0.622086763381958
1630932161931,0.639365553855896,-0.206984207034111,0.2200502306222915,0.6188711524009705
1630932162052,0.6421182751655579,-0.1955117881298065,0.2062549442052841,0.6099416613578796
1630932162181,0.6425458192825317,-0.1952777504920959,0.1900700777769088,0.5950860381126404
1630932162251,0.6446889638900757,-0.1952777504920959,0.1691057682037353,0.5887412428855896
1630932162336,0.6534773111343384,-0.1952777504920959,0.1466633826494217,0.5813415050506592
1630932162436,0.7080605030059814,-0.1952777504920959,0.1522199511528015,0.56478351354599
1630932162517,0.7449676990509033,-0.1952777504920959,0.1700425744056701,0.5444538593292236
1630932162670,0.7449676990509033,-0.1965719014406204,0.1887862682342529,0.5455955862998962
1630932162766,0.7410815358161926,-0.1801148056983947,0.233297973871231,0.5445999503135681
1630932162854,0.7301182746887207,-0.1721067428588867,0.2658531069755554,0.5223425626754761
1630932162952,0.7121660113334656,-0.1674975752830505,0.2547610104084015,0.5223425626754761
1630932163052,0.703289806842804,-0.1674975752830505,0.2131736427545547,0.5223425626754761
1630932163149,0.7035175561904907,-0.1633515506982803,0.1855391710996627,0.5182999968528748
1630932163283,0.7027275562286377,-0.1590767502784729,0.1716664880514145,0.4991250336170196
1630932163370,0.7012867331504822,-0.1786374896764755,0.2088964879512787,0.515779972076416
1630932163481,0.7002459168434143,-0.2233966886997223,0.2600374519824981,0.5488182306289673
1630932163572,0.7002459168434143,-0.2758655548095703,0.2911821603775024,0.5677922964096069
1630932163660,0.6920832991600037,-0.3306727111339569,0.331859290599823,0.5742602944374084
1630932163743,0.6898521184921265,-0.3883735835552215,0.376893937587738,0.5669533610343933
1630932163881,0.6822779178619385,-0.3098047375679016,0.3937544822692871,0.5578087568283081
1630932163968,0.6815822124481201,-0.1974029690027237,0.3937544822692871,0.5711570382118225
1630932164082,0.6439433693885803,-0.0875767022371292,0.3937544822692871,0.5728415250778198
1630932164174,0.5563293099403381,0.0315397419035434,0.3869702816009521,0.5717818737030029
1630932164255,0.541592001914978,0.1408661603927612,0.3801029920578003,0.5606781840324402
1630932164351,0.541592001914978,0.1985209137201309,0.3679534792900085,0.542576014995575
1630932164507,0.541592001914978,0.245802953839302,0.353416383266449,0.5306432843208313
1630932164599,0.541592001914978,0.3070671260356903,0.3519622981548309,0.5271486639976501
1630932164682,0.5375093817710876,0.3461772799491882,0.3519622981548309,0.5274052619934082
1630932164771,0.500713050365448,0.3495165407657623,0.3519622981548309,0.5343824625015259
1630932164882,0.4875812828540802,0.3495165407657623,0.3487524390220642,0.5368542671203613
1630932164963,0.4842065572738647,0.3495165407657623,0.3298923075199127,0.5390952229499817
1630932165113,0.484746515750885,0.3495165407657623,0.3042429089546203,0.5330798625946045
1630932165202,0.4856200218200683,0.3495165407657623,0.2864517569541931,0.5228790640830994
1630932165292,0.5101647973060608,0.3495165407657623,0.2635075151920318,0.5173918008804321
1630932165412,0.5174586176872253,0.3495165407657623,0.2104813754558563,0.5193516612052917
1630932165501,0.5143804550170898,0.3592800199985504,0.0973969623446464,0.5434569120407104
1630932165588,0.5325980186462402,0.3712133467197418,-0.0165878590196371,0.5423092246055603
1630932165720,0.537545382976532,0.3766282498836517,0.0055728163570165,0.5436134934425354
1630932165836,0.530215322971344,0.3752502202987671,0.1070981547236442,0.5618241429328918
1630932165904,0.5078637599945068,0.3549101948738098,0.2157483249902725,0.5689138174057007
1630932166015,0.5295950174331665,0.314545065164566,0.2745783030986786,0.5853651165962219
1630932166131,0.6550343036651611,0.2895939350128174,0.289805144071579,0.5993684530258179
1630932166202,0.7712697982788086,0.282964140176773,0.289805144071579,0.5993684530258179
1630932166321,0.8196539282798767,0.2496601045131683,0.289805144071579,0.5993684530258179
1630932166403,0.8205975294113159,0.2069001197814941,0.289805144071579,0.5959839820861816
1630932166551,0.8210844397544861,0.1482972651720047,0.289805144071579,0.5959839820861816
1630932166606,0.8298668265342712,0.1071465760469436,0.289805144071579,0.5959839820861816
1630932166699,0.8485738635063171,0.1050515919923782,0.289805144071579,0.5959839820861816
1630932166790,0.8846763968467712,0.1071344465017318,0.289805144071579,0.598426103591919
1630932166947,0.9266803860664368,0.1065563783049583,0.289805144071579,0.598426103591919
1630932167031,0.9293439984321594,0.1117710992693901,0.289805144071579,0.5974200963973999
1630932167128,0.9291391372680664,0.0963043794035911,0.2844025194644928,0.5764101147651672
1630932167217,0.927769899368286,0.0721962451934814,0.2752803266048431,0.5640541315078735
1630932167302,0.927769899368286,0.0466271452605724,0.2410237044095993,0.5490041971206665
1630932167413,0.927769899368286,0.0483250468969345,0.1905295699834823,0.5428794026374817
1630932167580,0.927769899368286,0.0895499885082244,0.1156370341777801,0.5454495549201965
1630932167640,0.927769899368286,0.0820942968130111,0.0132681969553232,0.5018357038497925
1630932167730,0.9232173562049866,0.0281752720475196,-0.0070284367538988,0.4692173898220062
1630932167819,0.9066452980041504,-0.0184773430228233,-0.0069113289937376,0.5228691101074219
1630932167948,0.8692084550857544,-0.0340163186192512,-0.0069113289937376,0.5483582019805908
1630932168020,0.8430666327476501,-0.0340163186192512,-0.0071419747546315,0.5483582019805908
1630932168157,0.8321775794029236,-0.0340163186192512,-0.00952691398561,0.5483582019805908
1630932168270,0.8321775794029236,-0.0340163186192512,-0.00952691398561,0.5483582019805908
1630932168355,0.8321775794029236,-0.0340163186192512,-0.00952691398561,0.5419397354125977
1630932168452,0.824958086013794,-0.0352317653596401,-0.0134829133749008,0.5370526909828186
1630932168536,0.7804051041603088,-0.0470257997512817,-0.0672803670167923,0.5312435030937195
1630932168619,0.7436918020248413,-0.0616054013371467,-0.123971126973629,0.5286892652511597
1630932168754,0.7303750514984131,-0.0665196329355239,-0.1675265580415725,0.5260952115058899
1630932168871,0.7190716862678528,-0.068512737751007,-0.2165110111236572,0.522125780582428
1630932168966,0.7045427560806274,-0.0726690962910652,-0.2823891043663025,0.5117969512939453
1630932169044,0.6800832152366638,-0.0868428200483322,-0.3776987195014953,0.5040808916091919
1630932169170,0.6800832152366638,-0.0868428200483322,-0.3776987195014953,0.4980641603469848
1630932169248,0.6800832152366638,-0.0868428200483322,-0.3776987195014953,0.4788658916950226
1630932169360,0.6800832152366638,-0.0868428200483322,-0.3776987195014953,0.4788658916950226
1630932169498,0.6800832152366638,-0.0868428200483322,-0.3776987195014953,0.4788658916950226
1630932169563,0.6800832152366638,-0.0868428200483322,-0.3776987195014953,0.4788658916950226
1630932169671,0.6800832152366638,-0.0868428200483322,-0.3776987195014953,0.4788658916950226
1630932169763,0.6800832152366638,-0.0868428200483322,-0.3776987195014953,0.4788658916950226
1630932169855,0.6800832152366638,-0.0868428200483322,-0.3776987195014953,0.4788658916950226
1630932169966,0.6800832152366638,-0.0868428200483322,-0.3776987195014953,0.4788658916950226
1630932170082,0.6800832152366638,-0.0868428200483322,-0.3776987195014953,0.4788658916950226
1630932170163,0.6800832152366638,-0.0868428200483322,-0.3776987195014953,0.4788658916950226
1630932170264,0.6800832152366638,-0.0868428200483322,-0.3776987195014953,0.4788658916950226
1630932170366,0.6800832152366638,-0.0868428200483322,-0.3776987195014953,0.4788658916950226
1630932170476,0.6800832152366638,-0.0868428200483322,-0.3776987195014953,0.4788658916950226
1630932170591,0.6800832152366638,-0.0839261412620544,-0.3776987195014953,0.4788658916950226
1630932170680,0.6800832152366638,0.0735859274864196,-0.3776987195014953,0.4788658916950226
1630932170765,0.6800832152366638,0.1966336369514465,-0.3776987195014953,0.4788658916950226
1630932170861,0.6800832152366638,0.2924039363861084,-0.3776987195014953,0.4788658916950226
1630932171037,0.6800832152366638,0.389725923538208,-0.3776987195014953,0.4788658916950226
1630932171062,0.6800832152366638,0.4779755175113678,-0.3776987195014953,0.4788658916950226
1630932171217,0.6800832152366638,0.5455964803695679,-0.3776987195014953,0.4788658916950226
1630932171319,0.6800832152366638,0.5455964803695679,-0.3776987195014953,0.4788658916950226
1630932171375,0.6800832152366638,0.5455964803695679,-0.3776987195014953,0.4788658916950226
1630932171469,0.6800832152366638,0.5455964803695679,-0.3776987195014953,0.4788658916950226
1630932171581,0.6800832152366638,0.5455964803695679,-0.3776987195014953,0.4788658916950226
1630932171669,0.6800832152366638,0.5455964803695679,-0.3776987195014953,0.4788658916950226
1630932171822,0.6800832152366638,0.5455964803695679,-0.3776987195014953,0.4788658916950226
1630932171888,0.6800832152366638,0.5455964803695679,-0.3776987195014953,0.4788658916950226
1630932171996,0.6800832152366638,0.5455964803695679,-0.3776987195014953,0.4788658916950226
1630932172095,0.6800832152366638,0.5445783734321594,-0.3776987195014953,0.4788658916950226
1630932172199,0.6800832152366638,0.538805365562439,-0.3776987195014953,0.4788658916950226
1630932172293,0.6800832152366638,0.5353590846061707,-0.3776987195014953,0.4788658916950226
1630932172432,0.6800832152366638,0.5353590846061707,-0.3776987195014953,0.4788658916950226
1630932172511,0.6800832152366638,0.5353590846061707,-0.3776987195014953,0.4788658916950226
1630932172607,0.6800832152366638,0.5353590846061707,-0.3776987195014953,0.4788658916950226
1630932172717,0.6800832152366638,0.5353590846061707,-0.3776987195014953,0.4788658916950226
1630932172815,0.6800832152366638,0.5353590846061707,-0.3776987195014953,0.4788658916950226
1630932172873,0.6800832152366638,0.5353590846061707,-0.3776987195014953,0.4788658916950226
1630932173060,0.6800832152366638,0.5353590846061707,-0.3776987195014953,0.4788658916950226
1630932173139,0.6800832152366638,0.5353590846061707,-0.3776987195014953,0.4788658916950226
1630932173207,0.6800832152366638,0.5353590846061707,-0.3776987195014953,0.4788658916950226
1630932173292,0.6800832152366638,0.5353590846061707,-0.3776987195014953,0.4788658916950226
1630932173389,0.6800832152366638,0.5353590846061707,-0.3776987195014953,0.4788658916950226
1630932173510,0.6800832152366638,0.5353590846061707,-0.3776987195014953,0.4788658916950226
1630932173636,0.6800832152366638,0.5353590846061707,-0.3776987195014953,0.4788658916950226
1630932173726,0.6800832152366638,0.5353590846061707,-0.3776987195014953,0.4788658916950226
1630932173835,0.6800832152366638,0.5353590846061707,-0.3776987195014953,0.4788658916950226
1630932173948,0.6800832152366638,0.5353590846061707,-0.3776987195014953,0.4788658916950226
1630932174040,0.6800832152366638,0.5353590846061707,-0.3776987195014953,0.4788658916950226
1630932174107,0.6800832152366638,0.5353590846061707,-0.3776987195014953,0.4788658916950226
1630932174264,0.6800832152366638,0.5353590846061707,-0.3776987195014953,0.4788658916950226
1630932174356,0.6800832152366638,0.5353590846061707,-0.3776987195014953,0.4788658916950226
1630932174419,0.6800832152366638,0.5353590846061707,-0.3776987195014953,0.4788658916950226
1630932174549,0.6800832152366638,0.5353590846061707,-0.3776987195014953,0.4788658916950226
1630932174670,0.6800832152366638,0.5353590846061707,-0.3776987195014953,0.4788658916950226
1630932174731,0.6800832152366638,0.5353590846061707,-0.3776987195014953,0.4788658916950226
1630932174905,0.6800832152366638,0.1933637410402298,-0.3776987195014953,0.4788658916950226
1630932174950,0.6800832152366638,0.2135823220014572,-0.3776987195014953,0.6381723880767822
1630932175076,0.6800832152366638,0.2241659611463546,-0.3776987195014953,0.7649716138839722
1630932175153,0.6800832152366638,0.2312566637992859,-0.3776987195014953,0.8718447089195251
1630932175224,0.6800832152366638,0.2349187284708023,-0.3776987195014953,0.9251385927200316
1630932175331,0.6800832152366638,0.2375242859125137,-0.3776987195014953,0.9358327984809875
1630932175469,0.6800832152366638,0.2441702038049698,-0.3776987195014953,0.9444128274917604
1630932175554,0.6800832152366638,0.2505966424942016,-0.3776987195014953,0.946124792098999
1630932175649,0.6800832152366638,0.2505966424942016,-0.3776987195014953,0.946124792098999
1630932175763,0.6800832152366638,0.2505966424942016,-0.3776987195014953,0.946124792098999
1630932175844,0.6800832152366638,0.2505966424942016,-0.3776987195014953,0.946124792098999
1630932175939,0.6800832152366638,0.2537501156330108,-0.3776987195014953,0.946124792098999
1630932176091,0.6800832152366638,0.2400108873844146,-0.3776987195014953,0.946124792098999
1630932176181,0.6800832152366638,0.2776391804218292,-0.3776987195014953,0.931334912776947
1630932176268,0.6800832152366638,0.3535327017307281,-0.0185877736657857,0.9159480333328248
1630932176364,0.6800832152366638,0.3602049350738525,-0.0015503700124099,0.9110633730888368
1630932176447,0.6800832152366638,0.3602049350738525,0.0114333853125572,0.9072183966636658
1630932176546,0.6800832152366638,0.3602049350738525,0.0153381638228893,0.9072183966636658
1630932176696,0.6800832152366638,0.3602049350738525,0.0246953386813402,0.9072183966636658
1630932176788,0.6800832152366638,0.3602049350738525,0.0539683364331722,0.9072183966636658
1630932176879,0.6800832152366638,0.3602049350738525,0.146396979689598,0.9072183966636658
1630932176974,0.6800832152366638,0.3669999837875366,0.2890557944774627,0.9072183966636658
1630932177060,0.6800832152366638,0.3935199081897735,0.3727642297744751,0.9072183966636658
1630932177163,0.6800832152366638,0.4387443959712982,0.3952477872371673,0.9072183966636658
1630932177298,0.6800832152366638,0.4798451364040375,0.4000965356826782,0.9072183966636658
1630932177385,0.6800832152366638,0.4919914007186889,0.4039296805858612,0.9072183966636658
1630932177501,0.6800832152366638,0.495792955160141,0.4209073483943939,0.9072183966636658
1630932177592,0.6800832152366638,0.4980849623680115,0.4610951244831085,0.9072183966636658
1630932177688,0.6800832152366638,0.5099326372146606,0.4950413405895233,0.9072183966636658
1630932177769,0.6800832152366638,0.5163504481315613,0.5375128984451294,0.9072183966636658
1630932177928,0.6800832152366638,0.4718277752399444,0.5771678686141968,0.9072183966636658
1630932177995,0.6800832152366638,0.4437873959541321,0.5783247351646423,0.9072183966636658
1630932178087,0.6800832152366638,0.43759486079216,0.5783247351646423,0.9072183966636658
1630932178196,0.6800832152366638,0.43759486079216,0.5783247351646423,0.9072183966636658
1630932178311,0.6800832152366638,0.43759486079216,0.5783247351646423,0.9072183966636658
1630932178373,0.6800832152366638,0.43759486079216,0.5796836018562317,0.9072183966636658
1630932178514,0.6800832152366638,0.5008034110069275,0.5936258435249329,0.9072183966636658
1630932178622,0.6800832152366638,0.5163090825080872,0.593429684638977,0.9072183966636658
1630932178687,0.6800832152366638,0.5235697031021118,0.5855314135551453,0.9072183966636658
1630932178799,0.6800832152366638,0.5235697031021118,0.5778828859329224,0.9072183966636658
1630932178897,0.6800832152366638,0.5056043863296509,0.5707617998123169,0.9072183966636658
1630932178972,0.6800832152366638,0.4600892066955566,0.5663544535636902,0.9072183966636658
1630932179116,0.6800832152366638,0.4494301378726959,0.5660799145698547,0.9072183966636658
1630932179231,0.6800832152366638,0.4456819891929626,0.5599469542503357,0.9072183966636658
1630932179331,0.6800832152366638,0.4402529597282409,0.5229395627975464,0.9072183966636658
1630932179412,0.6800832152366638,0.4252693951129913,0.4711652100086212,0.9072183966636658
1630932179500,0.6800832152366638,0.4137096703052521,0.3988251090049743,0.9072183966636658
1630932179605,0.6800832152366638,0.4233594536781311,0.3616657257080078,0.9072183966636658
1630932179713,0.6800832152366638,0.4345901906490326,0.366015076637268,0.9072183966636658
1630932179835,0.6800832152366638,0.441631555557251,0.3746675550937652,0.9072183966636658
1630932179915,0.6800832152366638,0.441631555557251,0.3956707417964935,0.9072183966636658
1630932180038,0.6800832152366638,0.436968982219696,0.4166920185089111,0.7824112176895142
1630932180119,0.6800832152366638,0.3983411490917206,0.3927793204784393,0.8321542739868164
1630932180194,0.6800832152366638,0.2849985063076019,0.3723272085189819,0.8437374234199524
1630932180348,0.6800832152366638,0.2205667644739151,0.3896327018737793,0.8607416749000549
1630932180462,0.6800832152366638,0.2183110117912292,0.384181261062622,0.8800532817840576
1630932180545,0.6800832152366638,0.2231557965278625,0.384181261062622,0.8813980221748352
1630932180644,0.6800832152366638,0.2252213358879089,0.384181261062622,0.8813980221748352
1630932180723,0.6800832152366638,0.2252213358879089,0.3601483702659607,0.8813980221748352
1630932180790,0.6800832152366638,0.2252213358879089,0.3300564587116241,0.8813980221748352
1630932180980,0.6800832152366638,0.2532778680324554,0.3265311419963836,0.8813980221748352
1630932181039,0.6800832152366638,0.4144891202449798,0.3265311419963836,0.8813980221748352
1630932181125,0.6800832152366638,0.5652961730957031,0.332284152507782,0.8813980221748352
1630932181220,0.6800832152366638,0.6205820441246033,0.3398385047912597,0.8736482858657837
1630932181323,0.6800832152366638,0.6117292642593384,0.336085706949234,0.8631111979484558
1630932181413,0.6800832152366638,0.5916955471038818,0.332487553358078,0.8627462387084961
1630932181575,0.6800832152366638,0.5643755197525024,0.3275783061981201,0.8625627160072327
1630932181664,0.6800832152366638,0.5571328401565552,0.3129767477512359,0.8114664554595947
1630932181781,0.6800832152366638,0.5595948100090027,0.3233456015586853,0.6903868913650513
1630932181840,0.6800832152366638,0.5677489042282104,0.3903059363365173,0.5347423553466797
1630932181979,0.6800832152366638,0.5685572028160095,0.490208238363266,0.5347423553466797
1630932182044,0.6800832152366638,0.5684992671012878,0.5405107736587524,0.5347423553466797
1630932182198,0.6800832152366638,0.5684992671012878,0.5405107736587524,0.5347423553466797
1630932182270,0.6800832152366638,0.5684992671012878,0.5405107736587524,0.5347423553466797
1630932182386,0.6800832152366638,0.5684992671012878,0.5405107736587524,0.5347423553466797
1630932182469,0.6800832152366638,0.5684992671012878,0.5405107736587524,0.5347423553466797
1630932182535,0.6800832152366638,0.5694706439971924,0.5405107736587524,0.5347423553466797
1630932182634,0.6800832152366638,0.5728607773780823,0.56505286693573,0.5347423553466797
1630932182757,0.6800832152366638,0.1182801350951194,0.585566520690918,0.5347423553466797
1630932182888,0.6800832152366638,0.1997622102499008,0.585566520690918,0.5347423553466797
1630932182957,0.6800832152366638,0.2182817906141281,0.585566520690918,0.5347423553466797
1630932183058,0.6800832152366638,0.241531103849411,0.585566520690918,0.5347423553466797
1630932183157,0.6800832152366638,0.252430260181427,0.585566520690918,0.5347423553466797
1630932183251,0.6800832152366638,0.2546952366828918,0.6204421520233154,0.5347423553466797
1630932183388,0.6800832152366638,0.2546952366828918,0.7271411418914795,0.5347423553466797
1630932183487,0.6800832152366638,0.252804547548294,0.7893831729888916,0.5347423553466797
1630932183569,0.6800832152366638,0.2501998245716095,0.7879047989845276,0.5347423553466797
1630932183684,0.6800832152366638,0.2426145523786544,0.7911989688873291,0.5347423553466797
1630932183785,0.6800832152366638,0.2415793091058731,0.8104327321052551,0.5347423553466797
1630932183866,0.6800832152366638,0.2415793091058731,0.8452470302581787,0.5347423553466797
1630932184002,0.6800832152366638,0.2415793091058731,0.953803777694702,0.5347423553466797
1630932184087,0.6800832152366638,0.2415793091058731,1.087051510810852,0.5347423553466797
1630932184185,0.6800832152366638,0.2581112086772918,1.1423519849777222,0.5347423553466797
1630932184264,0.6800832152366638,0.2740452885627746,1.149595856666565,0.5347423553466797
1630932184365,0.6800832152366638,0.3092545568943023,1.149595856666565,0.5347423553466797
1630932184457,0.6800832152366638,0.3266969323158264,1.149595856666565,0.5347423553466797
1630932184592,0.6800832152366638,0.3075809776782989,1.149595856666565,0.5347423553466797
1630932184703,0.6800832152366638,0.3033984005451202,1.149595856666565,0.5347423553466797
1630932184794,0.6800832152366638,0.2691097557544708,1.149595856666565,0.5347423553466797
1630932184884,0.6800832152366638,0.2691097557544708,1.149595856666565,0.5347423553466797
1630932184997,0.6800832152366638,0.2691097557544708,1.1402440071105957,0.5347423553466797
1630932185080,0.6800832152366638,0.2691097557544708,1.1221542358398438,0.5347423553466797
1630932185197,0.6800832152366638,0.2691097557544708,1.1153720617294312,0.5347423553466797
1630932185311,0.6800832152366638,0.2691097557544708,1.1153720617294312,0.5347423553466797
1630932185418,0.6800832152366638,0.2691097557544708,1.1153720617294312,0.5347423553466797
1630932185492,0.6800832152366638,0.2691097557544708,1.1153720617294312,0.5347423553466797
1630932185621,0.6800832152366638,0.2691097557544708,1.1153720617294312,0.5347423553466797
1630932185668,0.6800832152366638,0.2184605896472931,1.1153720617294312,0.5347423553466797
1630932185826,0.6800832152366638,0.1997928023338318,1.1153720617294312,0.5347423553466797
1630932185912,0.6800832152366638,0.1997928023338318,1.1153720617294312,0.5347423553466797
1630932186032,0.6800832152366638,0.1997928023338318,1.1153720617294312,0.5347423553466797
1630932186114,0.6800832152366638,0.1997928023338318,1.1153720617294312,0.5347423553466797
1630932186200,0.6800832152366638,0.1997928023338318,1.1153720617294312,0.5347423553466797
1630932186331,0.6800832152366638,0.1997928023338318,1.1153720617294312,0.5347423553466797
1630932186471,0.6800832152366638,0.1997928023338318,1.1153720617294312,0.5347423553466797
1630932186553,0.6800832152366638,0.1997928023338318,1.1153720617294312,0.5347423553466797
1630932186636,0.6800832152366638,0.1997928023338318,1.1153720617294312,0.5347423553466797
1630932186718,0.6800832152366638,0.1997928023338318,1.1153720617294312,0.5347423553466797
1630932186810,0.6800832152366638,0.1997928023338318,1.1153720617294312,0.5347423553466797
1630932186923,0.6800832152366638,0.1997928023338318,1.1153720617294312,0.5347423553466797
1630932187030,0.6800832152366638,0.1997928023338318,1.1153720617294312,0.5347423553466797
1630932187120,0.6800832152366638,0.1997928023338318,1.1153720617294312,0.5347423553466797
1630932187220,0.6800832152366638,0.1997928023338318,1.1153720617294312,0.5347423553466797
1630932187355,0.6800832152366638,0.1997928023338318,1.1153720617294312,0.5347423553466797
1630932187435,0.6800832152366638,0.1997928023338318,1.1153720617294312,0.5347423553466797
1630932187504,0.6800832152366638,0.1997928023338318,1.1153720617294312,0.5347423553466797
1630932187666,0.6800832152366638,0.1997928023338318,1.1153720617294312,0.5347423553466797
1630932187750,0.6800832152366638,0.1997928023338318,1.1153720617294312,0.5347423553466797
1630932187836,0.6800832152366638,0.1997928023338318,1.1153720617294312,0.5347423553466797
1630932187927,0.6800832152366638,0.1997928023338318,1.1153720617294312,0.5347423553466797
1630932188020,0.6800832152366638,0.1997928023338318,1.1153720617294312,0.5347423553466797
1630932188134,0.6800832152366638,0.1997928023338318,1.1153720617294312,0.5347423553466797
1630932188280,0.6800832152366638,0.1997928023338318,1.1153720617294312,0.5347423553466797
1630932188351,0.6800832152366638,0.1997928023338318,1.1153720617294312,0.5347423553466797
1630932188434,0.7463060617446899,0.1997928023338318,1.1153720617294312,0.8919628858566284
1630932188549,0.8443395495414734,0.1997928023338318,1.1153720617294312,0.8919628858566284
1630932188653,0.9536611437797546,0.2672971487045288,1.1153720617294312,0.8950708508491516
1630932188742,1.0366216897964478,0.2672971487045288,1.1153720617294312,0.9018533825874328
1630932188896,1.082923173904419,0.2672971487045288,1.1153720617294312,0.9018533825874328
1630932188960,1.0849891901016235,0.2672971487045288,1.1153720617294312,0.9018533825874328
1630932189044,1.0849891901016235,0.2675360143184662,1.1153720617294312,0.9018533825874328
1630932189131,1.0849891901016235,0.271997720003128,0.1786045432090759,0.9018533825874328
1630932189249,1.0849891901016235,0.2807396054267883,0.1786045432090759,0.9058054685592652
1630932189372,1.1152468919754028,0.2865735292434692,0.1839560121297836,0.9396440386772156
1630932189481,1.1506900787353516,0.2869355678558349,0.1839560121297836,0.9597448706626892
1630932189579,1.1656025648117063,0.2869355678558349,0.2017799168825149,0.969640612602234
1630932189684,1.1536035537719729,0.2869355678558349,0.2058929651975631,0.9242671728134156
1630932189779,1.1602959632873535,0.2869355678558349,0.2102668285369873,0.8689624667167664
1630932189874,1.1602959632873535,0.1741749346256256,0.2174733281135559,0.8637488484382629
1630932189969,1.1602959632873535,0.1460960358381271,0.2184333205223083,0.8622151613235474
1630932190098,1.1602959632873535,0.1878901720046997,0.2205790281295776,0.8625911474227905
1630932190215,1.1516987085342407,0.1969662308692932,0.2235511541366577,0.8685898780822754
1630932190273,1.1319103240966797,0.1922401785850525,0.2235511541366577,0.8838481307029724
1630932190370,1.0991642475128174,0.1907065063714981,0.2144837379455566,0.8983777761459351
1630932190454,1.070885181427002,0.190212681889534,0.2501643002033233,0.9201597571372986
1630932190566,1.0621145963668823,0.1861279755830764,0.2932287752628326,0.9707711935043336
1630932190698,1.061354637145996,0.1935372054576873,0.3062672615051269,1.0310919284820557
1630932190812,1.057181477546692,0.1982713043689727,0.296102911233902,1.058138132095337
1630932190875,1.0481257438659668,0.1754382699728012,0.3025547564029693,1.062499761581421
1630932190971,1.0077354907989502,0.1383272558450698,0.3204446136951446,1.046899437904358
1630932191083,0.9087432622909546,0.1205516904592514,0.3727666139602661,1.0572761297225952
1630932191178,0.8018450140953064,0.1205516904592514,0.4174659848213196,1.0428107976913452
1630932191308,0.7120601534843445,0.1205516904592514,0.4174659848213196,1.023080587387085
1630932191403,0.6965534687042236,0.107725404202938,0.4174659848213196,1.0182719230651855
1630932191502,0.6909378170967102,0.0659681260585784,0.4174659848213196,1.015914797782898
1630932191596,0.6835986971855164,0.0053812717087566,0.4174659848213196,1.0150429010391235
1630932191684,0.6789764761924744,-0.0606340058147907,0.4145395159721374,1.012974739074707
1630932191774,0.6789764761924744,-0.1391081809997558,0.4093085825443268,1.012974739074707
1630932191915,0.6789764761924744,-0.250140905380249,0.4044332206249237,1.012974739074707
1630932192023,0.6789764761924744,-0.3841224014759063,0.3972188234329223,1.012974739074707
1630932192110,0.6713232398033142,-0.5216252207756042,0.3789582252502441,1.012974739074707
1630932192199,0.6713232398033142,-0.5216252207756042,0.3600267469882965,1.0096091032028198
1630932192332,0.6713232398033142,-0.5216252207756042,0.3282442986965179,0.98140549659729
1630932192379,0.6713232398033142,-0.5216252207756042,0.3282442986965179,0.98140549659729
1630932192510,0.6713232398033142,-0.5216252207756042,0.3282442986965179,0.98140549659729
1630932192633,0.6713232398033142,-0.5216252207756042,0.3282442986965179,0.98140549659729
1630932192732,0.6713232398033142,-0.5216252207756042,0.3282442986965179,0.98140549659729
1630932192802,0.6713232398033142,-0.5216252207756042,0.3282442986965179,0.98140549659729
1630932192912,0.6713232398033142,-0.5216252207756042,0.3282442986965179,0.98140549659729
1630932193003,0.6713232398033142,-0.5216252207756042,0.3282442986965179,0.98140549659729
1630932193139,0.6713232398033142,-0.5216252207756042,0.3282442986965179,0.98140549659729
1630932193230,0.6713232398033142,-0.5216252207756042,0.3282442986965179,0.98140549659729
1630932193363,0.6713232398033142,-0.5216252207756042,0.3282442986965179,0.98140549659729
1630932193407,0.6713232398033142,-0.5216252207756042,0.3282442986965179,0.98140549659729
1630932193524,0.6713232398033142,-0.5216252207756042,0.3282442986965179,0.98140549659729
1630932193616,0.6713232398033142,-0.5216252207756042,0.3282442986965179,0.98140549659729
1630932193746,0.6713232398033142,-0.5216252207756042,0.3282442986965179,0.98140549659729
1630932193845,0.6713232398033142,-0.5216252207756042,0.3282442986965179,0.98140549659729
1630932193931,0.6713232398033142,-0.5216252207756042,0.3282442986965179,0.98140549659729
1630932194037,0.6713232398033142,-0.5216252207756042,0.3282442986965179,0.98140549659729
1630932194112,0.6713232398033142,-0.5216252207756042,0.3282442986965179,0.98140549659729
1630932194230,0.6713232398033142,-0.5216252207756042,0.3282442986965179,0.98140549659729
1630932194335,0.6713232398033142,-0.5216252207756042,0.3282442986965179,0.98140549659729
1630932194447,0.6713232398033142,-0.5216252207756042,0.3282442986965179,0.98140549659729
1630932194559,0.6713232398033142,-0.5216252207756042,0.3282442986965179,0.98140549659729
1630932194647,0.6713232398033142,-0.5216252207756042,0.3282442986965179,0.98140549659729
1630932194737,0.6713232398033142,-0.5216252207756042,0.3282442986965179,0.98140549659729
1630932194863,0.6713232398033142,-0.5216252207756042,0.3282442986965179,0.98140549659729
1630932194962,0.6713232398033142,-0.5216252207756042,0.3855968415737152,0.98140549659729
1630932195064,0.6713232398033142,-0.5216252207756042,0.3855968415737152,0.98140549659729
1630932195152,0.6713232398033142,-0.5216252207756042,0.3855968415737152,0.98140549659729
1630932195265,0.6713232398033142,-0.5216252207756042,0.3855968415737152,0.98140549659729
1630932195337,0.6713232398033142,-0.5216252207756042,0.3855968415737152,0.98140549659729
1630932195431,0.6713232398033142,-0.5216252207756042,0.3855968415737152,0.98140549659729
1630932195571,0.6713232398033142,-0.5216252207756042,0.3855968415737152,0.98140549659729
1630932195698,0.6713232398033142,-0.5216252207756042,0.3855968415737152,0.98140549659729
1630932195769,0.6713232398033142,-0.5216252207756042,0.3855968415737152,0.98140549659729
1630932195862,0.6713232398033142,-0.5216252207756042,0.3855968415737152,0.98140549659729
1630932195953,0.6713232398033142,-0.5216252207756042,0.3855968415737152,0.98140549659729
1630932196035,0.8934036493301392,-0.5216252207756042,0.3855968415737152,0.2514161765575409
1630932196197,0.8934036493301392,-0.5216252207756042,0.3855968415737152,0.266891598701477
1630932196284,0.8934036493301392,-0.5216252207756042,0.3855968415737152,0.2958355247974396
1630932196365,0.8934036493301392,-0.5216252207756042,0.3855968415737152,0.2958355247974396
1630932196532,0.8934036493301392,-0.5216252207756042,0.3855968415737152,0.2958355247974396
1630932196571,0.8934036493301392,-0.5216252207756042,0.3855968415737152,0.2958355247974396
1630932196633,0.8934036493301392,-0.5216252207756042,0.3855968415737152,0.2958355247974396
1630932196795,0.8934036493301392,-0.5216252207756042,0.3855968415737152,0.2958355247974396
1630932196882,0.8934036493301392,-0.5216252207756042,0.3855968415737152,0.2958355247974396
1630932196983,0.8934036493301392,-0.5216252207756042,0.3855968415737152,0.2958355247974396
1630932197064,0.8934036493301392,-0.5216252207756042,0.3855968415737152,0.2958355247974396
1630932197180,0.8934036493301392,-0.5216252207756042,0.3855968415737152,0.2958355247974396
1630932197266,0.8802462220191956,-0.5216252207756042,0.3855968415737152,0.2958355247974396
1630932197422,0.8213583827018738,-0.5216252207756042,0.3855968415737152,0.2956734001636505
1630932197515,0.8213583827018738,-0.5216252207756042,0.3855968415737152,0.2956734001636505
1630932197574,0.8213583827018738,-0.5216252207756042,0.3855968415737152,0.2956734001636505
1630932197681,0.8213583827018738,-0.5216252207756042,0.3855968415737152,0.2956734001636505
1630932197775,0.8213583827018738,-0.5216252207756042,0.3855968415737152,0.2956734001636505
1630932197871,0.8213583827018738,-0.5216252207756042,0.3855968415737152,0.2956734001636505
1630932198029,0.8213583827018738,-0.5216252207756042,0.3855968415737152,0.2956734001636505
1630932198119,0.8213583827018738,-0.5216252207756042,0.3855968415737152,0.2956734001636505
1630932198208,0.8213583827018738,-0.5216252207756042,0.3855968415737152,0.2956734001636505
1630932198319,0.8213583827018738,-0.5216252207756042,0.3855968415737152,0.2956734001636505
1630932198382,0.8213583827018738,-0.5216252207756042,0.3855968415737152,0.2956734001636505
1630932198496,0.8213583827018738,-0.5216252207756042,0.3855968415737152,0.2956734001636505
1630932198607,0.8213583827018738,-0.5216252207756042,0.3855968415737152,0.2956734001636505
1630932198731,0.8213583827018738,-0.5216252207756042,0.3855968415737152,0.2956734001636505
1630932198829,0.8213583827018738,-0.5216252207756042,0.3855968415737152,0.2956734001636505
1630932198897,0.8213583827018738,-0.5216252207756042,0.3855968415737152,0.2956734001636505
1630932199010,0.8213583827018738,-0.5216252207756042,0.3855968415737152,0.2956734001636505
1630932199104,0.8213583827018738,-0.5216252207756042,0.3855968415737152,0.2956734001636505
1630932199234,0.8213583827018738,-0.5216252207756042,0.3855968415737152,0.2956734001636505
1630932199301,0.8213583827018738,-0.5216252207756042,0.3855968415737152,0.2956734001636505
1630932199435,0.8213583827018738,-0.5216252207756042,0.3855968415737152,0.2956734001636505
1630932199528,0.8213583827018738,-0.5216252207756042,0.3855968415737152,0.2956734001636505
1630932199617,0.8213583827018738,-0.5216252207756042,0.3855968415737152,0.2956734001636505
1630932199705,0.8213583827018738,-0.5216252207756042,0.3855968415737152,0.2956734001636505
1630932199846,0.8213583827018738,-0.5216252207756042,0.3855968415737152,0.2956734001636505
1630932199922,0.8213583827018738,-0.5216252207756042,0.3855968415737152,0.2956734001636505
1630932200016,0.8213583827018738,-0.5216252207756042,0.3855968415737152,0.2956734001636505
1630932200133,0.8213583827018738,-0.5216252207756042,0.3855968415737152,0.2956734001636505
1630932200230,0.8213583827018738,0.3682146370410919,0.3855968415737152,0.2956734001636505
1630932200309,0.8213583827018738,0.369291603565216,0.3855968415737152,0.2956734001636505
1630932200436,0.8213583827018738,0.369291603565216,0.3855968415737152,0.2956734001636505
1630932200531,0.8213583827018738,0.3114284873008728,0.3855968415737152,0.4526001811027527
1630932200621,0.8213583827018738,0.1814995557069778,0.3855968415737152,0.6392907500267029
1630932200728,0.8213583827018738,0.1999651342630386,0.3855968415737152,0.7689443230628967
1630932200825,0.8213583827018738,0.2286616265773773,0.3855968415737152,0.8455519080162048
1630932200929,0.8213583827018738,0.2286616265773773,0.3855968415737152,0.907293438911438
1630932201112,0.8213583827018738,0.2286616265773773,0.3855968415737152,0.9249240159988404
1630932201183,0.8213583827018738,0.2286616265773773,0.3855968415737152,0.9249240159988404
1630932201246,0.8213583827018738,0.2286616265773773,0.3855968415737152,0.9249240159988404
1630932201371,0.8213583827018738,0.2286616265773773,0.3855968415737152,0.9249240159988404
1630932201454,1.125172138214111,0.2286616265773773,0.3855968415737152,0.9249240159988404
1630932201565,1.1297783851623535,0.2286616265773773,0.3855968415737152,0.9249240159988404
1630932201680,1.1304842233657837,0.20893594622612,0.3855968415737152,0.9249240159988404
1630932201767,1.1304842233657837,0.1637423187494278,0.1224700585007667,0.9249240159988404
1630932201854,1.1304842233657837,0.0853151753544807,0.1224700585007667,0.9249240159988404
1630932201957,1.1304842233657837,0.0962621048092842,0.1224700585007667,0.9249240159988404
1630932202053,1.1314319372177124,0.1023650169372558,0.1224700585007667,0.9249240159988404
1630932202188,1.1314319372177124,0.1043662577867508,0.1260543316602707,0.922400951385498
1630932202296,1.1314319372177124,0.1262558549642563,0.1434059292078018,0.9123717546463012
1630932202373,1.1314319372177124,-0.2898090779781341,0.1739208251237869,0.8823240399360657
1630932202455,1.1314319372177124,-0.2805410623550415,0.2081356048583984,0.8500402569770813
1630932202567,1.1314319372177124,-0.2533817887306213,0.2420096099376678,0.773353099822998
1630932202671,1.0690209865570068,-0.1576971262693405,0.2593057155609131,0.6448960900306702
1630932202763,1.0307879447937012,-0.0710926055908203,0.2761502265930176,0.5909596681594849
1630932202899,0.9718348979949952,-0.0152709484100341,0.298065572977066,0.593989908695221
1630932203015,0.9305978417396544,0.0795532539486885,0.2569537758827209,0.5527154803276062
1630932203077,0.9355930685997008,0.1465677320957183,0.2806059420108795,0.4648095667362213
1630932203195,0.9324076771736144,0.187124028801918,0.3621298968791961,0.3934705853462219
1630932203263,0.9324076771736144,0.2245198190212249,0.4038951694965362,0.4468433260917663
1630932203372,0.9324076771736144,0.2245198190212249,0.4069669246673584,0.5360544323921204
1630932203504,0.9324076771736144,0.2245198190212249,0.4069669246673584,0.6653198599815369
1630932203584,0.9269185066223145,0.2245198190212249,0.4069669246673584,0.7218546867370605
1630932203685,0.9213181734085084,0.2245198190212249,0.4069669246673584,0.7394412755966187
1630932203782,0.9089567065238952,0.4357692301273346,0.4069669246673584,0.7716673612594604
1630932203862,0.9077829122543336,0.4495397806167602,0.4069669246673584,0.8094974756240845
1630932203953,0.899540901184082,0.4504137337207794,0.4095163345336914,0.8320932388305664
1630932204133,0.899540901184082,0.4504137337207794,0.4140707552433014,0.8575066924095154
1630932204209,0.899540901184082,0.4504137337207794,0.4099068343639374,0.8575066924095154
1630932204301,0.8969611525535583,0.4504137337207794,0.409712553024292,0.8575066924095154
1630932204404,1.107131004333496,0.4621643424034118,0.4377900958061218,0.8575066924095154
1630932204490,1.216851830482483,0.5217310190200806,0.4602575004100799,0.8575066924095154
1630932204585,1.2825669050216677,0.5445188283920288,0.467362105846405,0.8575066924095154
1630932204712,1.304335355758667,0.5445188283920288,0.4641214609146118,0.8575066924095154
1630932204849,1.304335355758667,0.53160560131073,0.4457290172576904,0.8575066924095154
1630932204914,1.304335355758667,0.53160560131073,0.4308962523937225,0.8571546077728271
1630932205006,1.304335355758667,0.53160560131073,0.4308962523937225,0.8548078536987305
1630932205098,1.304335355758667,0.53160560131073,0.4308962523937225,0.830193042755127
1630932205207,1.304335355758667,0.53160560131073,0.4372088611125946,0.8008117079734802
1630932205314,1.304335355758667,0.4756937623023987,0.4701018631458282,0.9697134494781494
1630932205428,1.3061496019363403,0.4465671479701996,0.4777485132217407,1.200321078300476
1630932205519,1.3199400901794434,0.5098828077316284,0.4771910011768341,1.3371716737747192
1630932205610,1.3199400901794434,0.5775912404060364,0.4691492915153503,1.3705930709838867
1630932205713,1.3223761320114136,0.5792763233184814,0.4719712734222412,1.3705930709838867
1630932205809,1.3223761320114136,0.5792763233184814,0.4806780219078064,1.3705930709838867
1630932205948,1.3162225484848022,0.5792763233184814,0.4877552092075348,1.3705930709838867
1630932206057,1.290115475654602,0.5748215317726135,0.4812029898166656,1.3705930709838867
1630932206145,1.248060703277588,0.563334584236145,0.4599747955799103,1.3705930709838867
1630932206234,1.202282190322876,0.5308371186256409,0.4307814240455627,1.3705930709838867
1630932206332,1.202282190322876,0.5299115180969238,0.4517820179462433,1.3705930709838867
1630932206442,1.202282190322876,0.5299115180969238,0.5126825571060181,1.3705930709838867
1630932206547,1.202282190322876,0.5299115180969238,0.5236520171165466,1.3705930709838867
1630932206645,1.202282190322876,0.5299115180969238,0.5236520171165466,1.3705930709838867
1630932206729,1.202282190322876,0.5299115180969238,0.5236520171165466,1.3705930709838867
1630932206839,1.202282190322876,0.5299115180969238,0.5290316939353943,1.3705930709838867
1630932206933,1.202282190322876,0.5299115180969238,0.5706490874290466,1.3691877126693726
1630932207006,1.1834357976913452,0.5350577235221863,0.5936585664749146,1.338098406791687
1630932207171,1.048037052154541,0.5155546069145203,0.5936585664749146,1.2077434062957764
1630932207265,0.4514749348163605,0.4633135497570038,0.5831009149551392,0.9518387913703918
1630932207355,0.4514749348163605,0.4545106887817383,0.5732981562614441,0.634493350982666
1630932207457,0.4514749348163605,0.4549014270305633,0.5732981562614441,0.4183813333511352
1630932207566,0.4514749348163605,0.4560073018074035,0.5732981562614441,0.2603384256362915
1630932207619,0.4514749348163605,0.4620988965034485,0.5732981562614441,0.0991290733218193
1630932207759,0.4514749348163605,0.4724007546901703,0.5726087689399719,0.0991290733218193
1630932207875,0.4514749348163605,0.4835401475429535,0.5716414451599121,0.0991290733218193
1630932207958,0.4514749348163605,0.4888769686222076,0.5619562268257141,0.0991290733218193
1630932208046,0.4514749348163605,0.4888769686222076,0.4947234392166137,0.0991290733218193
1630932208164,0.4514749348163605,0.4888769686222076,0.4506539106369018,0.0991290733218193
1630932208249,0.7850082516670227,0.4888769686222076,0.4401985704898834,0.8452552556991577
1630932208364,0.7852729558944702,0.4888769686222076,0.4383155405521393,0.8452552556991577
1630932208482,0.7885746955871582,0.4888769686222076,0.4311086237430572,0.8483487963676453
1630932208586,0.8012272119522095,0.4767462015151977,0.4016359150409698,0.8528239727020264
1630932208648,0.8258783221244812,0.411965936422348,0.3254543542861938,0.8549006581306458
1630932208742,0.8596658110618591,0.3180047869682312,0.2609368860721588,0.8549006581306458
1630932208829,0.882475733757019,0.3002310693264007,0.228703111410141,0.8549006581306458
1630932209016,0.8869336247444153,0.3002310693264007,0.188291922211647,0.8549006581306458
1630932209097,0.8869336247444153,0.2985661327838897,0.1153827831149101,0.8554288148880005
1630932209187,0.8869336247444153,0.2849877476692199,0.0549119748175144,0.8554288148880005
1630932209255,0.8869336247444153,0.2562181949615478,-0.0046698269434273,0.8583431243896484
1630932209366,0.8869336247444153,0.2098380327224731,-0.0571685135364532,0.8641254901885986
1630932209505,0.8003873825073242,0.1425515711307525,-0.0727812871336937,0.8576335906982422
1630932209588,0.7340286374092102,0.04573854804039,-0.0697474628686904,0.7969785332679749
1630932209682,0.7286015748977661,-0.0744388550519943,-0.0815537944436073,0.6851598024368286
1630932209802,0.7286015748977661,-0.1709289699792862,-0.1208132430911064,0.6080402731895447
1630932209903,0.7406954765319824,-0.2553448975086212,-0.1479530036449432,0.5960062146186829
1630932209979,0.8028849959373474,-0.2411548048257827,-0.1355506777763366,0.6121380925178528
1630932210060,0.966439425945282,-0.1811160594224929,-0.0533223263919353,0.7272465229034424
1630932210200,1.1250524520874023,-0.1683643609285354,0.011425333097577,0.8546561002731323
1630932210334,1.1509488821029663,-0.1702073961496353,0.0278460532426834,0.9027332067489624
1630932210462,1.146473407745361,-0.1780091077089309,0.0278460532426834,0.9081567525863647
1630932210542,1.1419181823730469,-0.1711107492446899,0.0278460532426834,0.910118579864502
1630932210591,1.1419181823730469,-0.1639665216207504,0.0267582591623067,0.9146313667297364
1630932210697,1.1419181823730469,-0.1447369009256363,0.0267582591623067,0.9165441989898682
1630932210828,1.1419181823730469,-0.091930404305458,0.0267582591623067,0.9165441989898682
1630932210928,1.1419181823730469,0.0054506347514688,0.0290925223380327,0.9131858944892884
1630932211023,1.1419181823730469,0.0976768657565116,0.0293621383607387,0.9012283086776732
1630932211095,1.1419181823730469,0.1244850605726242,0.0346579514443874,0.8820428252220154
1630932211235,1.1419181823730469,0.1244850605726242,0.0508459322154521,0.8699846863746643
1630932211312,1.1419181823730469,0.1244850605726242,0.0671190619468689,0.8700403571128845
1630932211432,1.1419181823730469,0.1244850605726242,0.0693662241101265,0.8742102384567261
1630932211522,1.1419181823730469,0.1244850605726242,0.0693662241101265,0.8767423033714294
1630932211621,1.1593636274337769,0.1139816716313362,0.0742571055889129,0.8794757127761841
1630932211720,1.1793946027755735,0.1009804755449295,0.0962343290448188,0.8811905384063721
1630932211826,1.111052632331848,0.1257088631391525,0.1226301863789558,0.8374139070510864
1630932211892,0.999837338924408,0.2020244598388672,0.1321141868829727,0.8250426054000854
1630932212045,1.0065160989761353,0.2580901682376861,0.1345337182283401,0.8288370370864868
1630932212149,1.0234832763671875,0.2848066091537475,0.1561124920845031,0.8998785018920898
1630932212233,1.039038896560669,0.2873421609401703,0.188981294631958,0.9545080065727234
1630932212330,1.0597736835479736,0.2873421609401703,0.2039502412080764,0.9682015180587769
1630932212409,1.0778379440307615,0.2873421609401703,0.207346573472023,0.9682015180587769
1630932212521,1.0778577327728271,0.2822648882865906,0.2140296846628189,0.9683700799942015
1630932212649,1.0888683795928955,0.2429652959108352,0.2094601839780807,0.969359576702118
1630932212746,1.1003048419952393,0.2361358702182769,0.2094601839780807,0.9709399342536926
1630932212836,1.104038119316101,0.282345175743103,0.2094601839780807,0.9741103053092957
1630932212923,1.106546401977539,0.337444543838501,0.2094601839780807,0.9816642999649048
1630932213017,1.1204195022583008,0.3471537232398987,0.2094601839780807,0.9862855672836304
1630932213099,1.1204195022583008,0.3471537232398987,0.2094601839780807,0.967782974243164
1630932213261,1.1017252206802368,0.3471537232398987,0.2094601839780807,0.9414237141609192
1630932213325,1.0567561388015747,0.3669259548187256,0.2089570462703704,0.9266427159309388
1630932213431,1.0191479921340942,0.4255349934101105,0.1896065026521682,0.9114843010902404
1630932213523,1.0055090188980105,0.4520157873630523,0.2015472948551178,0.8967333436012268
1630932213639,1.001472234725952,0.4378082454204559,0.2729696333408355,0.8784552812576294
1630932213702,0.9861992001533508,0.4092215299606323,0.4940090775489807,0.8696401715278625
1630932213865,0.9615394473075868,0.3914863765239715,0.6113251447677612,0.8450828790664673
1630932213956,0.923121213912964,0.4443057179450989,0.6243112683296204,0.7877112030982971
1630932214070,0.8396164774894714,0.4953905642032623,0.6299556493759155,0.6694801449775696
1630932214130,0.7619865536689758,0.5099009275436401,0.6319790482521057,0.5536500215530396
1630932214246,0.7619865536689758,0.5099009275436401,0.6319790482521057,0.5536500215530396
1630932214335,0.7619865536689758,0.5099009275436401,0.6319790482521057,0.5536500215530396
1630932214513,0.7619865536689758,0.5097376108169556,0.6319790482521057,0.5536500215530396
1630932214619,0.7619865536689758,0.4872173070907593,0.6331373453140259,0.5536500215530396
1630932214674,0.7619865536689758,0.4782404601573944,0.633490264415741,0.8040490746498108
1630932214782,0.7619865536689758,0.4752938747406006,0.633490264415741,0.8259470462799072
1630932214850,0.7619865536689758,0.473084419965744,0.633490264415741,0.8476575613021851
1630932214961,0.7619865536689758,0.4590672850608825,0.633490264415741,0.8549392223358154
1630932215098,0.7619865536689758,0.42560875415802,0.633490264415741,0.8552423119544983
1630932215182,0.7619865536689758,0.3864234387874603,0.633490264415741,0.8552423119544983
1630932215253,0.7619865536689758,0.3441231250762939,0.633490264415741,0.8552423119544983
1630932215383,0.7619865536689758,0.309295117855072,0.6174863576889038,0.8569454550743103
1630932215450,0.7619865536689758,0.309295117855072,0.501122236251831,0.8621784448623657
1630932215548,0.4269322752952575,0.309295117855072,0.501122236251831,0.8743923902511597
1630932215696,0.5722889304161072,0.309295117855072,0.501122236251831,0.893857479095459
1630932215788,0.6370346546173096,0.309295117855072,0.501122236251831,0.913497805595398
1630932215869,0.6623620390892029,0.309295117855072,0.501122236251831,0.853069007396698
1630932215969,0.6776936650276184,0.309295117855072,0.501122236251831,0.7179214954376221
1630932216067,0.6895158886909485,0.309295117855072,0.501122236251831,0.6449912190437317
1630932216151,0.6903091073036194,0.309295117855072,0.501122236251831,0.6397908329963684
1630932216313,0.6903091073036194,0.309295117855072,0.501122236251831,0.6556777358055115
1630932216397,0.6937422752380371,0.309295117855072,0.501122236251831,0.6510012149810791
1630932216485,0.6996904015541077,0.309295117855072,0.501122236251831,0.6670528650283813
1630932216603,0.7148355841636658,0.309295117855072,0.501122236251831,0.6881908178329468
1630932216665,0.7782334089279175,0.309295117855072,0.501122236251831,0.7215220332145691
1630932216784,0.8465825319290161,0.309295117855072,-0.1025386229157447,0.7765723466873169
1630932216901,0.8847482204437256,0.309295117855072,0.0330802761018276,0.8131557106971741
1630932217070,0.8861070871353149,-0.1580433100461959,0.1083728224039077,0.8752660155296326
1630932217122,0.9088543057441713,-0.0971216335892677,0.1395063698291778,0.8752660155296326
1630932217213,0.9990390539169312,0.0687655508518219,0.1500855833292007,0.8752660155296326
1630932217283,0.993667483329773,0.2061851918697357,0.1594844311475753,0.8752660155296326
1630932217378,0.9816932678222656,0.2670838534832001,0.1970336437225341,0.8741811513900757
1630932217510,0.9690523147583008,0.2931063175201416,0.22261643409729,0.870625913143158
1630932217599,0.9551227688789368,0.3203975558280945,0.2248591780662536,0.8622449636459351
1630932217753,0.9479115605354308,0.3374000191688537,0.2248591780662536,0.8551756739616394
1630932217794,0.945093870162964,0.3392429649829864,0.2248591780662536,0.8551756739616394
1630932217912,0.9405173659324646,0.3392429649829864,0.2248591780662536,0.8551756739616394
1630932218036,0.9405173659324646,0.3392429649829864,0.2302568107843399,0.8551756739616394
1630932218114,0.9405173659324646,0.3486255407333374,0.2338622510433197,0.8551756739616394
1630932218255,0.9405173659324646,0.3758649826049804,0.2437872886657714,0.8551756739616394
1630932218338,0.9405173659324646,0.4408017694950104,0.2574889659881592,0.8551756739616394
1630932218431,0.9570512175559998,0.483406513929367,0.2593722939491272,0.8551756739616394
1630932218519,0.9708963632583618,0.4951419830322265,0.2819125056266784,0.8551756739616394
1630932218612,0.9369542002677916,0.4990185797214508,0.2895607948303222,0.8551756739616394
1630932218762,0.7703554630279541,0.5009604692459106,0.2773107588291168,0.8551756739616394
1630932218857,0.7703554630279541,0.5074242949485779,0.2539829909801483,0.8551756739616394
1630932218920,0.7703554630279541,0.5150682926177979,0.2336742281913757,0.8551756739616394
1630932219056,0.785610020160675,0.515920877456665,0.2075581699609756,0.9189825654029846
1630932219133,0.8123980760574341,0.507571280002594,0.1733205020427703,0.9318374395370485
1630932219213,0.8123980760574341,0.4938082098960876,0.1698486655950546,0.9318374395370485
1630932219349,0.8179685473442078,0.4786579310894012,0.1731822043657302,0.9318374395370485
1630932219432,0.8179685473442078,0.4646900594234466,0.1731822043657302,0.9318374395370485
1630932219581,0.8179685473442078,0.4631110727787018,0.1731822043657302,0.9318374395370485
1630932219632,0.8179685473442078,0.4735039472579956,0.1731822043657302,0.9318374395370485
1630932219726,0.8179685473442078,0.474732756614685,0.1731822043657302,0.9318374395370485
1630932219813,0.8179685473442078,0.4675715565681457,0.1721374243497848,0.9318374395370485
1630932219945,0.8163938522338867,0.4530976116657257,0.1663770377635955,0.9318374395370485
1630932220035,0.7672011852264404,0.4284157454967499,0.1460061073303222,0.9318374395370485
1630932220171,0.5921289920806885,0.4167703986167907,0.0984550938010215,0.9318374395370485
1630932220268,0.5921289920806885,0.4235468804836273,-0.0011994859669357,0.8531408309936523
1630932220352,0.5921289920806885,0.4138001203536987,-0.0731819570064544,0.8531408309936523
1630932220452,0.5921289920806885,0.4147977828979492,-0.0815083608031272,0.8531408309936523
1630932220586,0.5921289920806885,0.4147977828979492,-0.0815083608031272,0.8531408309936523
1630932220669,0.5921289920806885,0.4147977828979492,-0.0814406275749206,0.8531408309936523
1630932220784,0.5921289920806885,0.4147977828979492,-0.053540151566267,0.8531408309936523
1630932220845,0.5921289920806885,0.4105384349822998,-0.0288551338016986,0.7984908819198608
1630932220935,0.5921289920806885,0.4391168355941772,0.0272261928766965,0.943247377872467
1630932221027,0.5921289920806885,0.435933768749237,0.0903264358639717,1.0278927087783811
1630932221186,0.5921289920806885,0.4298137426376343,0.1010015159845352,1.0443131923675537
1630932221249,0.5921289920806885,0.420163094997406,0.1091600731015205,1.0443131923675537
1630932221353,0.5921289920806885,0.4153543412685394,0.1326850652694702,1.0443131923675537
1630932221442,0.5921289920806885,0.4128976464271545,0.1295209676027298,1.0443131923675537
1630932221535,0.5921289920806885,0.4064162075519562,0.1230393871665,1.0443131923675537
1630932221647,0.5921289920806885,0.4040628373622894,0.1141356825828552,1.0443131923675537
1630932221780,0.5921289920806885,0.3955889940261841,0.1141030266880989,1.0443131923675537
1630932221868,0.5921289920806885,0.3687672317028045,0.1141030266880989,1.0443131923675537
1630932221964,0.5921289920806885,0.3609873950481415,0.1141030266880989,1.0443131923675537
1630932222090,0.5921289920806885,0.3651019334793091,0.1141030266880989,1.0389318466186523
1630932222180,0.5921289920806885,0.3677789568901062,0.1141030266880989,1.0369951725006104
1630932222249,0.5921289920806885,0.361110121011734,0.1119575276970863,1.033373475074768
1630932222385,0.5921289920806885,0.3253282606601715,0.1100999340415,1.0242756605148315
1630932222482,0.5921289920806885,0.2988421022891998,0.1100999340415,1.0154603719711304
1630932222610,0.5921289920806885,0.2440863102674484,0.0890753790736198,0.9821937680244446
1630932222673,0.5921289920806885,0.1804208606481552,0.0236352197825908,0.8608188629150391
1630932222765,0.5921289920806885,0.1606315374374389,-0.0160904470831155,0.7065131068229675
1630932222880,0.5921289920806885,0.1606315374374389,-0.0255650524049997,0.5931235551834106
1630932223015,0.5921289920806885,0.1606315374374389,-0.0508506707847118,0.5462031364440918
1630932223109,0.5921289920806885,0.178166925907135,-0.0559255070984363,0.540948748588562
1630932223196,0.5921289920806885,0.1996175050735473,-0.039889995008707,0.5335455536842346
1630932223280,0.5921289920806885,0.2158439308404922,0.0180554520338773,0.5335455536842346
1630932223371,0.5921289920806885,0.2232232540845871,0.1291766166687011,0.5291078686714172
1630932223470,0.5921289920806885,0.2472369372844696,0.2114949077367782,0.5237112045288086
1630932223648,0.5921289920806885,0.3098149597644806,0.1989800333976745,0.5224886536598206
1630932223720,0.5921289920806885,0.3852175176143646,0.1989237517118454,0.5224886536598206
1630932223812,0.5921289920806885,0.4221760034561157,0.1961258351802826,0.5224886536598206
1630932223896,0.5921289920806885,0.473985493183136,0.1918024271726608,0.5224886536598206
1630932223984,0.5921289920806885,0.6400743722915649,0.1778161227703094,0.5224746465682983
1630932224072,0.5921289920806885,0.7745094895362854,0.1638793647289276,0.5145185589790344
1630932224214,0.5921289920806885,0.7745094895362854,0.1590353399515152,0.5145185589790344
1630932224322,0.5921289920806885,0.7745094895362854,0.1499081552028656,0.5145185589790344
1630932224413,0.5921289920806885,0.7745094895362854,0.2587621212005615,0.5145185589790344
1630932224501,0.5921289920806885,0.7745094895362854,0.289151132106781,0.5145185589790344
1630932224603,0.9531946182250975,0.7745094895362854,0.3189519643783569,0.3009452223777771
1630932224686,0.9614220261573792,0.7745094895362854,0.3228490650653839,0.3769551515579223
1630932224853,0.9614220261573792,0.7745094895362854,0.3240702748298645,0.4219901859760284
1630932224932,0.9614220261573792,0.7745094895362854,0.3247298300266266,0.4334163069725036
1630932225013,0.9614220261573792,0.7745094895362854,0.2524605989456177,0.4445085823535919
1630932225119,0.9614220261573792,0.7745094895362854,0.2524605989456177,0.4700768589973449
1630932225218,0.9614220261573792,0.7745094895362854,0.2524605989456177,0.5081701874732971
1630932225286,0.9630700945854188,0.7683461308479309,0.2524605989456177,0.566516101360321
1630932225464,0.9843546748161316,0.7481848001480103,0.2524605989456177,0.6735371947288513
1630932225524,1.0360701084136963,0.7140262722969055,0.4768095910549164,0.758959174156189
1630932225637,1.0360701084136963,-0.1117880195379257,0.4795354306697845,0.758959174156189
1630932225730,1.0360701084136963,-0.0603239387273788,0.4795354306697845,0.758959174156189
1630932225826,1.0289682149887085,-0.0067070722579956,0.4795354306697845,0.758959174156189
1630932225918,1.01073157787323,0.0090064061805605,0.4795354306697845,0.758959174156189
1630932226050,0.9952102303504944,0.0538201071321964,0.4749611616134643,0.7548219561576843
1630932226149,0.9769536852836608,0.1456377059221267,0.4153722524642944,0.7481223940849304
1630932226230,0.9413121342658995,0.2236374169588089,0.3579110205173492,0.739824116230011
1630932226344,0.8888583183288574,0.2565451860427856,0.3305214643478393,0.7375435829162598
1630932226414,0.8228536248207092,0.2565451860427856,0.3305214643478393,0.7360852956771851
1630932226515,0.750178873538971,0.2565451860427856,0.3305214643478393,0.7340287566184998
1630932226677,0.6702789068222046,0.2565451860427856,0.3305214643478393,0.7285090684890747
1630932226748,0.6702789068222046,0.2565451860427856,0.3305214643478393,0.7285090684890747
1630932226840,0.6702789068222046,0.2565451860427856,0.3305214643478393,0.7285090684890747
1630932226955,0.6702789068222046,0.2565451860427856,0.3305214643478393,0.7285090684890747
1630932227047,0.6702789068222046,0.2565451860427856,0.3305214643478393,0.7285090684890747
1630932227123,0.6702789068222046,0.2565451860427856,0.3305214643478393,0.7285090684890747
1630932227284,0.6702789068222046,0.2565451860427856,0.3305214643478393,0.7285090684890747
1630932227351,0.6702789068222046,0.5722447037696838,0.3305214643478393,0.7285090684890747
1630932227480,1.1774822473526,0.5869991779327393,0.3305214643478393,0.7285090684890747
1630932227546,1.1774822473526,0.605864405632019,0.3305214643478393,0.7285090684890747
1630932227636,1.1774822473526,0.6015055775642395,0.3305214643478393,1.225307583808899
1630932227736,1.1774822473526,0.5978860259056091,0.3305214643478393,1.225307583808899
1630932227886,1.1774822473526,0.5978860259056091,0.3305214643478393,1.225307583808899
1630932227987,1.1774822473526,0.5978860259056091,0.3305214643478393,1.225307583808899
1630932228071,1.1774822473526,0.5978860259056091,0.3305214643478393,1.225307583808899
1630932228170,1.1774822473526,0.6002979874610901,0.1195222809910774,1.243743896484375
1630932228254,1.1774822473526,0.6005536913871765,0.1381329298019409,1.243743896484375
1630932228371,1.2041001319885254,0.6015920042991638,0.1407694965600967,1.243743896484375
1630932228490,1.2114561796188354,0.6026988625526428,0.1432763785123825,1.243743896484375
1630932228584,1.2122615575790403,0.6039722561836243,0.1432763785123825,1.248184323310852
1630932228671,1.2117961645126345,0.6070119738578796,0.1432763785123825,1.2486915588378906
1630932228774,1.1874778270721436,0.6166782975196838,0.1432763785123825,1.2486915588378906
1630932228853,1.0895885229110718,0.6141480207443237,0.1432763785123825,1.154406189918518
1630932228933,0.9361104369163512,0.5603139400482178,0.1432763785123825,0.966181755065918
1630932229141,0.7791491746902466,0.1469963639974594,0.1478122621774673,0.8089076280593872
1630932229177,0.7900840640068054,0.1469963639974594,0.1572628617286682,0.7590267062187195
1630932229315,0.8121224045753479,0.1524229049682617,0.1612414121627807,0.763990044593811
1630932229382,0.8299492597579956,0.1524229049682617,0.154067263007164,0.763990044593811
1630932229462,0.8360209465026855,0.1524229049682617,0.1520992964506149,0.763990044593811
1630932229568,0.8466526865959167,0.1524229049682617,0.1487829536199569,0.763990044593811
1630932229705,0.8482491970062256,0.1513546705245971,0.139902725815773,0.7495874762535095
1630932229821,0.8506344556808472,0.1125053986907005,0.0847880989313125,0.7391349673271179
1630932229903,0.8538329005241394,0.0466064736247062,-0.0188149027526378,0.694333553314209
1630932230001,0.8538329005241394,0.0133529920130968,-0.0838721692562103,0.6647243499755859
1630932230078,0.8538329005241394,0.0133529920130968,-0.062980443239212,0.6680252552032471
1630932230187,0.8672455549240112,0.0133529920130968,0.0360243432223796,0.7127662897109985
1630932230305,0.8844648003578186,0.0359908677637577,0.0974678471684455,0.7238541841506958
1630932230420,0.8935731649398804,0.0891469866037368,0.1355095207691192,0.7321779131889343
1630932230509,0.9069226384162904,0.0941037535667419,0.1630449444055557,0.7321779131889343
1630932230612,0.9213992953300476,0.0999423637986183,0.1921142190694809,0.7321779131889343
1630932230686,0.9444133043289183,0.1247149035334587,0.2202273309230804,0.7321779131889343
1630932230771,0.97152978181839,0.1369008421897888,0.2502875626087188,0.7045444250106812
1630932230903,0.9779317378997804,0.1426238119602203,0.2643407881259918,0.6810171604156494
1630932231017,0.9643146991729736,0.1426238119602203,0.2717078924179077,0.6668573021888733
1630932231111,0.9446077346801758,0.1426238119602203,0.2717078924179077,0.6574475169181824
1630932231202,0.9208417534828186,0.1384067237377166,0.2717078924179077,0.6482853293418884
1630932231309,0.9034605622291564,0.1277476698160171,0.2717078924179077,0.6695960760116577
1630932231402,0.9030280113220216,0.1179209426045417,0.284846693277359,0.7001975774765015
1630932231532,0.9226938486099244,0.1127541214227676,0.302347332239151,0.7230690121650696
1630932231619,0.9533218145370485,0.1234000921249389,0.3359805941581726,0.7363517880439758
1630932231723,0.9957376718521118,0.183312326669693,0.3512587249279022,0.7641327381134033
1630932231825,1.003607988357544,0.2289636880159378,0.3553055226802826,0.756402313709259
1630932231915,1.0051565170288086,0.2364820837974548,0.3646138906478882,0.7749283909797668
1630932232005,1.0051565170288086,0.2393107861280441,0.3629984557628631,0.7749283909797668
1630932232136,1.0051565170288086,0.2428517043590545,0.3348717093467712,0.7749283909797668
1630932232246,1.0051565170288086,0.2591803967952728,0.3040615618228912,0.7749283909797668
1630932232337,1.0050033330917358,0.2653311192989349,0.2930698692798614,0.7749283909797668
1630932232429,0.9960228204727172,0.2653311192989349,0.2865186333656311,0.7749283909797668
1630932232520,0.98443341255188,0.2682320773601532,0.2552341520786285,0.7749283909797668
1630932232604,0.9762168526649476,0.2868102490901947,0.2143372148275375,0.7749283909797668
1630932232741,0.9634432792663574,0.2868102490901947,0.213885024189949,0.7749283909797668
1630932232847,0.9617743492126464,0.2888833880424499,0.2265615165233612,0.7741751670837402
1630932232920,0.9665659070014954,0.2888833880424499,0.2273608148097992,0.7607730627059937
1630932233028,0.9750778079032898,0.2888833880424499,0.2273608148097992,0.753264844417572
1630932233150,0.994129240512848,0.2888833880424499,0.2273608148097992,0.7605873346328735
1630932233211,0.9981502294540404,0.2888833880424499,0.2017869353294372,0.8046442866325378
1630932233363,1.0024715662002563,0.3041399419307709,0.1636537611484527,0.9234780073165894
1630932233457,1.011912226676941,0.3544281125068664,0.1607993692159652,0.9726390838623048
1630932233545,1.0278630256652832,0.3683874309062958,0.1489541977643966,0.975293219089508
1630932233658,1.037848711013794,0.387825608253479,0.1369722485542297,0.9756471514701844
1630932233722,1.0482828617095947,0.4203405678272247,0.1369722485542297,0.9756471514701844
1630932233837,1.0630849599838257,0.4391161799430847,0.1369722485542297,0.9756471514701844
1630932233972,1.0786962509155271,0.4410514831542969,0.1276040226221084,0.9756471514701844
1630932234065,1.0877878665924072,0.4451547563076019,0.0889783948659896,0.9756471514701844
1630932234155,1.0882803201675415,0.4505219161510467,0.0356972739100456,0.9756471514701844
1630932234238,1.0882803201675415,0.4533226490020752,-0.0112444590777158,0.9756471514701844
1630932234360,1.0882803201675415,0.4533226490020752,-0.0466421283781528,0.9756471514701844
1630932234439,1.0882803201675415,0.4539024233818054,-0.0782665610313415,0.9756471514701844
1630932234604,1.0882803201675415,0.4554423689842224,-0.1087053269147872,0.9756471514701844
1630932234669,1.1030840873718262,0.4572291374206543,-0.1216963827610015,0.9756471514701844
1630932234784,1.1579385995864868,0.4572291374206543,-0.1262932419776916,0.9756471514701844
1630932234885,1.184612274169922,0.4572291374206543,-0.1383295208215713,0.9525753259658812
1630932234999,1.1902145147323608,0.4568408131599426,-0.1555448323488235,0.8516813516616821
1630932235061,1.1902145147323608,0.4186875224113464,-0.1607714593410492,0.7135002613067627
1630932235187,1.1902145147323608,0.3669523000717163,-0.1607714593410492,0.6453195810317993
1630932235265,1.1902145147323608,0.3310618996620178,-0.1542035341262817,0.6245992183685303
1630932235369,1.1887644529342651,0.2976320385932922,-0.106598399579525,0.6135565638542175
1630932235470,1.1780024766921997,0.253696084022522,-0.0685747489333152,0.6205874085426331
1630932235562,1.1672991514205933,0.2069533318281173,-0.0474938601255416,0.6504700779914856
1630932235678,1.1543703079223633,0.1755205392837524,-0.0277469269931316,0.6971896886825562
1630932235823,1.1453781127929688,0.180568590760231,-0.0174646973609924,0.7121114730834961
1630932235901,1.141681671142578,0.2308584302663803,-0.021967589855194,0.6873885989189148
1630932235961,1.141681671142578,0.2690508663654327,-0.0224489215761423,0.6554489135742188
1630932236075,1.141681671142578,0.2738955318927765,-0.0009554880089126,0.6484485268592834
1630932236213,1.1390860080718994,0.274757832288742,0.0178874060511589,0.6456465125083923
1630932236282,1.127672553062439,0.274757832288742,0.0347535647451877,0.6453147530555725
1630932236405,1.0784119367599487,0.2758930027484894,0.0347535647451877,0.6453147530555725
1630932236506,0.9706725478172302,0.281953752040863,0.0347535647451877,0.6453147530555725
1630932236613,0.8204270005226135,0.286485493183136,0.0347535647451877,0.6453147530555725
1630932236675,0.72872394323349,0.286485493183136,0.0347535647451877,0.6364344358444214
1630932236780,0.6779173612594604,0.286485493183136,0.0347535647451877,0.6036275625228882
1630932236900,0.6278051137924194,0.286485493183136,0.0421097800135612,0.5554274916648865
1630932237034,0.5734885931015015,0.2858355343341827,0.0292272213846445,0.5477188229560852
1630932237099,0.5181809067726135,0.2852044403553009,-0.0023335348814725,0.5457556247711182
1630932237219,0.4685341417789459,0.2623062431812286,0.0830171853303909,0.5397831797599792
1630932237307,0.4483445286750793,0.2572033703327179,0.1249708756804466,0.5168936848640442
1630932237395,0.4673604071140289,0.2517183423042297,0.1404215544462204,0.5009313225746155
1630932237485,0.5064340233802795,0.2351392656564712,0.1409266889095306,0.4765419661998749
1630932237612,0.534937858581543,0.1926334053277969,0.1362041234970092,0.4870574474334717
1630932237706,0.5616363883018494,0.1337324380874633,0.1381366848945617,0.5011370778083801
1630932237797,0.5650556087493896,0.0523694939911365,0.1528151333332061,0.5168236494064331
1630932237922,0.562949538230896,0.005612336564809,0.1488937586545944,0.5491659045219421
1630932238022,0.5368913412094116,-0.0170392338186502,0.1475423723459243,0.5614767074584961
1630932238088,0.4855290651321411,-0.0266224779188632,0.1455202847719192,0.5741221308708191
1630932238242,0.4639822542667389,-0.0287038311362266,0.1477732211351394,0.5848004221916199
1630932238333,0.4639822542667389,-0.0398208461701869,0.1486641764640808,0.61127769947052
1630932238443,0.4639822542667389,-0.0556851029396057,0.1486641764640808,0.6147701144218445
1630932238524,1.018613338470459,-0.0374460853636264,0.1486641764640808,0.6150826811790466
1630932238598,1.0665762424468994,-0.0134523948654532,0.145282581448555,0.6154540777206421
1630932238697,1.1127166748046875,-0.0134289758279919,0.1338020712137222,0.6458741426467896
1630932238852,1.1756497621536257,0.0042553856037557,0.116837091743946,0.728873074054718
1630932238949,1.215267539024353,0.0323552675545215,0.1559232026338577,0.8318774700164795
1630932239037,1.218745470046997,0.0260597933083772,0.1744016706943512,0.8861130475997925
1630932239125,1.2199653387069702,0.0260597933083772,0.1603934168815612,0.9061506986618042
1630932239214,1.2199653387069702,0.0260597933083772,0.1414681077003479,0.9071821570396424
1630932239314,1.2199653387069702,0.0260597933083772,0.129514068365097,0.9478271007537842
1630932239481,1.2199653387069702,0.0260597933083772,0.1056926399469375,1.0152591466903689
1630932239574,1.2199653387069702,0.0260597933083772,0.0911575704813003,1.0750937461853027
1630932239654,1.2199653387069702,0.0260597933083772,0.0882385894656181,1.1080440282821655
1630932239752,1.2199653387069702,0.0260597933083772,0.0853706449270248,1.1091331243515017
1630932239815,1.2199653387069702,0.0260597933083772,0.0820386856794357,1.1091331243515017
1630932239937,1.2212886810302734,0.0521700456738472,0.2262891381978988,1.1091331243515017
1630932240066,1.211280107498169,0.0675430223345756,0.2701179683208465,1.1091331243515017
1630932240156,1.1917179822921753,0.0834667384624481,0.2884327173233032,1.1091331243515017
1630932240247,1.210957407951355,0.0796928480267524,0.2929383516311645,1.1091331243515017
1630932240357,1.223846673965454,0.0742744281888008,0.2979581356048584,1.1091331243515017
1630932240453,1.203161358833313,0.0486076921224594,0.3061461746692657,1.1026495695114136
1630932240534,1.1841168403625488,0.0761407986283302,0.330041766166687,1.0666329860687256
1630932240665,1.2406436204910278,0.0972433388233184,0.3732955753803253,1.0286633968353271
1630932240757,1.268944263458252,0.1024447754025459,0.3980754017829895,0.987268328666687
1630932240904,1.2905426025390625,0.1153143942356109,0.3980754017829895,0.9535303711891174
1630932240965,1.3035897016525269,0.1199820190668106,0.3980754017829895,0.9271180629730223
1630932241054,1.3069621324539185,0.1199820190668106,0.3980754017829895,0.922573745250702
1630932241166,1.3075250387191772,0.1199820190668106,0.3980754017829895,0.9080520272254944
1630932241297,1.3075250387191772,0.1199820190668106,0.3980754017829895,0.8550295829772949
1630932241359,1.3075250387191772,0.122272603213787,0.3980754017829895,0.8363968729972839
1630932241506,1.3075250387191772,0.1234793588519096,0.3980754017829895,0.8413739800453186
1630932241589,1.3063764572143557,0.1216511726379394,0.3980754017829895,0.8305036425590515
1630932241686,1.3051245212554932,0.1198965236544609,0.3933685421943664,0.813672661781311
1630932241782,1.3051245212554932,0.1127583011984825,0.3685104250907898,0.7769259214401245
1630932241923,1.3023505210876465,0.1055347993969917,0.3406633138656616,0.7645601630210876
1630932241973,1.2889853715896606,0.073919229209423,0.3241475224494934,0.7645601630210876
1630932242087,1.2600072622299194,0.0592001713812351,0.3241475224494934,0.7645601630210876
1630932242166,1.1933528184890747,0.0335558019578456,0.3151367902755737,0.7625823616981506
1630932242281,1.0755677223205566,0.0200650207698345,0.2416057884693145,0.7558838725090027
1630932242344,0.9835028052330016,0.0056001143530011,0.1432712823152542,0.7558838725090027
1630932242506,0.8841652274131775,-0.0208801627159118,0.0956822782754898,0.7558838725090027
1630932242593,0.756257176399231,-0.0571501217782497,0.0956822782754898,0.7558838725090027
1630932242681,0.6433750987052917,-0.0573489181697368,0.0956822782754898,0.770074725151062
1630932242789,0.5914958119392395,-0.0591251738369464,0.0944775864481926,0.8007616996765137
1630932242916,0.6261855363845825,-0.0425270907580852,0.0894845277070999,0.8061997294425964
1630932242996,0.6722516417503357,0.0318034440279006,0.0529790036380291,0.7765502333641052
1630932243107,0.7024487853050232,0.0849163755774498,0.0072372932918369,0.7110971212387085
1630932243199,0.7339431047439575,0.0982552766799926,-0.0761622190475463,0.6558007597923279
1630932243321,0.7947479486465454,0.0867815911769867,-0.066483549773693,0.6718312501907349
1630932243394,0.8357149362564087,0.0863029584288597,-0.05069001019001,0.7449663281440735
1630932243490,0.846160888671875,0.111763060092926,-0.0536148771643638,0.775927722454071
1630932243599,0.846160888671875,0.1314808279275894,-0.053657628595829,0.775927722454071
1630932243708,0.846160888671875,0.151289165019989,-0.0684335306286811,0.775927722454071
1630932243802,0.846160888671875,0.1691037863492965,-0.1060528010129928,0.775927722454071
1630932243912,0.846160888671875,0.1691037863492965,-0.129806101322174,0.7797651290893555
1630932244006,0.846160888671875,0.1691037863492965,-0.1506673246622085,0.7899684906005859
1630932244091,0.846160888671875,0.1691037863492965,-0.1459962129592895,0.7975074052810669
1630932244181,0.8495738506317139,0.1691037863492965,-0.142260193824768,0.7975074052810669
1630932244352,0.8495738506317139,0.1691037863492965,-0.1357623040676117,0.7975074052810669
1630932244405,0.8495738506317139,0.1691037863492965,-0.126062586903572,0.8001172542572021
1630932244515,0.8443918228149414,0.1691037863492965,-0.0957710966467857,0.8316065669059753
1630932244605,0.8436322212219238,0.159479409456253,-0.0642696991562843,0.8505011200904846
1630932244693,0.8436322212219238,0.151058942079544,-0.024315096437931,0.8474728465080261
1630932244781,0.8436322212219238,0.1424601972103119,-0.0012988218804821,0.8224884271621704
1630932244946,0.8247883915901184,0.1485868394374847,-0.0261030495166778,0.758583664894104
1630932245043,0.7704941630363464,0.1608582139015197,-0.0610619410872459,0.6903786659240723
1630932245120,0.7702481746673584,0.1104155927896499,-0.0685195177793502,0.6794042587280273
1630932245232,0.7736649513244629,0.0378551706671714,-0.0719665810465812,0.6794042587280273
1630932245334,0.7745506763458252,0.0250200387090444,-0.0729155465960502,0.6794042587280273
1630932245414,0.7745506763458252,0.0262283738702535,-0.0578427128493785,0.6794042587280273
1630932245552,0.7745506763458252,0.0414403602480888,-0.0550183244049549,0.6794042587280273
1630932245632,0.7745506763458252,0.1241534426808357,-0.0449625439941883,0.6688326597213745
1630932245728,0.7744636535644531,0.1804185360670089,-0.0325413234531879,0.6443547606468201
1630932245810,0.7970050573348999,0.1919284611940384,-0.0255451761186122,0.6319210529327393
1630932245925,0.7993106842041016,0.1993168443441391,-0.023631390184164,0.648953378200531
1630932246015,0.7986876964569092,0.2053431123495102,-0.0180483572185039,0.6715207099914551
1630932246164,0.7977472543716431,0.2060925960540771,0.016601238399744,0.6801726818084717
1630932246240,0.7949090600013733,0.2092770785093307,0.048873234540224,0.6555390954017639
1630932246332,0.7811082601547241,0.2196457982063293,0.0550140887498855,0.6219848394393921
1630932246415,0.7770103812217712,0.2227376401424408,0.0473097972571849,0.6021064519882202
1630932246515,0.7837591171264648,0.2240918725728988,0.021742632612586,0.5996611714363098
1630932246652,0.7852109670639038,0.2249692976474762,-0.0049050906673073,0.5959289073944092
1630932246804,0.7929503917694092,0.2216056436300277,-0.0049050906673073,0.5801087021827698
1630932246867,0.7762571573257446,0.2093747407197952,-0.0049050906673073,0.5641195774078369
1630932246959,0.7257300019264221,0.205117329955101,-0.0038308817893266,0.5637056231498718
1630932247052,0.6603502035140991,0.205117329955101,-0.0022464850917458,0.5819559097290039
1630932247168,0.6312145590782166,0.205117329955101,-0.0013478646287694,0.589604377746582
1630932247250,0.6305716037750244,0.205117329955101,-0.0011348016560077,0.589604377746582
1630932247376,0.6266705393791199,0.1655076444149017,-0.0125082619488239,0.5840650796890259
1630932247503,0.6025990843772888,0.0827067419886589,-0.0054100714623928,0.5725986957550049
1630932247571,0.5585096478462219,-0.0328787118196487,-0.0008962034480646,0.5602990388870239
1630932247668,0.5155068635940552,-0.1009552180767059,0.0001407325908076,0.574774980545044
1630932247753,0.5550543069839478,-0.1628948003053665,-0.0028060106560587,0.5791261792182922
1630932247838,0.592129111289978,-0.2276443988084793,-0.0247427821159362,0.5479274988174438
1630932247995,0.6165611743927002,-0.2737270593643188,-0.0642134174704551,0.5422414541244507
1630932248083,0.6415716409683228,-0.2827998697757721,-0.0929670929908752,0.560041606426239
1630932248171,0.6807701587677002,-0.2830092310905456,-0.0929670929908752,0.5960599184036255
1630932248310,0.7077087759971619,-0.253669261932373,-0.0929670929908752,0.6524180173873901
1630932248379,0.7192535400390625,-0.1606683135032653,-0.0929670929908752,0.7219818830490112
1630932248498,0.7122337818145752,-0.102102905511856,-0.095422439277172,0.7613887786865234
1630932248579,0.70206218957901,-0.0535607561469078,-0.0974790826439857,0.7889078259468079
1630932248698,0.6958392858505249,0.0427582189440727,-0.1014088690280914,0.7982580661773682
1630932248789,0.6940485239028931,0.1341775208711624,-0.1082180812954902,0.7898462414741516
1630932248881,0.6969667673110962,0.2033421844244003,-0.0920471027493476,0.7845664620399475
1630932248960,0.7031965255737305,0.2249738126993179,-0.0429858490824699,0.7855692505836487
1630932249095,0.7083081007003784,0.2481689006090164,0.0219950936734676,0.7855692505836487
1630932249198,0.7083081007003784,0.2543592751026153,0.0472274422645568,0.7855692505836487
1630932249338,0.7047459483146667,0.2543592751026153,0.0773760378360748,0.7855692505836487
1630932249413,0.7047459483146667,0.2543592751026153,0.0778419896960258,0.7855692505836487
1630932249495,0.7047459483146667,0.2543592751026153,0.0812768936157226,0.7855692505836487
1630932249604,0.7047459483146667,0.2543592751026153,0.0820688232779502,0.7855692505836487
1630932249673,0.6944330930709839,0.2543592751026153,0.098295196890831,0.7855692505836487
1630932249808,0.6535360217094421,0.2543592751026153,0.1251250356435775,0.7846918106079102
1630932249918,0.5753440260887146,0.2463108003139495,0.1251250356435775,0.7674518823623657
1630932250007,0.4847705662250519,0.2317223101854324,0.1251250356435775,0.7217702269554138
1630932250077,0.4353433847427368,0.2252058386802673,0.1246099844574928,0.6784644722938538
1630932250198,0.4300664961338043,0.2252058386802673,0.1246099844574928,0.6602609157562256
1630932250299,0.4300664961338043,0.2252058386802673,0.1246099844574928,0.6602609157562256
1630932250414,0.4300664961338043,0.2252058386802673,0.1235786750912666,0.6602609157562256
1630932250496,0.4300664961338043,0.2252058386802673,0.1226596757769584,0.6602609157562256
1630932250591,0.4300664961338043,0.2252058386802673,0.1122471690177917,0.6602609157562256
1630932250686,0.4300664961338043,0.2252058386802673,0.0878690257668495,0.6602609157562256
1630932250798,0.4300664961338043,0.2252058386802673,0.0595607049763202,0.4289387762546539
1630932250907,0.4300664961338043,0.2252058386802673,0.0182871799916028,0.4357948303222656
1630932251040,0.4300664961338043,0.2252058386802673,0.0182871799916028,0.4499936997890472
1630932251130,0.4300664961338043,0.2252058386802673,0.0182871799916028,0.4804697334766388
1630932251224,0.4300664961338043,0.2252058386802673,0.0182871799916028,0.5469695329666138
1630932251317,0.4300664961338043,0.2252058386802673,0.0182871799916028,0.6444001793861389
1630932251405,0.4300664961338043,0.2252058386802673,0.0182871799916028,0.718109667301178
1630932251484,0.4300664961338043,0.2252058386802673,0.3653503656387329,0.7394153475761414
1630932251640,0.4300664961338043,0.2700355947017669,0.374916136264801,0.7506638169288635
1630932251737,0.4300664961338043,0.2700355947017669,0.374916136264801,0.755708634853363
1630932251836,0.4300664961338043,0.2710737287998199,0.374916136264801,0.755708634853363
1630932251947,0.4300664961338043,0.2923628687858581,0.374916136264801,0.755708634853363
1630932251995,0.4300664961338043,0.3117174804210663,0.374916136264801,0.7294591069221497
1630932252124,0.4300664961338043,0.3413679599761963,0.374916136264801,0.7262811660766602
1630932252281,0.4300664961338043,0.3697877526283264,0.3908545076847076,0.7262811660766602
1630932252331,0.4300664961338043,0.3902890980243683,0.4508793354034424,0.7262811660766602
1630932252422,0.4300664961338043,0.4060226082801819,0.4612916707992553,0.7262811660766602
1630932252552,0.4300664961338043,0.406200110912323,0.4815568923950195,0.7262811660766602
1630932252620,0.4300664961338043,0.406200110912323,0.4988888800144195,0.7262811660766602
1630932252741,0.4300664961338043,0.406200110912323,0.4988888800144195,0.7262811660766602
1630932252846,0.4300664961338043,0.4031439423561096,0.4967357814311981,0.7262811660766602
1630932252953,0.4300664961338043,0.3866957426071167,0.4954554140567779,0.7164329886436462
1630932253040,0.4300664961338043,0.3255636096000671,0.4954554140567779,0.7164329886436462
1630932253131,0.4300664961338043,0.2416102290153503,0.4954554140567779,0.7164329886436462
1630932253216,0.4300664961338043,0.2035753428936004,0.4954554140567779,0.7164329886436462
1630932253334,0.4300664961338043,0.1961836218833923,0.4954554140567779,0.7164329886436462
1630932253470,0.4300664961338043,0.1920615583658218,0.4954554140567779,0.7164329886436462
1630932253585,0.4300664961338043,0.1787998974323272,0.4954554140567779,0.7164329886436462
1630932253657,0.4300664961338043,0.1778000742197036,0.4954554140567779,0.7164329886436462
1630932253758,0.4300664961338043,0.165457934141159,0.4954554140567779,0.7164329886436462
1630932253854,0.4300664961338043,0.1540615707635879,0.4575419127941131,0.7164329886436462
1630932253931,0.4300664961338043,0.101296991109848,0.3187607228755951,0.7164329886436462
1630932254066,0.4300664961338043,0.0193628296256065,0.2107639014720916,0.7164329886436462
1630932254153,0.4300664961338043,-0.1988284140825271,0.1549622267484665,0.7164329886436462
1630932254248,0.4300664961338043,-0.1666582077741623,0.0706518292427063,0.6327008008956909
1630932254334,0.506881594657898,-0.0737001001834869,0.0337013714015483,0.6359724402427673
1630932254470,0.6063768863677979,0.0300380494445562,0.0352193899452686,0.6506473422050476
1630932254537,0.6876674294471741,0.0622732862830162,0.0757893025875091,0.6941015124320984
1630932254697,0.7681838274002075,0.0622732862830162,0.0793418735265731,0.7564474940299988
1630932254772,0.8179685473442078,0.0622732862830162,0.0793418735265731,0.8552212715148926
1630932254900,0.8374534249305725,0.0644953846931457,0.0777516514062881,0.9406111836433412
1630932254956,0.866045355796814,0.0692688077688217,0.0789894461631774,0.981289267539978
1630932255070,0.8979787230491638,0.0783279538154602,0.0792188569903373,0.9884843230247498
1630932255153,0.9095315337181092,0.1131505668163299,0.0792188569903373,0.9945536851882936
1630932255304,0.9126447439193726,0.1238065063953399,0.0792188569903373,0.9975948333740234
1630932255386,0.9170615673065186,0.1352446973323822,0.0715416446328163,0.9975948333740234
1630932255499,0.9223244190216064,0.1373341828584671,0.0672528222203254,0.9975948333740234
1630932255592,0.9223244190216064,0.1373341828584671,0.0617013052105903,0.9975948333740234
1630932255655,0.9223244190216064,0.1373341828584671,0.0428989678621292,0.9912721514701844
1630932255761,0.9223244190216064,0.1446664482355117,0.0345744378864765,0.9736125469207764
1630932255887,0.9223244190216064,0.143466055393219,0.0320988930761814,0.9646838903427124
1630932256024,0.9200764894485474,0.1402243971824646,0.0283601228147745,0.9735321402549744
1630932256082,0.9764255881309508,0.1274275630712509,0.0162916872650384,0.9866474270820618
