timestamp,TP9,AF7,AF8,TP10
1630932113029,0.8005421757698059,2.060539484024048,2.0780253410339355,0.6550034880638123
1630932113191,0.8005421757698059,2.060539484024048,2.0780253410339355,0.6550034880638123
1630932113234,0.8005421757698059,2.060539484024048,2.0780253410339355,0.6550034880638123
1630932113371,0.8005421757698059,2.060539484024048,2.0780253410339355,0.6550034880638123
1630932113500,0.8005421757698059,2.060539484024048,2.0780253410339355,0.6550034880638123
1630932113539,0.8005421757698059,2.060539484024048,2.0780253410339355,0.6550034880638123
1630932113670,0.8005421757698059,2.060539484024048,2.0780253410339355,0.6550034880638123
1630932113748,0.8005421757698059,2.060539484024048,2.0780253410339355,0.6550034880638123
1630932113906,0.8005421757698059,2.060539484024048,2.0780253410339355,0.6550034880638123
1630932113957,0.8005421757698059,0.4924097061157226,2.0780253410339355,0.6550034880638123
1630932114111,0.8005421757698059,0.4612969160079956,2.0780253410339355,0.6550034880638123
1630932114210,0.8005421757698059,0.4056828916072845,2.0780253410339355,0.6550034880638123
1630932114263,0.8005421757698059,0.3844828903675079,2.0780253410339355,0.6550034880638123
1630932114555,0.8005421757698059,0.3599773645401001,2.0780253410339355,0.6550034880638123
1630932114688,0.8005421757698059,0.2640535831451416,2.0780253410339355,0.6773539185523987
1630932114771,0.8005421757698059,0.2877131998538971,2.0780253410339355,0.9102319478988647
1630932114787,0.8005421757698059,0.2902503609657287,2.0780253410339355,1.0741710662841797
1630932114865,0.8005421757698059,0.2743336856365204,2.0780253410339355,1.1668964624404907
1630932115016,0.8005421757698059,0.2501880228519439,2.0780253410339355,1.2018412351608276
1630932115291,0.8005421757698059,0.2310890704393386,2.0780253410339355,1.2018412351608276
1630932115429,0.8005421757698059,0.2267280519008636,2.0780253410339355,1.1742842197418213
1630932115525,0.8005421757698059,0.2340442389249801,2.0780253410339355,1.1267105340957642
1630932115541,0.8005421757698059,0.230552464723587,2.0780253410339355,1.1438264846801758
1630932115652,0.8005421757698059,0.1825144439935684,0.1102704182267189,1.127025485038757
1630932115815,0.8005421757698059,0.1697715520858764,0.0718590393662452,1.1402850151062012
1630932115851,0.8005421757698059,0.1766716986894607,0.1079673990607261,1.1654876470565796
1630932115875,0.8005421757698059,0.1853848695755005,0.2511114180088043,1.2222685813903809
1630932116055,0.8005421757698059,0.1855842471122741,0.4209241569042206,1.2688382863998413
1630932116100,0.8005421757698059,0.1690096110105514,0.5543681383132935,1.2974812984466553
1630932116181,0.8005421757698059,0.1334716379642486,0.6357537508010864,1.3050990104675293
1630932116213,0.8005421757698059,0.089986652135849,0.6709698438644409,1.29000985622406
1630932116390,0.8005421757698059,0.052945252507925,0.672610878944397,1.2533589601516724
1630932116406,0.8005421757698059,0.0317620038986206,0.660490095615387,1.2143512964248655
1630932116662,0.8005421757698059,0.0240587964653968,0.6456022262573242,1.1984028816223145
1630932116720,0.8005421757698059,0.0169912129640579,0.6349904537200928,1.210458517074585
1630932116855,0.8005421757698059,-0.0062871444970369,0.6484063863754272,1.2275546789169312
1630932117047,0.8005421757698059,-0.0432817004621028,0.6723440289497375,1.2507926225662231
1630932117153,0.8005421757698059,-0.0881069079041481,0.6952698826789856,1.2702757120132446
1630932117285,0.8005421757698059,-0.133910670876503,0.7145309448242188,1.2810086011886597
1630932117424,0.8005421757698059,-0.1795100420713424,0.7295829057693481,1.2498291730880735
1630932117466,0.8005421757698059,-0.2252116352319717,0.7343588471412659,1.197284460067749
1630932117512,0.8005421757698059,-0.2637254893779754,0.7274000644683838,1.1215318441390991
1630932117640,0.4475447833538055,-0.2852872908115387,0.7279677987098694,1.0369977951049805
1630932117738,0.4429284036159515,-0.2676497995853424,0.7757387757301331,0.9639735221862792
1630932117781,0.4390884041786194,-0.199180781841278,0.8812894821166992,0.9121261835098268
1630932117869,0.4304846823215484,-0.1116997376084327,1.0024969577789309,0.8761293292045593
1630932117941,0.4188327193260193,-0.021166730672121,1.0948071479797363,0.8530917763710022
1630932117988,0.4171465933322906,0.0583087541162967,1.117679476737976,0.8115264773368835
1630932118016,0.4379865527153015,0.1211826205253601,1.1441078186035156,0.7174409627914429
1630932118129,0.4967078268527984,0.1629299372434616,1.1720542907714844,0.5400186777114868
1630932118334,0.6518561244010925,0.185593232512474,1.1586687564849854,0.5773696303367615
1630932118600,0.6518561244010925,0.188782513141632,1.1426005363464355,0.5773696303367615
1630932118783,0.6604503393173218,0.2458819597959518,1.138753056526184,0.5729029774665833
1630932118914,0.6765498518943787,0.3859564960002899,1.1427761316299438,0.5797678828239441
1630932118939,0.6964608430862427,0.5788449645042419,1.1538416147232056,0.5943556427955627
1630932119159,0.7448136210441589,0.8694777488708496,1.1318210363388062,0.6152092218399048
1630932119192,0.7188484072685242,0.7525584697723389,1.158361315727234,0.6085976958274841
1630932119299,0.7763571739196777,0.9294185638427734,1.048154354095459,0.6092904210090637
1630932119382,0.8179595470428467,0.949097752571106,0.8849590420722961,0.5953856706619263
1630932119427,0.8731102347373962,0.9485129117965698,0.6433717012405396,0.5908014178276062
1630932119549,0.939521551132202,0.9405707716941832,0.6440384387969971,0.6173336505889893
1630932119652,0.939521551132202,0.933278262615204,0.6866121292114258,0.6173336505889893
1630932119822,0.939521551132202,0.9306573867797852,0.7434189319610596,0.6173336505889893
1630932119967,0.939521551132202,0.9399585127830504,0.8313159942626953,0.6173336505889893
1630932120043,0.939521551132202,0.963916540145874,0.9365226030349731,0.6173336505889893
1630932120135,0.939521551132202,0.9958991408348083,1.0475904941558838,0.6173336505889893
1630932120192,0.939521551132202,1.0288904905319214,1.1473544836044312,0.6173336505889893
1630932120277,0.939521551132202,1.0559791326522827,1.1731419563293457,0.6173336505889893
1630932120323,0.939521551132202,1.0658977031707764,1.1964482069015503,0.6173336505889893
1630932120466,0.939521551132202,0.9966813325881958,1.228264570236206,0.6173336505889893
1630932120482,0.939521551132202,1.0473806858062744,1.2143198251724243,0.6173336505889893
1630932120602,0.939521551132202,0.9312877655029296,1.2450531721115112,0.6173336505889893
1630932120626,0.939521551132202,0.8876485228538513,1.2343344688415527,0.6173336505889893
1630932120752,0.939521551132202,0.8851675987243652,1.2301925420761108,0.6173336505889893
1630932120877,0.939521551132202,0.9070963263511658,1.2290973663330078,0.6173336505889893
1630932120986,0.939521551132202,0.9323744177818298,1.2196327447891235,0.6173336505889893
1630932121236,0.939521551132202,0.9471346139907836,1.1929967403411863,0.6173336505889893
1630932121272,0.939521551132202,0.949338436126709,1.1527107954025269,0.6173336505889893
1630932121329,0.939521551132202,0.913076102733612,0.9871405363082886,0.6173336505889893
1630932121338,0.939521551132202,0.9377943277359008,1.0912338495254517,0.6173336505889893
1630932121445,0.939521551132202,0.8780601024627686,0.8084058165550232,0.6173336505889893
1630932121652,0.939521551132202,0.8331403732299805,0.4586981534957886,0.6173336505889893
1630932121764,0.939521551132202,0.7787187695503235,0.5404173135757446,0.6173336505889893
1630932121800,0.939521551132202,0.7211601734161377,0.5697658061981201,0.6173336505889893
1630932121890,0.939521551132202,0.6821935772895813,0.5888408422470093,0.6173336505889893
1630932122095,0.939521551132202,0.739947497844696,0.6419880986213684,0.6173336505889893
1630932122177,0.939521551132202,0.7341208457946777,0.7363805174827576,0.6173336505889893
1630932122227,0.939521551132202,0.7284720540046692,0.8547325134277344,0.6173336505889893
1630932122314,0.939521551132202,0.7095965147018433,0.9564043283462524,0.6173336505889893
1630932122427,0.939521551132202,0.6786078810691833,1.0198723077774048,0.6173336505889893
1630932122524,0.939521551132202,0.6466535925865173,1.0488858222961426,0.6173336505889893
1630932122565,0.939521551132202,0.7258509993553162,1.058765888214111,0.6173336505889893
1630932122694,0.939521551132202,0.7524875998497009,1.0620280504226685,0.6173336505889893
1630932122785,0.939521551132202,0.7650710344314575,1.0648168325424194,0.6173336505889893
1630932122948,0.939521551132202,0.7666966915130615,1.0595343112945557,0.6173336505889893
1630932122962,0.939521551132202,0.765494167804718,1.064092755317688,0.6173336505889893
1630932123083,0.939521551132202,0.7788058519363403,1.055019736289978,0.6173336505889893
1630932123208,0.939521551132202,0.7982828617095947,1.0548385381698608,0.6173336505889893
1630932123322,0.939521551132202,0.8161965012550354,1.0635018348693848,0.6173336505889893
1630932123501,0.939521551132202,0.8156797885894775,1.0700763463974,1.4699090719223022
1630932123525,0.939521551132202,0.7143040299415588,1.059760570526123,1.423815369606018
1630932123615,0.939521551132202,0.719028651714325,1.0208392143249512,1.3753031492233276
1630932123752,0.939521551132202,0.7142696976661682,0.9502443075180054,1.33404803276062
1630932123781,0.939521551132202,0.703337550163269,0.8566960692405701,1.29497492313385
1630932123933,0.939521551132202,0.6871142983436584,0.767450749874115,1.2538048028945925
1630932124111,0.939521551132202,0.6670329570770264,0.7121357917785645,1.2120699882507324
1630932124169,0.939521551132202,0.5714142322540283,0.6865554451942444,1.1727635860443115
1630932124213,1.0344032049179075,0.5250170826911926,0.6722409725189209,1.136505126953125
1630932124346,1.0344032049179075,0.5012091398239136,0.6554089784622192,1.104060411453247
1630932124503,1.0344032049179075,0.4798756837844848,0.611746072769165,1.0477849245071411
1630932124664,1.0344032049179075,0.449534147977829,0.5629873275756836,1.002623438835144
1630932124793,1.0344032049179075,0.350218653678894,0.4201423227787018,0.7883652448654175
1630932124822,1.0344032049179075,0.40473273396492,0.4929609596729278,0.9145140051841736
1630932124919,1.0344032049179075,0.2907384037971496,0.3785697519779205,0.6525354981422424
1630932125004,1.0344032049179075,0.2312206625938415,0.3948149085044861,0.5412384271621704
1630932125115,1.0344032049179075,0.1787173002958297,0.3539957106113434,0.444821685552597
1630932125280,1.0344032049179075,0.1314921528100967,0.3143500983715057,0.3114288747310638
1630932125390,1.0344032049179075,0.0845878422260284,0.2817567884922027,0.1399623155593872
1630932125412,1.0344032049179075,0.0893328934907913,0.2750654518604278,-0.0005002644611522
1630932125497,1.0344032049179075,0.0806794390082359,0.2909751534461975,-0.0466561801731586
1630932125590,1.0344032049179075,0.0996088981628418,0.3292132914066314,-0.0331567153334617
1630932125773,1.0344032049179075,0.1288590282201767,0.3766832053661346,-0.0331567153334617
1630932125842,1.0344032049179075,0.1652950793504715,0.4284508824348449,-0.0331567153334617
1630932125994,1.0344032049179075,0.2049609273672104,0.4843349754810333,-0.0331567153334617
1630932126127,1.0344032049179075,0.2486491203308105,0.5474256873130798,-0.0331567153334617
1630932126270,1.0344032049179075,0.2956331670284271,0.6258493661880493,-0.0331567153334617
1630932126314,1.0344032049179075,0.3415242731571197,0.6258493661880493,-0.0331567153334617
1630932126377,1.0344032049179075,0.375102698802948,0.6258493661880493,-0.0331567153334617
1630932126604,1.0344032049179075,0.3822287321090698,0.6258493661880493,-0.0331567153334617
1630932126692,1.0344032049179075,0.3616501986980438,0.6258493661880493,-0.0331567153334617
1630932126735,1.0344032049179075,0.3616501986980438,0.6258493661880493,-0.0331567153334617
1630932126765,1.0344032049179075,0.3616501986980438,0.6258493661880493,-0.0331567153334617
1630932126853,1.0344032049179075,0.3616501986980438,0.6258493661880493,-0.0331567153334617
1630932126908,1.0344032049179075,0.3616501986980438,0.6258493661880493,-0.0331567153334617
1630932127130,0.7229773998260498,0.3616501986980438,0.6258493661880493,-0.0331567153334617
1630932127225,0.7733200192451477,0.3616501986980438,0.6258493661880493,0.1267690807580948
1630932127316,0.7845408320426941,0.3616501986980438,0.6258493661880493,0.1974449753761291
1630932127390,0.7654880881309509,0.2756306231021881,0.6258493661880493,0.2337370663881302
1630932127418,0.7371898889541626,0.2059966772794723,0.6258493661880493,0.2783020734786987
1630932127552,0.7139624357223511,0.143864095211029,0.6258493661880493,0.3524192571640014
1630932127694,0.7020779252052307,0.1109172403812408,0.6258493661880493,0.4553089737892151
1630932127822,0.7000538110733032,0.1239526867866516,0.6258493661880493,0.5550859570503235
1630932127856,0.6989707350730896,0.1841884702444076,0.6258493661880493,0.6247830986976624
1630932127960,0.6898784041404724,0.2621172666549682,0.6258493661880493,0.6566876173019409
1630932128031,0.6732730269432068,0.3159916996955871,0.6258493661880493,0.6624107956886292
1630932128228,0.6525814533233643,0.3456625342369079,0.6258493661880493,0.650870144367218
1630932128277,0.6454367637634277,0.3620244562625885,0.6258493661880493,0.6371898055076599
1630932128339,0.6405497193336487,0.3751833438873291,0.6258493661880493,0.6603696942329407
1630932128481,0.6344985365867615,0.3865423202514648,0.6258493661880493,0.6966355443000793
1630932128592,0.6252281665802002,0.3911584615707397,0.6258493661880493,0.7478660941123962
1630932128656,0.6078308820724487,0.3874914646148681,0.6258493661880493,0.8048280477523804
1630932128813,0.5872207283973694,0.3785944283008575,0.6258493661880493,0.8532484173774719
1630932128909,0.5714086890220642,0.3699992895126343,0.6258493661880493,0.8813921809196472
1630932128994,0.5608161091804504,0.3672771751880646,0.6258493661880493,0.8904998302459717
1630932129038,0.5518629550933838,0.3659411370754242,0.6258493661880493,0.8854560256004333
1630932129158,0.5388911366462708,0.3599020540714264,0.6258493661880493,0.8672500252723694
1630932129257,0.5130622982978821,0.3423256874084472,0.6258493661880493,0.8346951007843018
1630932129371,0.4793860018253326,0.3047167360782623,0.6258493661880493,0.7963579893112183
1630932129559,0.4537906348705292,0.2434823513031005,0.6258493661880493,0.7656354308128357
1630932129615,0.442965418100357,0.1748895645141601,0.6258493661880493,0.7467333674430847
1630932129694,0.4446246922016144,0.1067601889371872,0.6258493661880493,0.7456488609313965
1630932129780,0.4447317719459533,0.0348365977406501,0.6258493661880493,0.7516372203826904
1630932129936,0.4317237138748169,-0.0516573898494243,0.6258493661880493,0.7584430575370789
1630932129963,0.4095962345600128,-0.1536606550216674,0.6258493661880493,0.7640199661254883
1630932130157,0.3925769329071045,-0.2553251087665558,0.6258493661880493,0.758264422416687
1630932130199,0.3995468318462372,-0.303173303604126,0.6258493661880493,0.7384294867515564
1630932130289,0.4309451282024383,-0.299771636724472,0.6258493661880493,0.7076541185379028
1630932130381,0.4747371673583984,-0.2801896631717682,0.6258493661880493,0.6854277849197388
1630932130475,0.5102824568748474,-0.2557621002197265,0.6258493661880493,0.6823163628578186
1630932130693,0.5278840065002441,-0.2238710671663284,0.6258493661880493,0.6932101249694824
1630932130739,0.5256404280662537,-0.1906137764453888,0.6258493661880493,0.7026042342185974
1630932130815,0.5203754305839539,-0.157465860247612,0.6258493661880493,0.7155159711837769
1630932130891,0.5232979655265808,-0.115929938852787,0.6258493661880493,0.7336481213569641
1630932131028,0.5497636795043945,-0.0743836015462875,0.6258493661880493,0.7797013521194458
1630932131128,0.6218401789665222,0.0198378581553697,0.6258493661880493,0.8019307255744934
1630932131181,0.7335106730461121,0.1772942095994949,0.215692788362503,0.820694088935852
1630932131316,0.7538778185844421,0.3471436202526092,0.1918897479772567,0.8371363878250122
1630932131407,0.7744588851928711,0.4849522709846496,0.1695346534252166,0.8464891910552979
1630932131585,0.7902377843856812,0.573990523815155,0.1691928058862686,0.8416202664375305
1630932131600,0.7968397736549377,0.6166070103645325,0.199651688337326,0.820249080657959
1630932131718,0.7941851019859314,0.6301440596580505,0.2642470300197601,0.7871761322021484
1630932131923,0.7891671061515808,0.6326079964637756,0.3407001495361328,0.7657436728477478
1630932131972,0.7862920165061951,0.633080005645752,0.4033235609531402,0.7668096423149109
1630932132114,0.793907880783081,0.6328922510147095,0.4340718388557434,0.78050696849823
1630932132185,0.821243941783905,0.6328186988830566,0.4367451965808868,0.7950475215911865
1630932132264,0.878640353679657,0.6326194405555725,0.4243405759334564,0.7950475215911865
1630932132378,0.961820900440216,0.6317626237869263,0.4149903655052185,0.7950475215911865
1630932132437,0.961820900440216,0.6293256878852844,0.4245196282863617,0.7950475215911865
1630932132529,0.961820900440216,0.6343810558319092,0.4750134944915771,0.7950475215911865
1630932132729,0.961820900440216,0.6516128778457642,0.4927118718624115,0.7950475215911865
1630932132776,0.961820900440216,0.6307302117347717,0.5116090178489685,0.7950475215911865
1630932132846,0.961820900440216,0.5729426145553589,0.5337964296340942,0.7950475215911865
1630932132993,0.961820900440216,0.3540808260440826,0.5850275754928589,0.7950475215911865
1630932133152,0.961820900440216,0.2618106305599212,0.6035914421081543,0.7950475215911865
1630932133312,1.7012557983398438,0.2302852421998977,0.6055461764335632,0.7950475215911865
1630932133383,1.6796437501907349,0.2422461062669754,0.5843835473060608,0.7950475215911865
1630932133453,1.654672384262085,0.2735606431961059,0.5430978536605835,0.7950475215911865
1630932133603,1.6220422983169556,0.3168475329875946,0.5103704333305359,0.7950475215911865
1630932133664,1.5792344808578491,0.3657658398151397,0.5204348564147949,0.7950475215911865
1630932133852,1.539458155632019,0.5881113409996033,0.5204348564147949,0.7950475215911865
1630932133984,1.5117672681808472,0.6835343241691589,0.5204348564147949,0.7950475215911865
1630932134059,1.4952878952026367,0.7150644063949585,0.5204348564147949,0.7950475215911865
1630932134116,1.484069585800171,0.7060365676879883,0.5204348564147949,0.7950475215911865
1630932134252,1.473704814910889,0.6600955724716187,0.5204348564147949,1.3425441980361938
1630932134289,1.473704814910889,0.7295828461647034,0.5204348564147949,1.29442036151886
1630932134352,1.473704814910889,0.8749839067459106,0.5204348564147949,1.2667508125305176
1630932134521,1.4527770280838013,1.0207122564315796,0.5204348564147949,1.2550292015075684
1630932134666,1.414148449897766,1.1276315450668335,0.5204348564147949,1.2480157613754272
1630932134669,1.366124153137207,1.1823281049728394,0.5204348564147949,1.2480157613754272
1630932134745,1.3150101900100708,1.1953694820404053,0.5204348564147949,1.2480157613754272
1630932134831,1.2666583061218262,1.1858702898025513,0.5204348564147949,1.2480157613754272
1630932135234,1.2194904088974,1.1694440841674805,0.5204348564147949,1.2480157613754272
1630932135272,1.1938661336898804,1.1476713418960571,0.5204348564147949,1.2114384174346924
1630932135513,1.221821427345276,1.1229592561721802,0.5204348564147949,1.180171251296997
1630932135580,1.2745614051818848,1.107062578201294,0.5204348564147949,1.153034806251526
1630932135687,1.2745614051818848,1.096588134765625,0.5204348564147949,1.0831763744354248
1630932135902,1.2745614051818848,1.0922547578811646,0.5204348564147949,0.9976889491081238
1630932136140,1.2745614051818848,1.0900630950927734,0.5204348564147949,0.92148095369339
1630932136181,1.2745614051818848,1.0627332925796509,0.5204348564147949,0.8426713943481445
1630932136188,1.2745614051818848,1.08328115940094,0.5204348564147949,0.8735328316688538
1630932136226,2.0089800357818604,0.9168575406074524,0.5204348564147949,0.7321015000343323
1630932136232,1.2745614051818848,1.0117615461349487,0.5204348564147949,0.8016974925994873
1630932136260,1.9174836874008176,1.1199209690093994,0.5204348564147949,1.6813313961029053
1630932136311,1.9174836874008176,1.046186923980713,0.5204348564147949,1.6813313961029053
1630932136316,1.9174836874008176,0.990746259689331,0.5204348564147949,1.6813313961029053
1630932136376,1.9174836874008176,0.955820858478546,-0.2134812623262405,1.6813313961029053
1630932136513,1.9174836874008176,0.9305408000946044,-0.0825353562831878,1.6813313961029053
1630932136690,1.9174836874008176,0.9156017303466796,0.0611968226730823,1.718731164932251
1630932136757,1.9174836874008176,0.9088621735572816,0.1784322559833526,1.7603451013565063
1630932136990,1.9174836874008176,0.9061104655265808,0.2443861365318298,1.8072429895401
1630932137072,1.9174836874008176,1.1779649257659912,1.7425909042358398,1.8618472814559937
1630932137104,1.9174836874008176,1.1777536869049072,1.697638988494873,1.925994873046875
1630932137228,1.9174836874008176,1.1773042678833008,1.6566574573516846,2.002673387527466
1630932137273,2.0049972534179688,1.1767089366912842,1.6192059516906738,2.096465587615967
1630932137315,2.0049972534179688,1.1759700775146484,1.5849140882492063,2.096465587615967
1630932137452,2.0049972534179688,1.1747941970825195,1.553450345993042,2.096465587615967
1630932137513,2.0049972534179688,1.1734192371368408,1.5242387056350708,2.096465587615967
1630932137764,0.2434097081422805,0.8788117170333862,1.5264378786087036,0.378716379404068
1630932137783,0.2783572971820831,0.8803607821464539,1.5287835597991943,0.4376724362373352
1630932137784,2.0049972534179688,0.8786665797233582,1.5248820781707764,2.096465587615967
1630932137895,0.310048371553421,0.8822120428085327,1.5311951637268066,0.4788239896297455
1630932138027,0.3369004130363464,0.8834536075592041,1.5327244997024536,0.4956561923027038
1630932138122,0.3588752746582031,0.8837702870368958,1.532692313194275,0.4944816529750824
1630932138233,0.3817944228649139,0.8830713033676147,1.5311318635940552,0.4802857935428619
1630932138303,0.3999473750591278,0.8812536597251892,1.5290462970733645,0.4590264856815338
1630932138453,0.4071773290634155,-0.2670169770717621,0.2082932293415069,0.4358578026294708
1630932138603,0.4047756493091583,-0.3085276484489441,0.2043554186820984,0.4157027900218963
1630932138749,0.3982478082180023,-0.3462351262569427,0.211947500705719,0.402898907661438
1630932138786,0.3915248811244964,-0.3795974552631378,0.2202017605304718,0.4003304541110992
1630932138816,0.3908659815788269,-0.4129035770893097,0.2267584949731826,0.407561182975769
1630932139018,0.4047585725784302,-0.4418792128562927,0.2581789195537567,0.4229406714439392
1630932139106,0.4361327290534973,-0.4599922299385071,0.3550332486629486,0.4324040710926056
1630932139352,0.467689037322998,-0.4720211327075958,0.5416343808174133,0.4260973334312439
1630932139405,0.4846843183040619,-0.4896813035011291,0.552717924118042,0.404214084148407
1630932139604,0.4831588566303253,-0.5266938805580139,0.5554472804069519,0.3718619048595428
1630932139604,0.4686494767665863,-0.3545166552066803,0.5545625686645508,0.3246543407440185
1630932139610,0.4725344181060791,-0.5577213764190674,0.553554892539978,0.3477883338928222
1630932145114,0.0,0.0,0.0,0.0
1630932145179,0.0,0.0,0.0,0.0
1630932145289,0.0,0.0,0.0,0.0
1630932145377,0.0,0.0,0.0,0.0
1630932145471,0.0,0.0,0.0,0.0
1630932145626,0.0,0.0,0.0,0.0
1630932145698,0.0,0.0,0.0,0.0
1630932145785,0.0,0.0,0.0,0.0
1630932145869,0.0,0.0,0.0,0.0
1630932145966,0.0,0.0,0.0,0.0
1630932146053,0.0,0.0,0.0,0.0
1630932146206,0.0,0.0,0.0,0.0
1630932146314,0.0,0.0,0.0,0.0
1630932146413,0.0,0.0,0.0,0.0
1630932146512,0.0,0.0,0.0,0.0
1630932146591,0.0,0.0,0.0,0.0
1630932146715,0.0,0.0,0.0,0.0
1630932146814,0.0,0.0,0.0,0.0
1630932146908,0.0,0.0,0.0,0.0
1630932147012,0.0,0.0,0.0,0.0
1630932147142,0.0,0.0,0.0,0.0
1630932147216,0.0,0.0,0.0,0.0
1630932147302,-8.762891957303509e-05,-0.0054863654077053,0.1744861602783203,0.1608880162239074
1630932147433,0.0064479084685444,-0.0159251280128955,0.1631673872470855,0.1169269084930419
1630932147534,0.0565441101789474,-0.0217353031039237,0.1628768295049667,0.0865543186664581
1630932147616,0.0966475903987884,-0.0400459840893745,0.1572732776403427,0.0740930363535881
1630932147727,0.1055599302053451,-0.0655873194336891,0.1502693593502044,0.0809952467679977
1630932147823,0.1001443713903427,-0.0836338624358177,0.1433498412370681,0.1027565225958824
1630932147914,0.1119517758488655,-0.0688085407018661,0.1428537666797638,0.1264291703701019
1630932148045,0.173011839389801,0.0104701612144708,0.1544118225574493,0.1353779435157776
1630932148135,0.2814561128616333,0.1479276120662689,0.1848898828029632,0.1288598328828811
1630932148251,0.3882783949375152,0.2896506190299988,0.2459271699190139,0.1238297671079635
1630932148317,0.4615612328052521,0.4030558168888092,0.344732403755188,0.1335387229919433
1630932148436,0.5091603398323059,0.4781781435012817,0.4622835218906402,0.1502344459295272
1630932148534,0.5562677383422852,0.5332017540931702,0.5787679553031921,0.1533169448375702
1630932148676,0.6124632954597473,0.5684189796447754,0.6795080900192261,0.1724593788385391
1630932148729,0.66612708568573,0.5916455984115601,0.74962317943573,0.1995571106672287
1630932148830,0.7095634937286377,0.6088103652000427,0.7892410755157471,0.2260233014822006
1630932148909,0.7408537268638611,0.6179600954055786,0.8075487613677979,0.2464637756347656
1630932149030,0.7617793679237366,0.6195139288902283,0.8143418431282043,0.2567532360553741
1630932149192,0.7728191018104553,0.6205140948295593,0.8182405829429626,0.255412608385086
1630932149253,0.776485025882721,0.6248136758804321,0.8212161660194397,0.2457704842090606
1630932149367,0.7773110866546631,0.6315736770629883,0.8249140381813049,0.2340461313724517
1630932149482,0.7775097489356995,0.6348127126693726,0.8289802074432373,0.2257435768842697
1630932149549,0.7716645002365112,0.6264581084251404,0.8325150609016418,0.2275712490081787
1630932149630,0.751348614692688,0.597606360912323,0.8324546217918396,0.239674910902977
1630932149722,0.7179625034332275,0.5432341694831848,0.8231893181800842,0.2499299943447113
1630932149871,0.6822081208229065,0.4611698687076568,0.7961475253105164,0.2473079264163971
1630932149981,0.6436308026313782,0.362181693315506,0.7445996403694153,0.2341244220733642
1630932150055,0.5965692400932312,0.266510397195816,0.6683691143989563,0.2140802592039108
1630932150143,0.5367618203163147,0.1929444819688797,0.5658993124961853,0.185512974858284
1630932150232,0.4701656103134155,0.1319433152675628,0.457090675830841,0.1450816690921783
1630932150322,0.4041863977909088,0.0704091489315033,0.3735105097293854,0.0994215384125709
1630932150487,0.3497900664806366,0.0248558111488819,0.3271198272705078,0.0605213791131973
1630932150565,0.3184894025325775,0.0199710819870233,0.3280931711196899,0.0387174375355243
1630932150664,0.3366377055644989,0.0619389936327934,0.3777616024017334,0.038727544248104
1630932150747,0.4083426594734192,0.1431008726358413,0.4540967941284179,0.0440958179533481
1630932150864,0.4952585101127624,0.2358288317918777,0.5206117033958435,0.0379342250525951
1630932150953,0.5739974975585938,0.3302986919879913,0.5626624226570129,0.0202619656920433
1630932151115,0.6423479318618774,0.4242350459098816,0.5800991058349609,0.0029439940117299
1630932151200,0.6554512977600098,0.5107149481773376,0.5934555530548096,-0.0021912592928856
1630932151289,0.6695588827133179,0.5831813812255859,0.6231290102005005,0.0048959413543343
1630932151353,0.6857353448867798,0.6473520398139954,0.6885602474212646,0.0173059683293104
1630932151465,0.730739951133728,0.7065655589103699,0.77447110414505,0.0281161032617092
1630932151556,0.7657209038734436,0.7583216428756714,0.852312445640564,0.0381986126303672
1630932151686,0.7943577170372009,0.7833971381187439,0.9055845141410828,0.0570659711956977
1630932151802,0.824806809425354,0.8122161626815796,0.9406079053878784,0.0906787365674972
1630932151889,0.8698728084564209,0.8452684879302979,0.9706982374191284,0.124923326075077
1630932151982,0.924463391304016,0.8809269666671753,1.0042840242385864,0.1447311043739318
1630932152073,1.012070655822754,0.917449116706848,1.0435134172439575,0.1429356187582016
1630932152157,1.03014874458313,0.9727548956871032,1.0731552839279177,0.1341883242130279
1630932152297,1.040806770324707,0.984035849571228,1.0854862928390503,0.140664666891098
1630932152383,1.0459227561950684,0.9797408580780028,1.0866529941558838,0.1700060963630676
1630932152485,1.04661226272583,0.9666621088981628,1.086403250694275,0.2044711709022522
1630932152628,1.042720913887024,0.9412406086921692,1.0877132415771484,0.2292810231447219
1630932152677,1.042720913887024,0.9063947796821594,1.0853441953659058,0.2355548590421676
1630932152781,1.042720913887024,0.8643847703933716,1.0771387815475464,0.2326905578374862
1630932152902,1.042720913887024,0.8171711564064026,1.054146647453308,0.2334947139024734
1630932153002,1.0819439888000488,0.761295735836029,1.013784885406494,0.2452930212020874
1630932153101,1.1440837383270264,0.6920642852783203,0.9616740942001344,0.2577020525932312
1630932153210,1.198403000831604,0.6617071628570557,0.914022982120514,0.2613426148891449
1630932153331,1.2257975339889526,0.6311690211296082,0.8773917555809021,0.2516240179538727
1630932153386,1.2159632444381714,0.6021323800086975,0.8447737097740173,0.2358664274215698
1630932153526,1.176976203918457,0.5745033025741577,0.8024998307228088,0.2254136502742767
1630932153613,1.0747307538986206,0.5478445291519165,0.7290874719619751,0.2293855547904968
1630932153725,1.0366902351379397,0.4208315908908844,0.6289727687835693,0.2413568347692489
1630932153791,0.999443769454956,0.3369040191173553,0.5268183350563049,0.252076119184494
1630932153900,0.9662206768989564,0.2652584016323089,0.4390824139118194,0.2615211606025696
1630932153990,0.9392337203025818,0.2034501135349273,0.3608205616474151,0.2694110572338104
1630932154152,0.9184912443161012,0.1612133234739303,0.2923504114151001,0.2686936557292938
1630932154243,0.90104079246521,0.120904192328453,0.2429186254739761,0.2602457702159881
1630932154325,0.88717120885849,0.0811533406376838,0.1912422329187393,0.2451386451721191
1630932154438,0.8774476051330566,0.0326080098748207,0.134214162826538,0.225103497505188
1630932154505,0.8386852145195007,-0.019052468240261,0.0711054876446724,0.1980455815792083
1630932154625,0.7821249961853027,-0.0435731038451194,0.022298352792859,0.171129360795021
1630932154761,0.7280042171478271,-0.0336124375462532,-0.0105649894103407,0.1497611552476883
1630932154847,0.7013629674911499,-0.0207786243408918,-0.0623727440834045,0.139380857348442
1630932154933,0.7297273874282837,-0.0213510412722826,-0.1611686199903488,0.1442310959100723
1630932155025,0.816232442855835,-0.0272922851145267,-0.3038612902164459,0.1596556603908538
1630932155112,0.927703857421875,-0.0209677293896675,-0.4424947798252105,0.1750813871622085
1630932155248,0.9440904259681702,0.0319400355219841,-0.4753160774707794,0.1780941188335418
1630932155342,0.9661644101142884,0.180948257446289,-0.3923709690570831,0.1626871079206466
1630932155424,0.9913156628608704,0.3980279862880707,-0.2292263507843017,0.121289238333702
1630932155511,1.0174278020858765,0.4118401408195495,-0.035035565495491,0.0631091967225074
1630932155648,1.0440517663955688,0.4222922623157501,0.1399656534194946,0.02168152295053
1630932155715,1.0736395120620728,0.4358401298522949,0.2898862063884735,0.0324589237570762
1630932155826,1.106242060661316,0.4583389461040497,0.4134480655193329,0.0848047062754631
1630932155939,1.379565954208374,0.4891331195831299,0.5210157632827759,0.1448263525962829
1630932156071,1.56596040725708,0.5228409171104431,0.6166589260101318,0.1914386600255966
1630932156139,1.6776303052902222,0.55473792552948,0.6452427506446838,0.2181120365858078
1630932156254,1.7353092432022097,0.5881140232086182,0.6763170957565308,0.2329367250204086
1630932156337,1.7615829706192017,0.6342923641204834,0.7692273259162903,0.2441325038671493
1630932156427,1.7711490392684937,0.7022009491920471,0.8282150030136108,0.2507176399230957
1630932156566,1.763729691505432,0.7929567098617554,0.8596166968345642,0.2513535022735595
1630932156665,1.7385575771331787,0.7929567098617554,0.8745620250701904,0.2479445040225982
1630932156742,1.6940540075302124,0.7929567098617554,0.8797407150268555,0.2459216713905334
1630932156853,1.660259485244751,0.7929567098617554,0.8830947875976562,0.2442512065172195
1630932156951,1.6346439123153689,0.7929567098617554,0.8926632404327393,0.2444434463977813
1630932157053,1.612464189529419,0.7929567098617554,0.9184221625328064,0.2476198673248291
1630932157220,1.591153264045715,0.7929567098617554,0.9615114331245422,0.2449911236763
1630932157282,1.571205735206604,0.684821367263794,1.0066627264022827,0.227377787232399
1630932157403,1.5536351203918457,0.7769554257392883,1.0470107793807983,0.1890003979206085
1630932157459,1.4875653982162476,0.821134626865387,1.0788224935531616,0.1356500089168548
1630932157550,1.4005112648010254,0.8324146866798401,1.100101351737976,0.0913621112704277
1630932157637,1.3104934692382812,0.8231346011161804,1.1162656545639038,0.0885565802454948
1630932157772,1.2494581937789917,0.8051958680152893,1.1162656545639038,0.1254601180553436
1630932157906,1.2316865921020508,0.790176510810852,1.1116595268249512,0.1699433773756027
1630932157971,1.262304663658142,0.784423291683197,1.116168975830078,0.1966021507978439
1630932158090,1.3486754894256592,0.7922114729881287,1.134433388710022,0.2023499310016632
1630932158162,1.3700268268585205,0.8142978549003601,1.1646325588226318,0.1962061524391174
1630932158240,1.3931732177734375,0.8417319655418396,1.204369306564331,0.1818669587373733
1630932158402,1.410813570022583,0.860185444355011,1.2483396530151367,0.1678314805030822
1630932158491,1.4241467714309692,0.8746768832206726,1.289552927017212,0.1610850095748901
1630932158583,1.438936710357666,0.8801533579826355,1.3176590204238892,0.1632087081670761
1630932158685,1.4595328569412231,0.8680448532104492,1.3270519971847534,0.1736821979284286
1630932158757,1.488348364830017,0.8353046774864197,1.323907494544983,0.1820288449525833
1630932158853,1.514139175415039,0.7916358709335327,1.2074321508407593,0.1905594617128372
1630932159013,1.531563401222229,0.7474492788314819,1.0482141971588137,0.1991012543439865
1630932159133,1.5459847450256348,0.7091823220252991,0.8229156136512756,0.1997800022363662
1630932159206,1.5677237510681152,0.679992139339447,0.3521851897239685,0.1755062788724899
1630932159292,1.5965558290481567,0.6571702361106873,0.3109167814254761,0.1202901527285575
1630932159389,1.626523494720459,0.6357454657554626,0.2646150588989258,0.0555342063307762
1630932159481,1.6278988122940063,0.6128094792366028,0.2682578563690185,0.0593978911638259
1630932159607,1.6278988122940063,0.5931958556175232,0.3530892729759216,0.1830029785633087
1630932159713,1.6278988122940063,0.5833739042282104,0.4910729825496673,0.3851847350597381
1630932159830,1.6278988122940063,0.5805618166923523,0.4910729825496673,0.5841671824455261
1630932159902,1.6278988122940063,0.5807542204856873,0.4910729825496673,0.7310118675231934
1630932159988,1.6278988122940063,0.5796699523925781,0.4910729825496673,0.8189037442207336
1630932160078,1.6278988122940063,0.5801293253898621,0.4910729825496673,0.8620297312736511
1630932160217,1.6278988122940063,0.5842298269271851,0.4910729825496673,0.8769558668136597
1630932160346,1.6278988122940063,0.5912135243415833,0.4768612682819366,0.8796982765197754
1630932160407,1.6278988122940063,0.5956681966781616,0.4452710151672363,0.8787398338317871
1630932160503,1.6278988122940063,0.6049420833587646,0.420287013053894,0.8780101537704468
1630932160589,1.6278988122940063,0.6195577383041382,0.3934684693813324,0.8783756494522095
1630932160680,1.6278988122940063,0.633792519569397,0.3706753849983215,0.8823360800743103
1630932160836,1.6278988122940063,0.6429367065429688,0.3582941591739654,0.8927066922187805
1630932160931,1.6278988122940063,0.6467148661613464,0.3692416846752167,0.9107795357704164
1630932161060,1.6278988122940063,0.6456199288368225,0.3691188395023346,0.9285629391670228
1630932161145,1.6278988122940063,0.6284818649291992,0.3032059669494629,0.9303008913993835
1630932161215,1.6278988122940063,0.5796146392822266,0.0591943971812725,0.8985897302627563
1630932161310,1.6278988122940063,0.5000766515731812,0.0597378350794315,0.8235494494438171
1630932161448,0.6619101166725159,0.410940945148468,0.0706583708524704,0.713207483291626
1630932161538,0.6684827208518982,0.3474361002445221,0.0846429765224456,0.5958994030952454
1630932161624,0.6834521293640137,0.3157471120357513,0.0968508198857307,0.5052881836891174
1630932161711,0.6925828456878662,0.3047711551189422,0.1002093032002449,0.4574982523918152
1630932161824,0.7008324861526489,0.2977438867092132,0.0730784907937049,0.438095211982727
1630932161934,0.7177156805992126,0.2935193479061126,0.0694532617926597,0.4281702041625976
1630932162060,0.750926673412323,0.2732386589050293,0.0630349218845367,0.4178539514541626
1630932162180,0.7876856923103333,0.2335169166326522,0.0654095783829689,0.4080806672573089
1630932162251,0.8224351406097412,0.1931792497634887,0.0798437669873237,0.3985776901245117
1630932162337,0.8474613428115845,0.1786647886037826,0.0934063643217086,0.3779233694076538
1630932162437,0.8603939414024353,0.1841214448213577,0.0903067290782928,0.324418306350708
1630932162518,0.8618417382240295,0.1847143173217773,0.0712429583072662,0.219753161072731
1630932162670,0.8616861701011658,0.1689924299716949,0.0493545047938823,0.0732390433549881
1630932162766,0.8550085425376892,0.1388915330171585,0.0331843793392181,-0.0725841224193573
1630932162851,0.8431142568588257,0.0964685082435607,0.0091870035976171,-0.1646752059459686
1630932162954,0.8269227743148804,0.0477728582918643,-0.0234322883188724,-0.192018449306488
1630932163051,0.8083613514900208,0.0069983243010938,-0.0515865460038185,-0.1873713284730911
1630932163148,0.7876123785972595,-0.0139156905934214,-0.0742380619049072,-0.1693910509347915
1630932163284,0.768473207950592,-0.0338855050504207,-0.0917321145534515,-0.1306837350130081
1630932163370,0.7486624717712402,-0.0585652738809585,-0.1013996303081512,-0.0807375535368919
1630932163481,0.7206719517707825,-0.0813239067792892,-0.1032133400440216,-0.029580945149064
1630932163573,0.6758014559745789,-0.0864204317331314,-0.104575976729393,0.0154256029054522
1630932163657,0.6163480877876282,-0.0725993514060974,-0.1128109171986579,0.0474967472255229
1630932163743,0.5426035523414612,-0.0619223304092884,-0.1293159872293472,0.0630204305052757
1630932163883,0.4664840400218963,-0.0800103768706321,-0.1548101305961609,0.069957323372364
1630932163968,0.394567996263504,-0.1286651790142059,-0.1908448785543441,0.0756243616342544
1630932164083,0.3285938203334808,-0.1891127079725265,-0.2276133745908737,0.0811862051486969
1630932164173,0.276067703962326,-0.2313184291124344,-0.2483156025409698,0.0912753343582153
1630932164255,0.2479272782802581,-0.2223174273967743,-0.2198214381933212,0.1041723638772964
1630932164352,0.238834410905838,-0.1643684655427932,-0.1119644418358802,0.1155565977096557
1630932164507,0.2420605570077896,-0.0746419504284858,0.0710517838597297,0.125429630279541
1630932164598,0.2530328929424286,0.0155479256063699,0.2819323539733886,0.1357287913560867
1630932164681,0.2646006345748901,0.1233243122696876,0.4661988615989685,0.1482694596052169
1630932164782,0.2811371088027954,0.2599781453609466,0.4872007071971893,0.1551104038953781
1630932164869,0.3104756474494934,0.3829268217086792,0.5123670101165771,0.1546777933835983
1630932164953,0.3497241139411926,0.4645597338676452,0.5417882204055786,0.1444915682077407
1630932165113,0.3819824457168579,0.511754035949707,0.5748053789138794,0.1221235692501068
1630932165199,0.4012582004070282,0.5435839295387268,0.6535269618034363,0.0909753739833831
1630932165292,0.4176974594593048,0.5775928497314453,0.7463999390602112,0.0557046420872211
1630932165412,0.4324522912502289,0.6201265454292297,0.8402154445648193,0.0126386899501085
1630932165489,0.4500176608562469,0.6653297543525696,0.9211390018463136,-0.0375505462288856
1630932165585,0.4728317558765411,0.7080166339874268,0.9901755452156068,-0.0780660957098007
1630932165721,0.4953500926494598,0.7473687529563904,1.049242615699768,-0.0948311984539032
1630932165836,0.5110034346580505,0.7769131064414978,1.0930463075637815,-0.0857755243778228
1630932165925,0.5269007682800293,0.7895128130912781,1.1144623756408691,-0.0592193268239498
1630932166014,0.5520473718643188,0.7852566838264465,1.1124016046524048,-0.032938290387392
1630932166102,0.5788165926933289,0.7707804441452026,1.0859429836273191,-0.0085165528580546
1630932166204,0.5983589291572571,0.7461144328117371,1.0388988256454468,0.0079452553763985
1630932166319,0.603625476360321,0.7047600746154785,1.0085104703903198,0.008842066861689
1630932166404,0.5919184684753418,0.6498041749000549,0.9784336686134338,0.0025075494777411
1630932166551,0.5674038529396057,0.5967522859573364,0.949437141418457,0.0075796172022819
1630932166614,0.5393003821372986,0.5552284717559814,0.9233008623123168,0.0324441939592361
1630932166699,0.5117027163505554,0.5220577120780945,0.8978236317634583,0.0666414573788642
1630932166792,0.4792653322219848,0.4846307337284088,0.8558196425437927,0.0990746915340423
1630932166947,0.4371739625930786,0.4335744082927704,0.7966266870498657,0.1316228508949279
1630932167032,0.3907039165496826,0.3663929998874664,0.7264259457588196,0.1687561273574829
1630932167128,0.3517831563949585,0.2820402383804321,0.6442450284957886,0.2053720504045486
1630932167217,0.3387474119663238,0.1700794100761413,0.5420765280723572,0.2425916194915771
1630932167303,0.3768312335014343,0.0309743881225585,0.4234641790390014,0.2890387773513794
1630932167413,0.4464764595031738,-0.0947406217455864,0.3181230723857879,0.3396118581295013
1630932167579,0.5004562735557556,-0.1706486940383911,0.2374302148818969,0.3832173943519592
1630932167641,0.5205809473991394,-0.1960610747337341,0.1805339455604553,0.4076609313488006
1630932167730,0.5156770348548889,-0.1832477003335952,0.1387816667556762,0.4098630249500274
1630932167820,0.5034914016723633,-0.0516863875091075,0.1289433389902115,0.4057783484458923
1630932167948,0.4977807104587555,0.2468422800302505,0.1986960768699646,0.4052943885326385
1630932168019,0.5161135196685791,0.2739399075508117,0.2116292417049408,0.4079532623291015
1630932168156,0.5411845445632935,0.3020389676094055,0.2222711592912674,0.4054095149040222
1630932168267,0.5715317130088806,0.328017383813858,0.2248812168836593,0.4152203202247619
1630932168358,0.6041325330734253,0.3497347235679626,0.2303078323602676,0.4273071885108948
1630932168452,0.6402429938316345,0.3659364581108093,0.2331880331039428,0.4395394623279571
1630932168536,0.6777083277702332,0.3826351463794708,0.2250393331050872,0.4483837187290191
1630932168619,0.7135031819343567,0.4055483043193817,0.2012662142515182,0.4548575282096863
1630932168767,0.7416280508041382,0.4383013844490051,0.1732155680656433,0.4534492790699005
1630932168870,0.7397765517234802,0.4862321615219116,0.1604537367820739,0.4263147413730621
1630932168965,0.6814748048782349,0.5529118776321411,0.1771362274885177,0.3620516955852508
1630932169059,0.5599608421325684,0.6442723274230957,0.2444209307432174,0.2619551122188568
1630932169171,0.5599608421325684,0.6442723274230957,0.2444209307432174,0.1560563445091247
1630932169248,0.5599608421325684,0.6442723274230957,0.2444209307432174,0.1156503558158874
1630932169360,0.5599608421325684,0.6442723274230957,0.2444209307432174,0.1156503558158874
1630932169498,0.5599608421325684,0.6442723274230957,0.2444209307432174,0.1156503558158874
1630932169564,0.5599608421325684,0.6442723274230957,0.2444209307432174,0.1156503558158874
1630932169672,0.5599608421325684,0.6442723274230957,0.2444209307432174,0.1156503558158874
1630932169764,0.5599608421325684,0.6442723274230957,0.2444209307432174,0.1156503558158874
1630932169855,0.5599608421325684,0.6442723274230957,0.2444209307432174,0.1156503558158874
1630932169970,0.5599608421325684,0.6442723274230957,0.2444209307432174,0.1156503558158874
1630932170071,0.5599608421325684,0.6442723274230957,0.2444209307432174,0.1156503558158874
1630932170162,0.5599608421325684,0.6442723274230957,0.2444209307432174,0.1156503558158874
1630932170267,0.5599608421325684,0.6442723274230957,0.2444209307432174,0.1156503558158874
1630932170366,0.5599608421325684,0.6442723274230957,0.2444209307432174,0.1156503558158874
1630932170462,0.5599608421325684,0.6442723274230957,0.2444209307432174,0.1156503558158874
1630932170592,0.5599608421325684,0.646562933921814,0.2444209307432174,0.1156503558158874
1630932170679,0.5599608421325684,0.6805118322372437,0.2444209307432174,0.1156503558158874
1630932170765,0.5599608421325684,0.6889287233352661,0.2444209307432174,0.1156503558158874
1630932170862,0.5599608421325684,0.6738150715827942,0.2444209307432174,0.1156503558158874
1630932171034,0.5599608421325684,0.6670688986778259,0.2444209307432174,0.1156503558158874
1630932171060,0.5599608421325684,0.7053806781768799,0.2444209307432174,0.1156503558158874
1630932171216,0.5599608421325684,0.793337345123291,0.2444209307432174,0.1156503558158874
1630932171316,0.5599608421325684,0.793337345123291,0.2444209307432174,0.1156503558158874
1630932171376,0.5599608421325684,0.793337345123291,0.2444209307432174,0.1156503558158874
1630932171458,0.5599608421325684,0.793337345123291,0.2444209307432174,0.1156503558158874
1630932171581,0.5599608421325684,0.7966771721839905,0.2444209307432174,0.1156503558158874
1630932171670,0.5599608421325684,0.7966771721839905,0.2444209307432174,0.1156503558158874
1630932171821,0.5599608421325684,0.7966771721839905,0.2444209307432174,0.1156503558158874
1630932171888,0.5599608421325684,0.8183860778808594,0.2444209307432174,0.1156503558158874
1630932171995,0.5599608421325684,0.8485616445541382,0.2444209307432174,0.1156503558158874
1630932172095,0.5599608421325684,0.8693163394927979,0.2444209307432174,0.1156503558158874
1630932172199,0.5599608421325684,0.8828138709068298,0.2444209307432174,0.1156503558158874
1630932172294,0.5599608421325684,0.9140894412994384,0.2444209307432174,0.1156503558158874
1630932172432,0.5599608421325684,0.9140894412994384,0.2444209307432174,0.1156503558158874
1630932172512,0.5599608421325684,0.9140894412994384,0.2444209307432174,0.1156503558158874
1630932172606,0.5599608421325684,0.9140894412994384,0.2444209307432174,0.1156503558158874
1630932172719,0.5599608421325684,0.9140894412994384,0.2444209307432174,0.1156503558158874
1630932172813,0.5599608421325684,0.9140894412994384,0.2444209307432174,0.1156503558158874
1630932172874,0.5599608421325684,0.9140894412994384,0.2444209307432174,0.1156503558158874
1630932173046,0.5599608421325684,0.9140894412994384,0.2444209307432174,0.1156503558158874
1630932173138,0.5599608421325684,0.9140894412994384,0.2444209307432174,0.1156503558158874
1630932173206,0.5599608421325684,0.9140894412994384,0.2444209307432174,0.1156503558158874
1630932173294,0.5599608421325684,0.9140894412994384,0.2444209307432174,0.1156503558158874
1630932173389,0.5599608421325684,0.9140894412994384,0.2444209307432174,0.1156503558158874
1630932173515,0.5599608421325684,0.9140894412994384,0.2444209307432174,0.1156503558158874
1630932173634,0.5599608421325684,0.9140894412994384,0.2444209307432174,0.1156503558158874
1630932173725,0.5599608421325684,0.9140894412994384,0.2444209307432174,0.1156503558158874
1630932173836,0.5599608421325684,0.9140894412994384,0.2444209307432174,0.1156503558158874
1630932173948,0.5599608421325684,0.9140894412994384,0.2444209307432174,0.1156503558158874
1630932174038,0.5599608421325684,0.9140894412994384,0.2444209307432174,0.1156503558158874
1630932174105,0.5599608421325684,0.9140894412994384,0.2444209307432174,0.1156503558158874
1630932174264,0.5599608421325684,0.9140894412994384,0.2444209307432174,0.1156503558158874
1630932174355,0.5599608421325684,0.9140894412994384,0.2444209307432174,0.1156503558158874
1630932174419,0.5599608421325684,0.9140894412994384,0.2444209307432174,0.1156503558158874
1630932174550,0.5599608421325684,0.9140894412994384,0.2444209307432174,0.1156503558158874
1630932174670,0.5599608421325684,0.9140894412994384,0.2444209307432174,0.1156503558158874
1630932174732,0.5599608421325684,0.9140894412994384,0.2444209307432174,0.1156503558158874
1630932174905,0.5599608421325684,0.6044190526008606,0.2444209307432174,0.1156503558158874
1630932174949,0.5599608421325684,0.541509747505188,0.2444209307432174,0.508256196975708
1630932175086,0.5599608421325684,0.4926947355270386,0.2444209307432174,0.4489606916904449
1630932175154,0.5599608421325684,0.4675860106945038,0.2444209307432174,0.4325029850006103
1630932175221,0.5599608421325684,0.4666610956192016,0.2444209307432174,0.4438627958297729
1630932175332,0.5599608421325684,0.4777157604694366,0.2444209307432174,0.4568150639533996
1630932175470,0.5599608421325684,0.4854936301708221,0.2444209307432174,0.4623901546001434
1630932175560,0.5599608421325684,0.4794196188449859,0.2444209307432174,0.4521371126174927
1630932175649,0.5599608421325684,0.4582570493221283,0.2444209307432174,0.4521371126174927
1630932175763,0.5599608421325684,0.4369419813156128,0.2444209307432174,0.4521371126174927
1630932175844,0.5599608421325684,0.4339536130428314,0.2444209307432174,0.4521371126174927
1630932175949,0.5599608421325684,0.4548849463462829,0.2444209307432174,0.4521371126174927
1630932176092,0.5599608421325684,0.415841668844223,0.2444209307432174,0.4521371126174927
1630932176181,0.5599608421325684,0.4271405637264251,0.2444209307432174,0.4240888655185699
1630932176270,0.5599608421325684,0.4437407553195953,1.0204455852508545,0.3904386162757873
1630932176364,0.5599608421325684,0.4557079076766968,1.0642080307006836,0.3793038129806518
1630932176447,0.5599608421325684,0.4711580276489258,1.0619962215423584,0.410242348909378
1630932176546,0.5599608421325684,0.4861437678337097,1.025996446609497,0.4552904665470123
1630932176695,0.5599608421325684,0.4874535202980041,0.9823002219200134,0.4800180792808532
1630932176788,0.5599608421325684,0.4739210307598114,0.938470423221588,0.4800180792808532
1630932176882,0.5599608421325684,0.461266815662384,0.8999375700950623,0.4800180792808532
1630932176973,0.5599608421325684,0.4637988209724426,0.8712500929832458,0.4800180792808532
1630932177061,0.5599608421325684,0.4796875417232513,0.8554046154022217,0.4800180792808532
1630932177163,0.5599608421325684,0.5118715167045593,0.8474146127700806,0.4800180792808532
1630932177298,0.5599608421325684,0.5802493095397949,0.83761066198349,0.4800180792808532
1630932177381,0.5599608421325684,0.6849811673164368,0.8218048214912415,0.4800180792808532
1630932177501,0.5599608421325684,0.7811719179153442,0.7940815091133118,0.4800180792808532
1630932177593,0.5599608421325684,0.8613061308860779,0.7651618719100952,0.4800180792808532
1630932177685,0.5599608421325684,0.9447935223579408,0.724574089050293,0.4800180792808532
1630932177773,0.5599608421325684,1.0406851768493652,0.6593367457389832,0.4800180792808532
1630932177927,0.5599608421325684,1.1338130235671997,0.5798637270927429,0.4800180792808532
1630932177992,0.5599608421325684,1.206119179725647,0.5362369418144226,0.4800180792808532
1630932178088,0.5599608421325684,1.2475930452346802,0.5408061742782593,0.4800180792808532
1630932178203,0.5599608421325684,1.2742273807525637,0.56734699010849,0.4800180792808532
1630932178310,0.5599608421325684,1.3039782047271729,0.6362279057502747,0.4800180792808532
1630932178374,0.5599608421325684,1.3348652124404907,0.7541984915733337,0.4800180792808532
1630932178515,0.5599608421325684,1.3595640659332275,0.8921851515769958,0.4800180792808532
1630932178617,0.5599608421325684,1.4011496305465698,1.017988204956055,0.4800180792808532
1630932178687,0.5599608421325684,1.4513460397720337,1.105576753616333,0.4800180792808532
1630932178812,0.5599608421325684,1.4885120391845703,1.1244136095046997,0.4800180792808532
1630932178897,0.5599608421325684,1.498981475830078,1.1455018520355225,0.4800180792808532
1630932178972,0.5599608421325684,1.4884945154190063,1.1488653421401978,0.4800180792808532
1630932179137,0.5599608421325684,1.4670952558517456,1.1457300186157229,0.4800180792808532
1630932179231,0.5599608421325684,1.4351797103881836,1.142195224761963,0.4800180792808532
1630932179331,0.5599608421325684,1.387519598007202,1.138648509979248,0.4800180792808532
1630932179412,0.5599608421325684,1.3225815296173096,1.1324784755706787,0.4800180792808532
1630932179501,0.5599608421325684,1.2496023178100586,1.12239670753479,0.4800180792808532
1630932179585,0.5599608421325684,1.19283926486969,1.1112935543060305,0.4800180792808532
1630932179713,0.5599608421325684,1.1604995727539062,1.0986835956573486,0.4800180792808532
1630932179840,0.5599608421325684,1.131096124649048,1.071940541267395,0.4800180792808532
1630932179915,0.5599608421325684,1.1038033962249756,1.0118621587753296,0.4800180792808532
1630932180035,0.5599608421325684,1.0608453750610352,0.8952401876449585,0.6901013851165771
1630932180117,0.5599608421325684,0.975727915763855,0.6799730062484741,0.6839063167572021
1630932180195,0.5599608421325684,0.8307824730873108,0.2993501126766205,0.7019475698471069
1630932180348,0.5599608421325684,0.6267773509025574,0.3101907074451446,0.7266814112663269
1630932180462,0.5599608421325684,0.4062116146087646,0.1798489838838577,0.7433943152427673
1630932180545,0.5599608421325684,0.2437872886657714,0.2075379788875579,0.7479768991470337
1630932180641,0.5599608421325684,0.1542145609855651,0.2782791554927826,0.7406070232391357
1630932180722,0.5599608421325684,0.1199788227677345,0.3254219889640808,0.7263911366462708
1630932180791,0.5599608421325684,0.1241583600640297,0.3433465957641601,0.7263911366462708
1630932180979,0.5599608421325684,0.1809370219707489,0.3716716468334198,0.7263911366462708
1630932181040,0.5599608421325684,0.324603259563446,0.4511602520942688,0.7263911366462708
1630932181140,0.5599608421325684,0.5685971975326538,0.5808961391448975,0.7263911366462708
1630932181223,0.5599608421325684,0.8226514458656311,0.7130990624427795,0.6936016082763672
1630932181323,0.5599608421325684,0.8473182320594788,0.8098081946372986,0.694770336151123
1630932181412,0.5599608421325684,0.8743234276771545,0.8685286641120911,0.7183895707130432
1630932181574,0.5599608421325684,0.9044111371040344,0.8998838067054749,0.7458431720733643
1630932181690,0.5599608421325684,0.9371987581253052,0.9141266942024232,0.7588730454444885
1630932181780,0.5599608421325684,0.960989475250244,0.9224581718444824,0.7540157437324524
1630932181840,0.5599608421325684,0.9989625811576844,0.9347467422485352,0.7258827090263367
1630932181979,0.5599608421325684,1.0522998571395874,0.9547909498214722,0.7258827090263367
1630932182041,0.5599608421325684,1.1065188646316528,0.983096480369568,0.7258827090263367
1630932182198,0.5599608421325684,1.1483694314956665,1.0138673782348633,0.7258827090263367
1630932182270,0.5599608421325684,1.1713638305664062,1.037407159805298,0.7258827090263367
1630932182387,0.5599608421325684,1.1792278289794922,1.051975965499878,0.7258827090263367
1630932182466,0.5599608421325684,1.1758782863616943,1.0563488006591797,0.7258827090263367
1630932182535,0.5599608421325684,1.1550267934799194,1.0451475381851196,0.7258827090263367
1630932182633,0.5599608421325684,1.0854829549789429,1.0107330083847046,0.7258827090263367
1630932182758,0.5599608421325684,0.9138661026954652,0.9566031098365784,0.7258827090263367
1630932182880,0.5599608421325684,0.8830748796463013,0.8980348706245422,0.7258827090263367
1630932182957,0.5599608421325684,0.8551576137542725,0.8501009941101074,0.7258827090263367
1630932183048,0.5599608421325684,0.839542031288147,0.8249280452728271,0.7258827090263367
1630932183170,0.5599608421325684,0.8466074466705322,0.8287460207939148,0.7258827090263367
1630932183250,0.5599608421325684,0.9011681079864502,0.8682622313499451,0.7258827090263367
1630932183389,0.5599608421325684,0.8899272084236145,0.9424054622650146,0.7258827090263367
1630932183487,0.5599608421325684,0.852471113204956,1.0219765901565552,0.7258827090263367
1630932183568,0.5599608421325684,0.7917141914367676,1.0763596296310425,0.7258827090263367
1630932183685,0.5599608421325684,0.7258045673370361,1.0960544347763062,0.7258827090263367
1630932183784,0.5599608421325684,0.6884865164756775,1.0978200435638428,0.7258827090263367
1630932183865,0.5599608421325684,0.6881908774375916,1.0958456993103027,0.7258827090263367
1630932183990,0.5599608421325684,0.7113527655601501,1.1054821014404297,0.7258827090263367
1630932184084,0.5599608421325684,0.7475144863128662,1.1361511945724487,0.7258827090263367
1630932184187,0.5599608421325684,0.8074871897697449,1.1882030963897705,0.7258827090263367
1630932184263,0.5599608421325684,0.8649397492408752,1.2457218170166016,0.7258827090263367
1630932184365,0.5599608421325684,0.926938772201538,1.296918869018555,0.7258827090263367
1630932184455,0.5599608421325684,1.0030572414398191,1.3241783380508425,0.7258827090263367
1630932184592,0.5599608421325684,1.0857343673706057,1.3524571657180786,0.7258827090263367
1630932184701,0.5599608421325684,1.1540327072143557,1.3790960311889648,0.7258827090263367
1630932184795,0.5599608421325684,1.1182632446289062,1.3962812423706057,0.7258827090263367
1630932184886,0.5599608421325684,1.1182632446289062,1.3926712274551392,0.7258827090263367
1630932184997,0.5599608421325684,1.1182632446289062,1.3678703308105469,0.7258827090263367
1630932185080,0.5599608421325684,1.1182632446289062,1.3383078575134275,0.7258827090263367
1630932185197,0.5599608421325684,1.1182632446289062,1.3315426111221311,0.7258827090263367
1630932185311,0.5599608421325684,1.1182632446289062,1.3570407629013062,0.7258827090263367
1630932185417,0.5599608421325684,1.1182632446289062,1.4103152751922607,0.7258827090263367
1630932185493,0.5599608421325684,1.1182632446289062,1.472039818763733,0.7258827090263367
1630932185621,0.5599608421325684,1.1182632446289062,1.472039818763733,0.7258827090263367
1630932185669,0.5599608421325684,1.1553846597671509,1.472039818763733,0.7258827090263367
1630932185825,0.5599608421325684,1.201835036277771,1.472039818763733,0.7258827090263367
1630932185913,0.5599608421325684,1.201835036277771,1.472039818763733,0.7258827090263367
1630932186031,0.5599608421325684,1.201835036277771,1.472039818763733,0.7258827090263367
1630932186115,0.5599608421325684,1.201835036277771,1.472039818763733,0.7258827090263367
1630932186201,0.5599608421325684,1.201835036277771,1.472039818763733,0.7258827090263367
1630932186315,0.5599608421325684,1.201835036277771,1.472039818763733,0.7258827090263367
1630932186472,0.5599608421325684,1.201835036277771,1.472039818763733,0.7258827090263367
1630932186554,0.5599608421325684,1.201835036277771,1.472039818763733,0.7258827090263367
1630932186634,0.5599608421325684,1.201835036277771,1.472039818763733,0.7258827090263367
1630932186718,0.5599608421325684,1.201835036277771,1.472039818763733,0.7258827090263367
1630932186823,0.5599608421325684,1.201835036277771,1.472039818763733,0.7258827090263367
1630932186909,0.5599608421325684,1.201835036277771,1.472039818763733,0.7258827090263367
1630932187028,0.5599608421325684,1.201835036277771,1.472039818763733,0.7258827090263367
1630932187120,0.5599608421325684,1.201835036277771,1.472039818763733,0.7258827090263367
1630932187217,0.5599608421325684,1.201835036277771,1.472039818763733,0.7258827090263367
1630932187353,0.5599608421325684,1.201835036277771,1.472039818763733,0.7258827090263367
1630932187434,0.5599608421325684,1.201835036277771,1.472039818763733,0.7258827090263367
1630932187502,0.5599608421325684,1.201835036277771,1.472039818763733,0.7258827090263367
1630932187665,0.5599608421325684,1.201835036277771,1.472039818763733,0.7258827090263367
1630932187749,0.5599608421325684,1.201835036277771,1.472039818763733,0.7258827090263367
1630932187836,0.5599608421325684,1.201835036277771,1.472039818763733,0.7258827090263367
1630932187926,0.5599608421325684,1.201835036277771,1.472039818763733,0.7258827090263367
1630932188020,0.5599608421325684,1.201835036277771,1.472039818763733,0.7258827090263367
1630932188124,0.5599608421325684,1.201835036277771,1.472039818763733,0.7258827090263367
1630932188279,0.5599608421325684,1.201835036277771,1.472039818763733,0.7258827090263367
1630932188350,0.5599608421325684,1.201835036277771,1.472039818763733,0.7258827090263367
1630932188435,1.1512460708618164,1.201835036277771,1.472039818763733,1.271763801574707
1630932188555,1.1365017890930176,1.201835036277771,1.472039818763733,1.2275676727294922
1630932188652,1.1276448965072632,0.6612091064453125,1.472039818763733,1.1793262958526611
1630932188742,1.113248348236084,0.578528642654419,1.472039818763733,1.133381962776184
1630932188897,1.085149168968201,0.5121935606002808,1.472039818763733,1.0955716371536257
1630932188960,1.0515273809432983,0.4624989926815033,1.472039818763733,1.062915563583374
1630932189059,1.016339659690857,0.4279196858406067,1.472039818763733,1.0348659753799438
1630932189131,0.9819786548614502,0.4067304134368896,-0.0693198069930076,1.0089211463928225
1630932189249,0.947531282901764,0.3921991288661957,-0.0824961960315704,0.981756865978241
1630932189353,0.9156073331832886,0.3761315047740936,-0.0768022015690803,0.9556075930595398
1630932189480,0.8926325440406799,0.3568480312824249,-0.0525820739567279,0.9325712323188782
1630932189578,0.8881990909576416,0.340654969215393,-0.0276180524379014,0.919353723526001
1630932189683,0.8758234977722168,0.3282285928726196,-0.0096191493794322,0.8739610314369202
1630932189779,0.8763153553009033,0.3175351917743683,0.0068060485646128,0.8279880881309509
1630932189874,0.881179928779602,0.182678535580635,0.0175158865749835,0.7824770212173462
1630932189968,0.8778660893440247,0.0967457294464111,0.014178822748363,0.7485779523849487
1630932190098,0.858310878276825,0.0719781070947647,-0.001048837439157,0.7301969528198242
1630932190226,0.8267905116081238,0.0754007026553154,-0.0162301324307918,0.7261834144592285
1630932190273,0.7960258722305298,0.0852621719241142,-0.0272604171186685,0.7253620624542236
1630932190370,0.7775195837020874,0.0910986065864563,-0.0470504015684127,0.7155202627182007
1630932190454,0.7692651152610779,0.0870176553726196,-0.0514412485063076,0.7045218348503113
1630932190565,0.7703486680984497,0.0745036154985427,-0.0552926808595657,0.6992753148078918
1630932190697,0.777878999710083,0.0592250153422355,-0.0637494996190071,0.7028822302818298
1630932190812,0.7920794486999512,0.04584252089262,-0.0746137425303459,0.7167477607727051
1630932190890,0.8059114217758179,0.0366679951548576,-0.0886899605393409,0.7286112308502197
1630932190968,0.8116132616996765,0.0283802784979343,-0.1035256013274192,0.7309941053390503
1630932191083,0.8109458684921265,0.0247421097010374,-0.1113657876849174,0.7317420244216919
1630932191178,0.780174732208252,0.0162276737391948,-0.0334305167198181,0.7187403440475464
1630932191307,0.7160699367523193,0.0051266867667436,-0.0480530932545661,0.6889857053756714
1630932191402,0.6355544328689575,-0.0056905401870608,-0.0632231906056404,0.6540563106536865
1630932191502,0.5640876293182373,-0.0174597762525081,-0.0666273310780525,0.6269515752792358
1630932191594,0.5204811096191406,-0.0340709798038005,-0.053597692400217,0.6066855788230896
1630932191685,0.5013688802719116,-0.0502391085028648,-0.035973098129034,0.5890145897865295
1630932191774,0.4955033361911773,-0.0593701936304569,-0.0195358470082283,0.5825303792953491
1630932191914,0.5084488987922668,-0.0547063834965229,-0.0031875793356448,0.5997581481933594
1630932192023,0.5322254300117493,-0.029456652700901,0.0191913545131683,0.6277543902397156
1630932192109,0.5536524057388306,0.0073234024457633,0.0541483201086521,0.6443516612052917
1630932192199,0.5536524057388306,0.0073234024457633,0.1023986116051673,0.6408771276473999
1630932192326,0.5536524057388306,0.0073234024457633,0.1705831438302993,0.8166389465332031
1630932192377,0.5536524057388306,0.0073234024457633,0.1705831438302993,0.8166389465332031
1630932192509,0.5536524057388306,0.0073234024457633,0.1705831438302993,0.8166389465332031
1630932192632,0.5536524057388306,0.0073234024457633,0.1705831438302993,0.8166389465332031
1630932192742,0.5536524057388306,0.0073234024457633,0.1705831438302993,0.8166389465332031
1630932192801,0.5536524057388306,0.0073234024457633,0.1705831438302993,0.8166389465332031
1630932192913,0.5536524057388306,0.0073234024457633,0.1705831438302993,0.8166389465332031
1630932193004,0.5536524057388306,0.0073234024457633,0.1705831438302993,0.8166389465332031
1630932193138,0.5536524057388306,0.0073234024457633,0.1705831438302993,0.8166389465332031
1630932193230,0.5536524057388306,0.0073234024457633,0.1705831438302993,0.8166389465332031
1630932193362,0.5536524057388306,0.0073234024457633,0.1705831438302993,0.8166389465332031
1630932193406,0.5536524057388306,0.0073234024457633,0.1705831438302993,0.8166389465332031
1630932193513,0.5536524057388306,0.0073234024457633,0.1705831438302993,0.8166389465332031
1630932193627,0.5536524057388306,0.0073234024457633,0.1705831438302993,0.8166389465332031
1630932193737,0.5536524057388306,0.0073234024457633,0.1705831438302993,0.8166389465332031
1630932193848,0.5536524057388306,0.0073234024457633,0.1705831438302993,0.8166389465332031
1630932193931,0.5536524057388306,0.0073234024457633,0.1705831438302993,0.8166389465332031
1630932194025,0.5536524057388306,0.0073234024457633,0.1705831438302993,0.8166389465332031
1630932194119,0.5536524057388306,0.0073234024457633,0.1705831438302993,0.8166389465332031
1630932194230,0.5536524057388306,0.0073234024457633,0.1705831438302993,0.8166389465332031
1630932194334,0.5536524057388306,0.0073234024457633,0.1705831438302993,0.8166389465332031
1630932194447,0.5536524057388306,0.0073234024457633,0.1705831438302993,0.8166389465332031
1630932194558,0.5536524057388306,0.0073234024457633,0.1705831438302993,0.8166389465332031
1630932194646,0.5536524057388306,0.0073234024457633,0.1705831438302993,0.8166389465332031
1630932194737,0.5536524057388306,0.0073234024457633,0.1705831438302993,0.8166389465332031
1630932194845,0.5536524057388306,0.0073234024457633,0.1705831438302993,0.8166389465332031
1630932194963,0.5536524057388306,0.0073234024457633,1.2371386289596558,0.8166389465332031
1630932195064,0.5536524057388306,0.0073234024457633,1.2371386289596558,0.8166389465332031
1630932195153,0.5536524057388306,0.0073234024457633,1.2371386289596558,0.8166389465332031
1630932195268,0.5536524057388306,0.0073234024457633,1.2371386289596558,0.8166389465332031
1630932195338,0.5536524057388306,0.0073234024457633,1.2371386289596558,0.8166389465332031
1630932195431,0.5536524057388306,0.0073234024457633,1.2371386289596558,0.8166389465332031
1630932195572,0.5536524057388306,0.0073234024457633,1.2371386289596558,0.8166389465332031
1630932195706,0.5536524057388306,0.0073234024457633,1.2371386289596558,0.8166389465332031
1630932195769,0.5536524057388306,0.0073234024457633,1.2371386289596558,0.8166389465332031
1630932195862,0.5536524057388306,0.0073234024457633,1.2371386289596558,0.8166389465332031
1630932195951,0.5536524057388306,0.0073234024457633,1.2371386289596558,0.8166389465332031
1630932196035,0.7357437014579773,0.0073234024457633,1.2371386289596558,0.2085644602775573
1630932196197,0.7111860513687134,0.0073234024457633,1.2371386289596558,0.3656024932861328
1630932196283,0.7023382782936096,0.0073234024457633,1.2371386289596558,0.4733794927597046
1630932196364,0.7023382782936096,0.0073234024457633,1.2371386289596558,0.4733794927597046
1630932196506,0.7023382782936096,0.0073234024457633,1.2371386289596558,0.4733794927597046
1630932196569,0.7023382782936096,0.0073234024457633,1.2371386289596558,0.4733794927597046
1630932196633,0.7023382782936096,0.0073234024457633,1.2371386289596558,0.4733794927597046
1630932196794,0.7023382782936096,0.0073234024457633,1.2371386289596558,0.4733794927597046
1630932196881,0.7023382782936096,0.0073234024457633,1.2371386289596558,0.4733794927597046
1630932196982,0.7023382782936096,0.0073234024457633,1.2371386289596558,0.4733794927597046
1630932197064,0.7023382782936096,0.0073234024457633,1.2371386289596558,0.4733794927597046
1630932197180,0.7023382782936096,0.0073234024457633,1.2371386289596558,0.4733794927597046
1630932197266,0.5637823939323425,0.0073234024457633,1.2371386289596558,0.5187677145004272
1630932197421,0.516140878200531,0.0073234024457633,1.2371386289596558,0.5927655100822449
1630932197515,0.516140878200531,0.0073234024457633,1.2371386289596558,0.5927655100822449
1630932197584,0.516140878200531,0.0073234024457633,1.2371386289596558,0.5927655100822449
1630932197672,0.516140878200531,0.0073234024457633,1.2371386289596558,0.5927655100822449
1630932197776,0.516140878200531,0.0073234024457633,1.2371386289596558,0.5927655100822449
1630932197871,0.516140878200531,0.0073234024457633,1.2371386289596558,0.5927655100822449
1630932198027,0.516140878200531,0.0073234024457633,1.2371386289596558,0.5927655100822449
1630932198120,0.516140878200531,0.0073234024457633,1.2371386289596558,0.5927655100822449
1630932198207,0.516140878200531,0.0073234024457633,1.2371386289596558,0.5927655100822449
1630932198320,0.516140878200531,0.0073234024457633,1.2371386289596558,0.5927655100822449
1630932198384,0.516140878200531,0.0073234024457633,1.2371386289596558,0.5927655100822449
1630932198496,0.516140878200531,0.0073234024457633,1.2371386289596558,0.5927655100822449
1630932198606,0.516140878200531,0.0073234024457633,1.2371386289596558,0.5927655100822449
1630932198722,0.516140878200531,0.0073234024457633,1.2371386289596558,0.5927655100822449
1630932198828,0.516140878200531,0.0073234024457633,1.2371386289596558,0.5927655100822449
1630932198909,0.516140878200531,0.0073234024457633,1.2371386289596558,0.5927655100822449
1630932199010,0.516140878200531,0.0073234024457633,1.2371386289596558,0.5927655100822449
1630932199104,0.516140878200531,0.0073234024457633,1.2371386289596558,0.5927655100822449
1630932199234,0.516140878200531,0.0073234024457633,1.2371386289596558,0.5927655100822449
1630932199301,0.516140878200531,0.0073234024457633,1.2371386289596558,0.5927655100822449
1630932199437,0.516140878200531,0.0073234024457633,1.2371386289596558,0.5927655100822449
1630932199528,0.516140878200531,0.0073234024457633,1.2371386289596558,0.5927655100822449
1630932199616,0.516140878200531,0.0073234024457633,1.2371386289596558,0.5927655100822449
1630932199705,0.516140878200531,0.0073234024457633,1.2371386289596558,0.5927655100822449
1630932199838,0.516140878200531,0.0073234024457633,1.2371386289596558,0.5927655100822449
1630932199932,0.516140878200531,0.0073234024457633,1.2371386289596558,0.5927655100822449
1630932200016,0.516140878200531,0.0073234024457633,1.2371386289596558,0.5927655100822449
1630932200134,0.516140878200531,0.0073234024457633,1.2371386289596558,0.5927655100822449
1630932200219,0.516140878200531,1.0291543006896973,1.2371386289596558,0.5927655100822449
1630932200310,0.516140878200531,0.9498725533485411,1.2371386289596558,0.5927655100822449
1630932200438,0.516140878200531,0.892997682094574,1.2371386289596558,0.5927655100822449
1630932200530,0.516140878200531,0.7581764459609985,1.2371386289596558,0.4842924177646637
1630932200622,0.516140878200531,0.4523442387580871,1.2371386289596558,0.4434151351451874
1630932200729,0.516140878200531,0.4640967547893524,1.2371386289596558,0.4242824912071228
1630932200824,0.516140878200531,0.5487890243530273,1.2371386289596558,0.4298271238803863
1630932200929,0.516140878200531,0.5487890243530273,1.2371386289596558,0.4463632106781006
1630932201112,0.516140878200531,0.5487890243530273,1.2371386289596558,0.4687677025794983
1630932201180,0.516140878200531,0.5487890243530273,1.2371386289596558,0.4882080256938934
1630932201246,0.516140878200531,0.5487890243530273,1.2371386289596558,0.5122702121734619
1630932201360,0.516140878200531,0.5487890243530273,1.2371386289596558,0.5563863515853882
1630932201453,1.7614303827285769,0.5487890243530273,1.2371386289596558,0.6165657043457031
1630932201565,1.7532232999801636,0.5487890243530273,1.2371386289596558,0.6691187024116516
1630932201682,1.7257574796676636,0.5264198780059814,1.2371386289596558,0.6952323317527771
1630932201769,1.7257574796676636,0.5468164682388306,0.5544593930244446,0.6935939192771912
1630932201854,1.7257574796676636,0.5879632830619812,0.4819347262382507,0.6844576001167297
1630932201957,1.7257574796676636,0.6796608567237854,0.4304463863372803,0.6798482537269592
1630932202052,1.6763908863067627,0.7101936936378479,0.3909756541252136,0.6836199164390564
1630932202187,1.6318849325180054,0.7045761942863464,0.355089396238327,0.6895659565925598
1630932202297,1.591424584388733,0.6814650297164917,0.3221741020679474,0.6900004148483276
1630932202373,1.5532935857772827,0.5529869794845581,0.2932955026626587,0.6810098886489868
1630932202467,1.5200228691101074,0.5175704956054688,0.2773479521274566,0.6660745739936829
1630932202566,1.4983956813812256,0.4878649413585663,0.2838903367519378,0.6495130062103271
1630932202652,1.4723299741744995,0.4629163742065429,0.3068289160728454,0.6343619227409363
1630932202762,1.446129560470581,0.4534529149532318,0.3357250690460205,0.614234447479248
1630932202898,1.407486915588379,0.4598672091960907,0.3769198656082153,0.5737166404724121
1630932203015,1.3476523160934448,0.4730248153209686,0.4371199011802673,0.5029445290565491
1630932203080,1.2897199392318726,0.5054464936256409,0.6083983182907104,0.4099049866199493
1630932203185,1.2506898641586304,0.591972827911377,0.7723388075828552,0.3368850946426391
1630932203263,1.246355056762695,0.7099164724349976,0.8713035583496094,0.3181205093860626
1630932203372,1.2602039575576782,0.7099164724349976,0.9101219177246094,0.341278612613678
1630932203502,1.2602039575576782,0.6982160806655884,0.9249809980392456,0.3812390267848968
1630932203584,1.2693264484405518,0.7020723819732666,0.9488730430603028,0.4203743934631347
1630932203687,1.2848377227783203,0.7202810049057007,0.9884573817253112,0.4562118649482727
1630932203782,1.3062758445739746,0.7492774724960327,1.0307680368423462,0.4880999624729156
1630932203863,1.335357666015625,0.7930139303207397,1.0627022981643677,0.5142379999160767
1630932203955,1.3673582077026367,0.8427428007125854,1.077926516532898,0.531726598739624
1630932204132,1.388923168182373,0.8817606568336487,1.0812115669250488,0.5351296067237854
1630932204204,1.3853963613510132,0.8999168872833252,1.0803813934326172,0.5479069352149963
1630932204309,1.3538110256195068,0.9060034155845642,1.077472686767578,0.561431348323822
1630932204396,1.274830937385559,0.9152235984802246,1.0706455707550049,0.5781230926513672
1630932204492,1.2271162271499634,0.9281572699546814,1.0481818914413452,0.5953013896942139
1630932204585,1.2073460817337036,0.9276431202888488,0.9967910051345824,0.6122105717658997
1630932204712,1.198469638824463,0.8831062316894531,0.9210669994354248,0.6244470477104187
1630932204850,1.190438985824585,0.7685727477073669,0.8494482636451721,0.6326672434806824
1630932204929,1.124489426612854,0.7378746271133423,0.8128789663314819,0.6428261995315552
1630932205005,1.1146423816680908,0.7119067907333374,0.7983705997467041,0.6425308585166931
1630932205097,1.1146423816680908,0.6933962106704712,0.7698962688446045,0.6182639002799988
1630932205208,1.1146423816680908,0.678763210773468,0.7127877473831177,0.5648291707038879
1630932205314,1.1146423816680908,0.659965455532074,0.646249532699585,0.4546049237251282
1630932205427,1.117653727531433,0.6365631222724915,0.6178410053253174,0.4252103865146637
1630932205520,1.1577869653701782,0.6204075217247009,0.6471085548400879,0.5073506236076355
1630932205611,1.205058455467224,0.6259960532188416,0.6941980123519897,0.6314132809638977
1630932205713,1.2312901020050049,0.6490642428398132,0.7250047922134399,0.6487032175064087
1630932205811,1.2312901020050049,0.658597469329834,0.738429844379425,0.6277266144752502
1630932205949,1.24557363986969,0.6372750997543335,0.7412759065628052,0.5863016843795776
1630932206055,1.255200743675232,0.6000832915306091,0.7360394597053528,0.5421215891838074
1630932206145,1.2657476663589478,0.5847539305686951,0.7269753813743591,0.5015960335731506
1630932206235,1.2423200607299805,0.6218924522399902,0.7199268937110901,0.4725461900234222
1630932206332,1.2302991151809692,0.713550865650177,0.7382523417472839,0.4563463032245636
1630932206443,1.2299944162368774,0.737522542476654,0.7835052013397217,0.4519093036651611
1630932206547,1.2325628995895386,0.7620185613632202,0.829590380191803,0.4529543817043304
1630932206645,1.2325628995895386,0.7842230796813965,0.8602722883224487,0.4529543817043304
1630932206729,1.2325628995895386,0.8198956847190857,0.8705459237098694,0.4529543817043304
1630932206847,1.2325628995895386,0.8343098163604736,0.8626675605773926,0.462173193693161
1630932206933,1.2445169687271118,0.84974604845047,0.8372496962547302,0.4538001120090484
1630932206997,1.214763641357422,0.8767119646072388,0.7958938479423523,0.4141461551189422
1630932207171,1.1301027536392212,0.9143589735031128,0.7504944801330566,0.341770201921463
1630932207265,1.0048333406448364,0.9503042101860046,0.7130175232887268,0.2619014382362366
1630932207356,1.0048333406448364,0.9774014353752136,0.6890514492988586,0.2128696292638778
1630932207444,1.0048333406448364,0.9926861524581908,0.6753115653991699,0.2169061303138733
1630932207553,1.0048333406448364,0.9959174394607544,0.6635035276412964,0.2559613287448883
1630932207620,1.0048333406448364,0.984774649143219,0.6436289548873901,0.3182611465454101
1630932207761,1.0048333406448364,0.9527501463890076,0.6136988997459412,0.3182611465454101
1630932207864,1.0048333406448364,0.8825563788414001,0.5558410882949829,0.3182611465454101
1630932207958,1.0048333406448364,0.8491209149360657,0.4548059701919555,0.3182611465454101
1630932208046,1.0048333406448364,0.818268358707428,0.3165678679943084,0.3182611465454101
1630932208165,1.0048333406448364,0.7892388105392456,0.1680940985679626,0.3182611465454101
1630932208250,0.4296301603317261,0.7468812465667725,0.0609812848269939,0.2889159023761749
1630932208362,0.4547666907310486,0.7174397110939026,-0.0018713450990617,0.2618660628795624
1630932208481,0.4947318732738495,0.6743607521057129,-0.0730840861797332,0.285807341337204
1630932208582,0.550880491733551,0.5874131321907043,-0.1484103053808212,0.3509109616279602
1630932208648,0.6073181629180908,0.431040495634079,-0.2220201790332794,0.4202697575092315
1630932208743,0.6453633904457092,0.197078987956047,-0.2834244668483734,0.4637959599494934
1630932208829,0.6627108454704285,-0.0971027165651321,-0.3342243134975433,0.478836327791214
1630932209025,0.6664290428161621,-0.3778094351291656,-0.3626289963722229,0.4746250510215759
1630932209098,0.6661872267723083,-0.5356010794639587,-0.3443073630332947,0.4619419574737549
1630932209187,0.671720564365387,-0.5638187527656555,-0.2882278859615326,0.4567311108112335
1630932209254,0.6873518824577332,-0.5462712049484253,-0.2080576717853546,0.4657470881938934
1630932209365,0.7021111249923706,-0.5042701363563538,-0.1292423605918884,0.4889574944972992
1630932209505,0.7208020687103271,-0.4439325034618377,-0.0698027089238166,0.529549777507782
1630932209589,0.7349444627761841,-0.3660057485103607,-0.0329328477382659,0.5814338326454163
1630932209682,0.7485244870185852,-0.2868586480617523,-0.019161157310009,0.6268916130065918
1630932209802,0.7660027742385864,-0.2174488008022308,-0.0147849218919873,0.6552497744560242
1630932209903,0.782017707824707,-0.1721292287111282,-0.0085417293012142,0.6629208922386169
1630932209979,0.7964250445365906,-0.1518187671899795,-0.002467788523063,0.6589478254318237
1630932210061,0.8126123547554016,-0.1508285254240036,0.0012598152970895,0.6551395654678345
1630932210200,0.8384897708892822,-0.1591574698686599,0.0077987951226532,0.6655511856079102
1630932210330,0.8754866123199463,-0.1707514077425003,0.0186218805611133,0.6992411613464355
1630932210462,0.9172831177711488,-0.1782260239124298,0.0330075733363628,0.7432205677032471
1630932210532,0.9292435646057128,-0.1764778196811676,0.0445298887789249,0.777881383895874
1630932210592,0.9442696571350098,-0.1688805073499679,0.0416004098951816,0.8045868277549744
1630932210680,0.957984447479248,-0.1596448868513107,0.0165428109467029,0.8309354186058044
1630932210828,0.9664800763130188,-0.148588016629219,-0.0373963005840778,0.8546761870384216
1630932210938,0.9751425981521606,-0.1400644928216934,-0.1125522553920745,0.8633212447166443
1630932211029,0.990185022354126,-0.1396421492099762,-0.1944251805543899,0.854401171207428
1630932211094,1.0295016765594482,-0.1478368192911148,-0.255419909954071,0.8315253853797913
1630932211235,1.0418734550476074,-0.1265829056501388,-0.2366119623184204,0.8067170977592468
1630932211312,1.03070330619812,-0.0198936760425567,-0.1342716068029403,0.792813241481781
1630932211431,1.0094032287597656,0.1439408212900161,-0.0101674059405922,0.7924641966819763
1630932211518,0.9820911288261414,0.2945726215839386,0.0949015840888023,0.7963948249816895
1630932211621,0.9454779624938964,0.3975357711315155,0.1849791258573532,0.7986640334129333
1630932211719,0.8881607055664062,0.464451789855957,0.2803135216236114,0.7940376996994019
1630932211816,0.8091276288032532,0.5230359435081482,0.389732301235199,0.795730710029602
1630932211904,0.7211892008781433,0.5998803973197937,0.5045735239982605,0.825261652469635
1630932212045,0.7449156641960144,0.7046380639076233,0.605836808681488,0.8870463371276855
1630932212147,0.7595553398132324,0.8144711256027222,0.6830698847770691,0.952142894268036
1630932212230,0.7544054985046387,0.9032555222511292,0.7397735118865967,0.9888691306114196
1630932212316,0.7415620684623718,0.958920955657959,0.7782261371612549,1.000878095626831
1630932212408,0.736346960067749,0.9865453839302064,0.7982832193374634,1.0079329013824463
1630932212522,0.7420434951782227,0.9978450536727904,0.8051501512527466,1.018415927886963
1630932212649,0.7054781317710876,1.0010906457901,0.805584192276001,1.0256550312042236
1630932212746,0.6955100893974304,0.9991545081138612,0.8014546036720276,1.0290471315383911
1630932212836,0.6982365846633911,0.987966001033783,0.7914401292800903,1.029625415802002
1630932212923,0.701363742351532,0.9667470455169678,0.7775577902793884,1.0297737121582031
1630932213020,0.7031397819519043,0.9398667216300964,0.7645360827445984,1.0291528701782229
1630932213099,0.7171880602836609,0.9165951609611512,0.7527341842651367,1.0481165647506714
1630932213260,0.7269726395606995,0.9004725813865662,0.7338246703147888,1.0633225440979004
1630932213327,0.7291867136955261,0.8854483366012573,0.6966327428817749,1.0648044347763062
1630932213442,0.7171912789344788,0.8574000597000122,0.631377100944519,1.0406184196472168
1630932213526,0.6914283037185669,0.8017784357070923,0.5419536828994751,0.9816240668296814
1630932213639,0.6636510491371155,0.715089738368988,0.4500729143619537,0.8877359628677368
1630932213712,0.6597959995269775,0.6044001579284668,0.3739906549453735,0.7889907956123352
1630932213866,0.6736937761306763,0.4932883083820343,0.3387368619441986,0.7075768113136292
1630932213953,0.6755881905555725,0.4089410305023193,0.3409751355648041,0.6326575875282288
1630932214072,0.6414531469345093,0.3643002510070801,0.3632671236991882,0.5263361930847168
1630932214131,0.5738508701324463,0.3730003237724304,0.4346213042736053,0.4409250617027282
1630932214246,0.5738508701324463,0.4599598944187164,0.4588813483715057,0.4409250617027282
1630932214329,0.5738508701324463,0.4817136824131012,0.4822416603565216,0.4409250617027282
1630932214521,0.5738508701324463,0.5054689049720764,0.5021039843559265,0.4409250617027282
1630932214630,0.5738508701324463,0.5285454392433167,0.7306506037712097,0.4409250617027282
1630932214674,0.5738508701324463,0.5498855113983154,0.923964262008667,0.54575514793396
1630932214781,0.5738508701324463,0.5690422058105469,0.9508127570152284,0.4600359201431274
1630932214850,0.5738508701324463,0.5861705541610718,0.9826883673667908,0.3878213167190552
1630932214961,0.5738508701324463,0.6030924320220947,1.0215599536895752,0.3351735174655914
1630932215096,0.5738508701324463,0.6093579530715942,1.0657786130905151,0.3112423717975616
1630932215181,0.5738508701324463,0.5912212133407593,1.1114742755889893,0.3319233953952789
1630932215261,0.5738508701324463,0.5620145797729492,1.159743309020996,0.3825677335262298
1630932215382,0.5738508701324463,0.5678437948226929,1.2127318382263184,0.4282614886760711
1630932215450,0.5738508701324463,0.5678437948226929,1.284753680229187,0.4543747007846832
1630932215548,0.6224634647369385,0.5678437948226929,1.284753680229187,0.4587618410587311
1630932215696,0.5844720602035522,0.5678437948226929,1.284753680229187,0.4459409117698669
1630932215789,0.5606071352958679,0.5678437948226929,1.284753680229187,0.4320868253707886
1630932215869,0.5436645150184631,0.5678437948226929,1.284753680229187,0.4142429232597351
1630932215969,0.5275166630744934,0.5678437948226929,1.284753680229187,0.411823034286499
1630932216067,0.5062580704689026,0.5678437948226929,1.284753680229187,0.4260720014572143
1630932216150,0.4807417690753937,0.5678437948226929,1.284753680229187,0.4486631751060486
1630932216313,0.4548269212245941,0.5678437948226929,1.284753680229187,0.4672214984893799
1630932216397,0.43509241938591,0.5678437948226929,1.284753680229187,0.4791581928730011
1630932216485,0.4252279102802276,0.5678437948226929,1.284753680229187,0.4993993639945984
1630932216603,0.4293477237224579,0.5678437948226929,1.284753680229187,0.531894862651825
1630932216665,0.4447818696498871,0.5678437948226929,1.284753680229187,0.5800018906593323
1630932216785,0.4129431545734405,0.5678437948226929,0.5895801782608032,0.6478984951972961
1630932216917,0.4482229351997375,0.5678437948226929,0.5539479851722717,0.7325201034545898
1630932217070,0.5125635862350464,0.72959965467453,0.5005426406860352,0.8020324110984802
1630932217120,0.6005748510360718,0.6712738871574402,0.4656181335449219,0.8170214295387268
1630932217214,0.7262488603591919,0.6360518932342529,0.4788554906845093,0.8410717248916626
1630932217300,0.7417876124382019,0.6343163251876831,0.531465470790863,0.8686594367027283
1630932217379,0.7587428689002991,0.6679793000221252,0.5927310585975647,0.8910794258117676
1630932217509,0.7788458466529846,0.7154234647750854,0.6404310464859009,0.9085961580276488
1630932217597,0.8049112558364868,0.7495247721672058,0.6640125513076782,0.9295060038566588
1630932217752,0.8376961946487427,0.7579537630081177,0.6642164587974548,0.9605316519737244
1630932217803,0.8764712810516357,0.7471184730529785,0.6494283080101013,1.00520122051239
1630932217912,0.9190050959587096,0.7245153188705444,0.6278166174888611,1.0631108283996582
1630932218037,0.964196503162384,0.6981505751609802,0.5995489358901978,1.1253957748413086
1630932218113,1.010323166847229,0.681269109249115,0.5720434188842773,1.189075946807861
1630932218255,1.0591647624969482,0.6634277701377869,0.5484030842781067,1.189075946807861
1630932218339,1.154924750328064,0.6939955353736877,0.5315844416618347,1.189075946807861
1630932218431,1.2909104824066162,0.7657704949378967,0.5296557545661926,1.189075946807861
1630932218536,1.4326660633087158,0.8448835015296936,0.5436975359916687,1.189075946807861
1630932218603,1.5360093116760254,0.9005553126335144,0.5547692775726318,1.189075946807861
1630932218762,1.571939468383789,0.9256153106689452,0.5449556708335876,1.189075946807861
1630932218852,1.571939468383789,0.9243706464767456,0.503695547580719,1.189075946807861
1630932218919,1.571939468383789,0.902986466884613,0.4320785701274872,1.189075946807861
1630932219136,1.4717434644699097,0.8326953649520874,0.2513711154460907,1.1567769050598145
1630932219203,1.4668874740600586,0.8114826083183289,0.1906839162111282,1.1567769050598145
1630932219365,1.495160698890686,0.8116055727005005,0.1728563159704208,1.1567769050598145
1630932219432,1.495160698890686,0.8298346400260925,0.1878435164690017,1.1567769050598145
1630932219581,1.495160698890686,0.8539494276046753,0.2204200625419616,1.1567769050598145
1630932219632,1.495160698890686,0.8683645725250244,0.2468632459640503,1.1567769050598145
1630932219725,1.495160698890686,0.8624832034111023,0.2652260065078735,1.1567769050598145
1630932219814,1.5172277688980105,0.8285025954246521,0.2813828587532043,1.1567769050598145
1630932219945,1.5155709981918335,0.7605841159820557,0.3019203841686249,1.1567769050598145
1630932220034,1.477958917617798,0.6661568880081177,0.3242336213588714,1.1567769050598145
1630932220171,1.401829719543457,0.5724391937255859,0.3501052260398865,1.1567769050598145
1630932220270,1.401829719543457,0.5121574401855469,0.3699317872524261,1.0093165636062622
1630932220352,1.401829719543457,0.490845650434494,0.3815647959709167,1.0093165636062622
1630932220453,1.401829719543457,0.4878793060779571,0.385923683643341,1.0093165636062622
1630932220586,1.401829719543457,0.4886788725852966,0.3790626525878906,1.0093165636062622
1630932220669,1.401829719543457,0.4871672093868255,0.3717035055160522,1.0093165636062622
1630932220785,1.401829719543457,0.4765830338001251,0.3695216476917267,1.0093165636062622
1630932220845,1.401829719543457,0.4483988881111145,0.370085060596466,1.1514952182769775
1630932220934,1.401829719543457,0.4003007709980011,0.3678606748580932,1.1263368129730225
1630932221028,1.401829719543457,0.339839220046997,0.3609607815742492,1.0934717655181885
1630932221188,1.401829719543457,0.2805292308330536,0.352628231048584,1.0633724927902222
1630932221249,1.401829719543457,0.233130395412445,0.3415296375751495,1.0287983417510986
1630932221373,1.401829719543457,0.1903854012489318,0.3180029988288879,0.991668701171875
1630932221442,1.401829719543457,0.1455927938222885,0.2729003727436065,0.9563519358634948
1630932221536,1.401829719543457,0.0939046815037727,0.2049915790557861,0.9273825883865356
1630932221645,1.401829719543457,0.0427395030856132,0.1153438985347747,0.901965856552124
1630932221781,1.401829719543457,-0.0015488995704799,0.0294423066079616,0.8777371644973755
1630932221868,1.401829719543457,-0.0267994906753301,-0.0212153084576129,0.8527951240539551
1630932221976,1.401829719543457,-0.0292658917605876,-0.0281421765685081,0.8281758427619934
1630932222090,1.401829719543457,-0.024112669751048,0.0017659837612882,0.7780649065971375
1630932222180,1.401829719543457,-0.0247129425406456,0.0348207019269466,0.7048212885856628
1630932222248,1.401829719543457,-0.036588467657566,0.0473507121205329,0.615247368812561
1630932222383,1.401829719543457,-0.0603670850396156,0.0362992323935031,0.5246448516845703
1630932222481,1.401829719543457,-0.1020139083266258,0.0088781826198101,0.4433271288871765
1630932222608,1.401829719543457,-0.1562954187393188,-0.0228552147746086,0.380346417427063
1630932222680,1.401829719543457,-0.2065556347370147,-0.0529176481068134,0.3282541930675506
1630932222769,1.401829719543457,-0.2359589338302612,-0.0783495604991912,0.3101276159286499
1630932222880,1.401829719543457,-0.2491477876901626,-0.0909970924258232,0.3156621158123016
1630932223015,1.401829719543457,-0.2620599865913391,-0.092737853527069,0.3220671713352203
1630932223135,1.401829719543457,-0.2787956297397613,-0.0847220495343208,0.3142369389533996
1630932223196,1.401829719543457,-0.2768367826938629,-0.063791699707508,0.3039489686489105
1630932223281,1.401829719543457,-0.2374802082777023,-0.0253451578319072,0.297843873500824
1630932223373,1.401829719543457,-0.1337575316429138,0.0273715294897556,0.304467499256134
1630932223477,1.401829719543457,-0.0021106246858835,0.1594324558973312,0.3209723532199859
1630932223647,1.401829719543457,0.1136989369988441,0.1535646319389343,0.34159055352211
1630932223721,1.401829719543457,0.2096282243728637,0.1469227522611618,0.3625490367412567
1630932223812,1.401829719543457,0.3179519474506378,0.1456809490919113,0.3799793720245361
1630932223896,1.401829719543457,0.4816442728042602,0.1528719216585159,0.3987231850624084
1630932223984,1.401829719543457,0.6969786286354065,0.1708993166685104,0.4286012053489685
1630932224071,1.401829719543457,0.8999509215354919,0.1991274505853653,0.4589171111583709
1630932224216,1.401829719543457,0.9283735156059264,0.238543301820755,0.4589171111583709
1630932224322,1.401829719543457,0.95887553691864,0.2887179255485534,0.4589171111583709
1630932224408,1.401829719543457,0.9918837547302246,0.4673352241516113,0.4589171111583709
1630932224501,1.401829719543457,1.0282087326049805,0.6194683313369751,0.4589171111583709
1630932224604,0.3673052489757538,1.068074345588684,0.7254614233970642,0.1280712932348251
1630932224686,0.3302153050899505,1.1107923984527588,0.7956492900848389,0.0878853276371955
1630932224852,0.2869006693363189,1.1193931102752686,0.8426375985145569,0.0602374523878097
1630932224934,0.2559789717197418,1.119067668914795,0.8894191980361938,0.0390308909118175
1630932225013,0.2401671856641769,1.1104007959365845,0.9068143367767334,0.0249787624925375
1630932225135,0.2386391013860702,1.098633885383606,0.9068143367767334,0.0139389727264642
1630932225220,0.24945068359375,1.0852365493774414,0.9068143367767334,0.0026991546619683
1630932225287,0.2671710848808288,1.0631023645401,0.9068143367767334,-0.018292024731636
1630932225465,0.285309225320816,1.0051461458206177,0.9068143367767334,-0.0402248539030551
1630932225524,0.2997191846370697,0.8445684909820557,0.9581436514854432,-0.0592496767640113
1630932225637,0.2997191846370697,0.3263117372989654,0.9797431230545044,-0.0592496767640113
1630932225729,0.2997191846370697,0.3007512390613556,0.9797431230545044,-0.0592496767640113
1630932225834,0.2829931974411011,0.3126472532749176,0.9797431230545044,-0.1123088970780372
1630932225905,0.2738827168941498,0.39813232421875,0.9927712082862854,-0.1534917503595352
1630932226050,0.2669507563114166,0.5281835198402405,0.997971773147583,-0.1715779900550842
1630932226149,0.2659370303153991,0.6678740978240967,1.0079872608184814,-0.1782562583684921
1630932226230,0.279511034488678,0.7882172465324402,1.0311137437820437,-0.1853661686182022
1630932226342,0.3104131817817688,0.9008855819702148,1.0702000856399536,-0.1967950314283371
1630932226412,0.3457373082637787,0.9201091527938844,1.0702000856399536,-0.2118474245071411
1630932226498,0.3807134628295898,0.9440146684646606,1.0702000856399536,-0.2413166761398315
1630932226678,0.4120558798313141,0.9710291028022766,1.0702000856399536,-0.2906115651130676
1630932226748,0.4120558798313141,1.0014140605926514,1.0702000856399536,-0.2906115651130676
1630932226839,0.4120558798313141,1.0351978540420532,1.0702000856399536,-0.2906115651130676
1630932226954,0.4120558798313141,1.073767900466919,1.0702000856399536,-0.2906115651130676
1630932227038,0.4120558798313141,1.1187814474105835,1.0702000856399536,-0.2906115651130676
1630932227124,0.4120558798313141,1.172377109527588,1.0702000856399536,-0.2906115651130676
1630932227285,0.4120558798313141,1.235518455505371,1.0702000856399536,-0.2906115651130676
1630932227350,0.4120558798313141,1.2656455039978027,1.0702000856399536,-0.2906115651130676
1630932227479,1.5596699714660645,1.2815178632736206,1.0702000856399536,-0.2906115651130676
1630932227560,1.5729854106903076,1.30828857421875,1.0702000856399536,-0.2906115651130676
1630932227637,1.5729854106903076,1.3041681051254272,1.0702000856399536,1.6786401271820068
1630932227735,1.5729854106903076,1.2658668756484983,1.0702000856399536,1.6786401271820068
1630932227887,1.5729854106903076,1.2658668756484983,1.0702000856399536,1.6786401271820068
1630932227987,1.5729854106903076,1.2658668756484983,1.0702000856399536,1.6786401271820068
1630932228072,1.5729854106903076,1.2658668756484983,1.0702000856399536,1.6786401271820068
1630932228172,1.5729854106903076,1.0396299362182615,0.2847073078155517,1.636518120765686
1630932228253,1.5729854106903076,0.9498496055603028,0.2683928608894348,1.6057024002075195
1630932228370,1.509651780128479,0.884526252746582,0.2639713883399963,1.5766884088516235
1630932228489,1.457262635231018,0.8345754742622375,0.2588530480861664,1.5440905094146729
1630932228585,1.414038062095642,0.7912546396255493,0.2458542585372924,1.506568431854248
1630932228670,1.3873965740203855,0.7500166296958923,0.2234684228897094,1.4673984050750732
1630932228774,1.318102478981018,0.7110037207603455,0.1925439536571502,1.42942476272583
1630932228852,1.2006555795669556,0.6228052377700806,0.1604358553886413,1.3233226537704468
1630932228945,1.039441466331482,0.4889549911022186,0.1349918246269226,1.1953908205032349
1630932229141,0.7856104373931885,-0.0003748750314116,0.1137537658214569,1.080203652381897
1630932229178,0.751616358757019,-0.0271162372082471,0.095948502421379,1.0018280744552612
1630932229315,0.715609073638916,-0.0499466657638549,0.0804937407374382,0.971492350101471
1630932229384,0.6851574778556824,-0.070867508649826,-0.0274959746748209,0.9451711773872375
1630932229461,0.668023943901062,-0.0886135175824165,-0.041021529585123,0.9228667616844176
1630932229567,0.6609960198402405,-0.102411963045597,-0.048085194081068,0.9039625525474548
1630932229705,0.6545798182487488,-0.1242261156439781,-0.0486616045236587,0.8135532736778259
1630932229820,0.6412801742553711,-0.1235040575265884,-0.052472036331892,0.697665810585022
1630932229904,0.6041505932807922,-0.1420425176620483,-0.0572560429573059,0.5614346861839294
1630932230002,0.5691900253295898,-0.1780419796705246,-0.0635768696665763,0.4300791621208191
1630932230094,0.5428503155708313,-0.2172416895627975,-0.0619098581373691,0.3461407721042633
1630932230189,0.5381392240524292,-0.2444729954004287,-0.0509011000394821,0.3292022347450256
1630932230304,0.5481373071670532,-0.252651035785675,-0.0314617715775966,0.3758682310581207
1630932230420,0.5554400086402893,-0.2302653938531875,-0.0078336773440241,0.4606476426124573
1630932230509,0.5560765266418457,-0.1748974770307541,0.0100499875843524,0.5442017316818237
1630932230612,0.5510014891624451,-0.1015025973320007,0.018926303833723,0.6062155961990356
1630932230681,0.546899676322937,-0.0341299846768379,0.0164946448057889,0.6396579146385193
1630932230783,0.5460805892944336,0.012179990299046,0.0063500334508717,0.6467465162277222
1630932230904,0.5463407635688782,0.0342878103256225,-0.0049752006307244,0.6405863165855408
1630932231017,0.5487590432167053,0.0388945192098617,-0.0178784392774105,0.6282861828804016
1630932231112,0.5544499158859253,0.0336945876479148,-0.0351373851299285,0.6135742664337158
1630932231193,0.5659120082855225,0.0224701669067144,-0.06001752987504,0.6015259623527527
1630932231309,0.5813886523246765,0.0043434360995888,-0.0888688266277313,0.5945574045181274
1630932231402,0.5948227643966675,-0.0207610242068767,-0.116955280303955,0.5908961296081543
1630932231533,0.5980406999588013,-0.0465298667550087,-0.1272421777248382,0.5865513682365417
1630932231620,0.5849903225898743,-0.0630978867411613,-0.1113931760191917,0.5774799585342407
1630932231711,0.5489394664764404,-0.0665641129016876,-0.0713855251669883,0.5568828582763672
1630932231825,0.4983958601951599,-0.0679362639784812,-0.0286606438457965,0.5138071179389954
1630932231915,0.4615199565887451,-0.0812213495373725,-0.0044599357061088,0.4414930045604706
1630932232004,0.4569860994815826,-0.1195273399353027,-0.0027525308541953,0.3448237478733063
1630932232138,0.4739769399166107,-0.1886160224676132,-0.0104405535385012,0.2436423599720001
1630932232244,0.4885982573032379,-0.2826243042945862,-0.0127124888822436,0.1700694262981414
1630932232338,0.4925834536552429,-0.3847241103649139,-0.0062018544413149,0.1492296457290649
1630932232430,0.4939615428447723,-0.449722409248352,0.0074604400433599,0.1565165817737579
1630932232519,0.4877847731113434,-0.4582731425762176,0.0270652491599321,0.1663137674331665
1630932232605,0.4796746373176574,-0.4271170496940613,0.0458101406693458,0.1699457764625549
1630932232741,0.4785683155059814,-0.3811607360839844,0.0594236180186271,0.1605263501405716
1630932232847,0.4914872348308563,-0.3384104967117309,0.0621863231062889,0.1443754583597183
1630932232919,0.5139099359512329,-0.3073162138462066,0.0559117197990417,0.1342736482620239
1630932233028,0.5378272533416748,-0.2894741296768188,0.037890650331974,0.1324252039194107
1630932233150,0.5571871995925903,-0.2856809794902801,0.0030711009167134,0.1391825973987579
1630932233212,0.5704588294029236,-0.2970350086688995,-0.0523572117090225,0.14474518597126
1630932233362,0.5748167634010315,-0.3186420798301697,-0.121411345899105,0.1379533261060714
1630932233454,0.5657044649124146,-0.343583345413208,-0.1864377409219741,0.1121291443705558
1630932233545,0.552518904209137,-0.3539019525051117,-0.2274088412523269,0.0659649446606636
1630932233658,0.5594211220741272,-0.3296200335025787,-0.2457090467214584,0.0103592332452535
1630932233722,0.6059896349906921,-0.2638418078422546,-0.2561000287532806,-0.0443288199603557
1630932233837,0.674518346786499,-0.1719456166028976,-0.2702135443687439,-0.0963066890835762
1630932233974,0.7310940027236938,-0.0944372043013572,-0.2963509559631347,-0.1443419605493545
1630932234064,0.7632424235343933,-0.0522722713649272,-0.3405888974666595,-0.1805003136396408
1630932234153,0.7697831988334656,-0.0452526845037937,-0.3904987871646881,-0.188135877251625
1630932234238,0.7601109743118286,-0.056081723421812,-0.4239543378353119,-0.1620487570762634
1630932234348,0.7482975721359253,-0.0653187334537506,-0.4130190014839172,-0.0978133454918861
1630932234438,0.7435007691383362,-0.0686859190464019,-0.3616754114627838,-0.0109937833622097
1630932234603,0.7499390840530396,-0.0633907690644264,-0.2929713726043701,0.074058286845684
1630932234667,0.7641147375106812,-0.0567475110292434,-0.2234006822109222,0.1416114121675491
1630932234783,0.7808583974838257,-0.0538436397910118,-0.1591000854969024,0.1909833401441574
1630932234886,0.7994913458824158,-0.0534019321203231,-0.1079552993178367,0.2213184088468551
1630932234997,0.8191935420036316,-0.0554257631301879,-0.0673137158155441,0.2382632493972778
1630932235078,0.8333937525749207,-0.0629891902208328,-0.0364376232028007,0.2481413781642913
1630932235188,0.8345290422439575,-0.0856883525848388,-0.0142503418028354,0.2533861696720123
1630932235265,0.81332927942276,-0.1337755918502807,0.0124958772212266,0.260061502456665
1630932235369,0.7762834429740906,-0.2044756561517715,0.0485102832317352,0.2779707610607147
1630932235470,0.7362464070320129,-0.2660195529460907,0.0854914262890815,0.3033673167228699
1630932235561,0.7093698978424072,-0.2730144560337066,0.1141646429896354,0.333131194114685
1630932235678,0.7029839754104614,-0.2187194675207138,0.1318757534027099,0.3653514087200165
1630932235811,0.7059943079948425,-0.1448274105787277,0.1398036479949951,0.3950790464878082
1630932235900,0.703728199005127,-0.065469890832901,0.1456840336322784,0.4056246280670166
1630932235960,0.6894276738166809,0.03634699806571,0.1620015650987625,0.3891666829586029
1630932236079,0.6619888544082642,0.1839722841978073,0.2069930136203766,0.3496284484863281
1630932236213,0.628825843334198,0.37033611536026,0.2750330865383148,0.3021584451198578
1630932236281,0.5944730043411255,0.5546620488166809,0.351511538028717,0.2595154941082001
1630932236405,0.5602453947067261,0.7033937573432922,0.4178454875946045,0.231791079044342
1630932236504,0.5278255343437195,0.8124770522117615,0.4667021334171295,0.2176149487495422
1630932236605,0.5040737986564636,0.887201726436615,0.4997097849845886,0.2077901363372802
1630932236689,0.4823571443557739,0.934966504573822,0.5272654891014099,0.1999842673540115
1630932236779,0.466026246547699,0.9702027440071106,0.5607678890228271,0.1889535933732986
1630932236900,0.4577188491821289,0.9996883869171144,0.6099908351898193,0.1658487170934677
1630932237034,0.4701199233531952,1.02549946308136,0.6732821464538574,0.1290048658847808
1630932237099,0.5269384384155273,1.0496760606765747,0.7346264123916626,0.0762199759483337
1630932237220,0.6232475638389587,1.0773242712020874,0.782380223274231,-0.001184155116789
1630932237299,0.7116022109985352,1.1085293292999268,0.8105122447013855,-0.0983527526259422
1630932237395,0.7663562297821045,1.1368392705917358,0.8204596042633057,-0.1551474630832672
1630932237486,0.786322295665741,1.154521346092224,0.8164605498313904,-0.0945257246494293
1630932237613,0.7939134240150452,1.1554707288742063,0.8007409572601318,0.0663714408874511
1630932237707,0.8030624985694885,1.1362065076828003,0.7743498086929321,0.2160223573446273
1630932237797,0.8303689956665039,1.097109079360962,0.7391371130943298,0.3211170136928558
1630932237912,0.903472363948822,1.044431447982788,0.7032239437103271,0.4006154537200928
1630932238023,0.923383891582489,0.985623300075531,0.6730610132217407,0.4675482511520386
1630932238089,0.9433935284614564,0.9290161728858948,0.6504022479057312,0.5314454436302185
1630932238240,0.9664647579193116,0.8823011517524719,0.6292543411254883,0.5924926400184631
1630932238334,0.9940102100372314,0.8407554030418396,0.5991069674491882,0.646637499332428
1630932238445,1.0231521129608154,0.801449179649353,0.5530657172203064,0.6864411234855652
1630932238529,1.108344316482544,0.7678727507591248,0.5012139678001404,0.7114740610122681
1630932238598,1.1947026252746582,0.7447861433029175,0.4751698672771454,0.7264326810836792
1630932238695,1.292127013206482,0.72611403465271,0.4967684149742126,0.7357631325721741
1630932238852,1.3790428638458252,0.7184057235717773,0.5424413681030273,0.7431595921516418
1630932238949,1.45300030708313,0.7473809719085693,0.5894802212715149,0.7495552897453308
1630932239037,1.5177488327026367,0.7073326110839844,0.6405553221702576,0.7530748844146729
1630932239130,1.5658835172653198,0.6900002360343933,0.7127981185913086,0.7558239102363586
1630932239216,1.6069114208221436,0.7000926733016968,0.740359902381897,0.7703839540481567
1630932239314,1.6479777097702026,0.7283259630203247,0.7695290446281433,0.8020246028900146
1630932239481,1.6794519424438477,0.7639064192771912,0.7995737791061401,0.8322430849075317
1630932239574,1.6794519424438477,0.8039466738700867,0.8310896754264832,0.8437957763671875
1630932239653,1.6794519424438477,0.8495982885360718,0.8661365509033203,0.8389100432395935
1630932239752,1.6794519424438477,0.9024863839149476,0.9068562984466552,0.8251727223396301
1630932239815,1.630118489265442,0.963328778743744,0.9526407122612,0.8099285960197449
1630932239937,1.5842301845550537,1.0122289657592771,0.966816782951355,0.7998816967010498
1630932240065,1.5577430725097656,1.0158216953277588,0.9553430080413818,0.7996518611907959
1630932240156,1.517730474472046,0.989538073539734,0.9127111434936525,0.8035295605659485
1630932240247,1.449001669883728,0.9320167899131776,0.8331930041313171,0.8125443458557129
1630932240356,1.3620086908340454,0.8192068934440613,0.739661693572998,0.8250172138214111
1630932240452,1.2650718688964844,0.5364806056022644,0.6569351553916931,0.8332914710044861
1630932240534,1.159397840499878,0.4999479055404663,0.5657431483268738,0.8301107883453369
1630932240685,1.0514118671417236,0.4650078117847442,0.3520342707633972,0.809539794921875
1630932240757,1.0581614971160889,0.442857027053833,0.3106669485569,0.7643364071846008
1630932240906,1.096839189529419,0.430846095085144,0.2871913611888885,0.6948302388191223
1630932240954,1.172094464302063,0.4174992442131042,0.3021246492862701,0.61910080909729
1630932241054,1.2553006410598757,0.3972299993038177,0.3443544209003448,0.5694764852523804
1630932241164,1.325180172920227,0.3720940947532654,0.38120898604393,0.5477867722511292
1630932241297,1.3656857013702393,0.3460142612457275,0.3953728675842285,0.5394627451896667
1630932241360,1.3993611335754397,0.3196806907653808,0.385178655385971,0.5313006043434143
1630932241506,1.4244922399520874,0.1966745257377624,0.3341617584228515,0.5246361494064331
1630932241588,1.448262095451355,0.1291504502296447,0.2903793752193451,0.5160247087478638
1630932241686,1.4717633724212646,0.0828267782926559,0.2583953142166137,0.5063967704772949
1630932241768,1.46427583694458,0.042234793305397,0.2432969361543655,0.4818335473537445
1630932241919,1.4498919248580933,0.0066561419516801,0.2381379306316375,0.4366878867149353
1630932241986,1.43182635307312,-0.0114965327084064,0.2307900041341781,0.3821424543857574
1630932242088,1.4135003089904783,-0.0093367705121636,0.2248424291610717,0.3376369178295135
1630932242169,1.3996819257736206,-0.0089055486023426,0.2267607152462005,0.3112567067146301
1630932242284,1.3864792585372925,-0.036812201142311,0.2333927452564239,0.3035783171653747
1630932242343,1.3571498394012451,-0.089229330420494,0.2259393185377121,0.2999084293842315
1630932242503,1.293160080909729,-0.1451591998338699,0.1848281472921371,0.2900934219360351
1630932242594,1.1830240488052368,-0.1819825172424316,0.1012653112411499,0.2730040848255157
1630932242681,1.0108637809753418,-0.1968776881694793,-0.0008271124679595,0.2601976692676544
1630932242801,0.7855323553085327,-0.2004839479923248,-0.0687514096498489,0.2517003715038299
1630932242916,0.5399246215820312,-0.1944859623908996,-0.0681075081229209,0.2445609867572784
1630932242996,0.5367459058761597,-0.1902838349342346,-0.0380239598453044,0.2274773567914962
1630932243115,0.5295546650886536,-0.1873466223478317,-0.0155610861256718,0.1986458450555801
1630932243198,0.5256658792495728,-0.18795245885849,-0.0101894428953528,0.1725246906280517
1630932243321,0.5048091411590576,-0.190767765045166,-0.0152473300695419,0.1606418937444687
1630932243394,0.5074776411056519,-0.2115319669246673,-0.0332592837512493,0.1615017205476761
1630932243490,0.5130871534347534,-0.258784532546997,-0.0556268878281116,0.1690152734518051
1630932243605,0.5074840784072876,-0.3197787404060364,-0.0755038037896156,0.1799112856388092
1630932243710,0.499706894159317,-0.360209196805954,-0.0820753723382949,0.1971798688173294
1630932243802,0.5187556147575378,-0.3657582998275757,-0.0615135543048381,0.2232767045497894
1630932243910,0.5115116834640503,-0.3652296066284179,-0.0126253860071301,0.25267493724823
1630932244005,0.5093412399291992,-0.3619884848594665,0.0496184714138507,0.2780973315238952
1630932244091,0.513361930847168,-0.3650952279567718,0.098673291504383,0.290046215057373
1630932244181,0.6287534236907959,-0.3695743680000305,0.1227267682552337,0.2809977233409881
1630932244352,0.692470371723175,-0.3736198842525482,0.1210923939943313,0.2568250894546509
1630932244424,0.7188159227371216,-0.37811279296875,0.1094553843140602,0.2281398177146911
1630932244524,0.7221701145172119,-0.3744321167469024,0.1037629023194313,0.207307755947113
1630932244606,0.7184780240058899,-0.3633878231048584,0.1036755964159965,0.2034559398889541
1630932244693,0.7153925895690918,-0.3464741706848144,0.1025716438889503,0.2185464948415756
1630932244786,0.7093896269798279,-0.3335915207862854,0.0996100977063179,0.2509776651859283
1630932244947,0.7076941132545471,-0.3263858556747436,0.1027549803256988,0.3010372817516327
1630932245041,0.71947181224823,-0.3231417536735534,0.1111882254481315,0.358489841222763
1630932245118,0.7430867552757263,-0.3249940574169159,0.1209695190191268,0.410645067691803
1630932245233,0.7673316597938538,-0.3353986144065857,0.1208805218338966,0.4466407001018524
1630932245318,0.7696175575256348,-0.3514655828475952,0.1008828207850456,0.4651805758476257
1630932245414,0.7658878564834595,-0.3513717949390411,0.0567862465977668,0.4660640060901642
1630932245553,0.7548307180404663,-0.3274787962436676,-0.0091933105140924,0.4562069177627563
1630932245632,0.7402735948562622,-0.2799300849437713,-0.0765614882111549,0.4472614526748657
1630932245728,0.6751824617385864,-0.2259576171636581,-0.1322235018014907,0.4415302574634552
1630932245809,0.6259384155273438,-0.1765877306461334,-0.1749765127897262,0.4402300715446472
1630932245925,0.5976256132125854,-0.1354137361049652,-0.2189708650112152,0.4442634284496307
1630932246014,0.5883272290229797,-0.1040464267134666,-0.2667306661605835,0.4465701282024383
1630932246179,0.5836562514305115,-0.0835437253117561,-0.3063024580478668,0.4468026459217071
1630932246240,0.5688738226890564,-0.0771262720227241,-0.3333898782730102,0.4440347552299499
1630932246333,0.5471016764640808,-0.0762868821620941,-0.3571755886077881,0.432583212852478
1630932246429,0.517449676990509,-0.0768796503543853,-0.3922288417816162,0.4036037921905517
1630932246532,0.4804109036922455,-0.073659710586071,-0.4296292662620544,0.3566162884235382
1630932246652,0.4402625262737274,-0.0669590756297111,-0.4546780288219452,0.2999225556850433
1630932246802,0.3956123888492584,-0.0559029728174209,-0.4514590799808502,0.2515995800495147
1630932246866,0.3626804649829864,-0.0365212708711624,-0.4283051788806915,0.2247772365808487
1630932246959,0.3597306907176971,-0.0138774644583463,-0.4029971659183502,0.2333748936653137
1630932247065,0.3877407610416412,0.0007357402937486,-0.3867802321910858,0.2690407931804657
1630932247168,0.4268913865089416,-0.0006084337946958,-0.3812499046325683,0.3120373785495758
1630932247250,0.4546360373497009,-0.0181279461830854,-0.3812166750431061,0.3523168563842773
1630932247376,0.4597880840301513,-0.0459992475807666,-0.3816274106502533,0.3838623166084289
1630932247503,0.4506150484085083,-0.0770735144615173,-0.3823703825473785,0.4048991203308105
1630932247567,0.4424376189708709,-0.1078293994069099,-0.3820240199565887,0.4227496087551117
1630932247668,0.4400752484798431,-0.1379855871200561,-0.3716791570186615,0.4346782565116882
1630932247754,0.4437430799007416,-0.1659245193004608,-0.3307602703571319,0.4377368092536926
1630932247839,0.4484423398971557,-0.1933173686265945,-0.2636041045188904,0.4349411725997925
1630932247995,0.4533089995384216,-0.2188088744878769,-0.2009899467229843,0.4336802065372467
1630932248083,0.45414799451828,-0.2443946152925491,-0.1711224168539047,0.440630167722702
1630932248171,0.4497807025909424,-0.2712258100509643,-0.1765270978212356,0.4635353684425354
1630932248293,0.443407267332077,-0.3030220568180084,-0.2029601633548736,0.5025587677955627
1630932248379,0.4293221533298492,-0.3482632637023926,-0.2221961319446563,0.5426803231239319
1630932248496,0.3964141011238098,-0.4072783887386322,-0.2206469029188156,0.5669573545455933
1630932248579,0.3398250341415405,-0.4633693993091583,-0.1865921914577484,0.5712329149246216
1630932248699,0.2644244730472564,-0.4879515469074249,-0.1288625001907348,0.5600011944770813
1630932248787,0.1940826475620269,-0.4761505424976349,-0.0691768527030944,0.5423973202705383
1630932248881,0.153082400560379,-0.4482481479644775,-0.02661351300776,0.5230289697647095
1630932248960,0.1383645832538604,-0.4288600981235504,-0.0078657930716872,0.5013108253479004
1630932249094,0.139092206954956,-0.4131039977073669,0.0001579171948833,0.4792393445968628
1630932249198,0.1415690332651138,-0.1593799144029617,0.0164212491363286,0.4807253777980804
1630932249336,0.152791291475296,-0.1357387006282806,0.0650715306401252,0.4894615411758423
1630932249409,0.1711899489164352,-0.1081940308213234,0.1906922906637191,0.5071887969970703
1630932249496,0.1866906434297561,-0.0781478434801101,0.3767948746681213,0.5302244424819946
1630932249604,0.1994447857141494,-0.0458232946693897,0.5490003228187561,0.5514493584632874
1630932249673,0.2028936594724655,-0.0106744160875678,0.6820228099822998,0.5562900304794312
1630932249808,0.1852166801691055,0.0270416252315044,0.7967290878295898,0.5269739031791687
1630932249919,0.1465943306684494,0.0678337663412094,0.8248730897903442,0.4588777720928192
1630932250007,0.1115377023816108,0.1096469387412071,0.8541504144668579,0.3685711324214935
1630932250076,0.097202643752098,0.1500116735696792,0.8832625150680542,0.2794833183288574
1630932250198,0.1099344491958618,0.1889074444770813,0.9123892188072203,0.2085140496492386
1630932250297,0.1099344491958618,0.2347946017980575,0.9440666437149048,0.2085140496492386
1630932250414,0.1099344491958618,0.2347946017980575,0.9820806980133056,0.2085140496492386
1630932250507,0.1099344491958618,0.2347946017980575,1.029388666152954,0.2085140496492386
1630932250599,0.1099344491958618,0.2347946017980575,1.0852220058441162,0.2085140496492386
1630932250683,0.1099344491958618,0.2347946017980575,1.1475111246109009,0.2085140496492386
1630932250789,0.1099344491958618,0.2347946017980575,1.2127121686935425,0.6840488910675049
1630932250897,0.1099344491958618,0.2347946017980575,1.2693939208984375,0.687389612197876
1630932251039,0.1099344491958618,0.2347946017980575,1.2693939208984375,0.7390649914741516
1630932251129,0.1099344491958618,0.2347946017980575,1.2693939208984375,0.7994956970214844
1630932251233,0.1099344491958618,0.2347946017980575,1.2693939208984375,0.8514297008514404
1630932251300,0.1099344491958618,0.2347946017980575,1.2693939208984375,0.8834202885627747
1630932251396,0.1099344491958618,0.2347946017980575,1.2693939208984375,0.9116413593292236
1630932251484,0.1099344491958618,0.2347946017980575,0.6348209381103516,0.9459851980209352
1630932251640,0.1099344491958618,1.0319145917892456,0.7091105580329895,0.9808133840560912
1630932251736,0.1099344491958618,0.9918628931045532,0.7456303238868713,0.999448537826538
1630932251821,0.1099344491958618,0.940083384513855,0.7450243234634399,1.0002268552780151
1630932251946,0.1099344491958618,0.8847395181655884,0.7200989723205566,1.0002268552780151
1630932251995,0.1099344491958618,0.8349046111106873,0.7020768523216248,1.0084751844406128
1630932252125,0.1099344491958618,0.7996295094490051,0.7207685112953186,1.0264815092086792
1630932252261,0.1099344491958618,0.7848952412605286,0.7767623662948608,1.052314043045044
1630932252330,0.1099344491958618,0.7933804392814636,0.8387010097503662,1.081882119178772
1630932252423,0.1099344491958618,0.8099595904350281,0.8780369162559509,1.109207034111023
1630932252532,0.1099344491958618,0.8294677734375,0.8933437466621399,1.126989722251892
1630932252619,0.1099344491958618,0.8560177087783813,0.8886313438415527,1.1369802951812744
1630932252731,0.1099344491958618,0.8560177087783813,0.896307110786438,1.1422367095947266
1630932252847,0.1099344491958618,0.8455883264541626,0.9024009108543396,1.1538840532302856
1630932252952,0.1099344491958618,0.8239525556564331,0.9077198505401612,1.1649644374847412
1630932253039,0.1099344491958618,0.7878379821777344,0.9046316742897034,1.1649644374847412
1630932253132,0.1099344491958618,0.7592534422874451,0.8913660049438477,1.1649644374847412
1630932253216,0.1099344491958618,0.7569182515144348,0.8717960119247437,1.1649644374847412
1630932253334,0.1099344491958618,0.7802043557167053,0.8553434610366821,1.1649644374847412
1630932253472,0.1099344491958618,0.8252610564231873,0.846882164478302,1.1649644374847412
1630932253590,0.1099344491958618,0.8826610445976257,0.8357571959495544,1.1649644374847412
1630932253657,0.1099344491958618,0.8698994517326355,0.8054500818252563,1.1649644374847412
1630932253760,0.1099344491958618,0.8316161036491394,0.7424500584602356,1.1649644374847412
1630932253852,0.1099344491958618,0.7488794326782227,0.6456766128540039,1.1649644374847412
1630932253931,0.1099344491958618,0.6175944805145264,0.536331057548523,1.1649644374847412
1630932254066,0.1099344491958618,0.3951419293880462,0.4365485310554504,1.1649644374847412
1630932254154,0.1099344491958618,-0.366895467042923,0.371031105518341,1.1649644374847412
1630932254249,0.1099344491958618,-0.3716058135032654,0.3296073675155639,0.0234715919941663
1630932254334,0.2588796019554138,-0.3831955790519714,0.2749879956245422,0.1244075074791908
1630932254470,0.2361456304788589,-0.4045968949794769,0.1824012547731399,0.2083515673875808
1630932254538,0.2337047308683395,-0.4319818913936615,0.0671833083033561,0.2899664342403412
1630932254697,0.2658250629901886,-0.4585710167884826,-0.0372744277119636,0.3644269704818725
1630932254763,0.2997818887233734,-0.4809130430221557,-0.100640520453453,0.4157186150550842
1630932254900,0.3198201656341553,-0.4896592497825622,-0.1282327771186828,0.4355014264583587
1630932254965,0.3264199197292328,-0.4843524396419525,-0.1461385637521743,0.4341107010841369
1630932255071,0.3228037655353546,-0.4600126445293426,-0.1479944586753845,0.4217025637626648
1630932255156,0.3146134316921234,-0.4569906294345855,-0.1331896483898162,0.4028229713439941
1630932255299,0.3021692335605621,-0.4305239915847778,-0.1095123440027237,0.3840762674808502
1630932255387,0.2894803881645202,-0.4051345288753509,-0.0813751295208931,0.3663110733032226
1630932255500,0.2833611071109772,-0.3847042620182037,-0.0507385917007923,0.3730004727840423
1630932255593,0.2903186380863189,-0.3682099878787994,-0.0258076023310422,0.3774799406528473
1630932255665,0.2971381843090057,-0.3509554862976074,-0.0069763888604938,0.3802680671215057
1630932255761,0.3115325272083282,-0.3299313485622406,0.0025398796424269,0.3757869303226471
1630932255887,0.3492830395698547,-0.3100523650646209,0.0017255638958886,0.3615304231643677
1630932256020,0.4018013775348663,-0.2957170307636261,-0.0040721669793128,0.3379209041595459
1630932256083,0.4484583735466003,-0.287873238325119,-0.0104201091453433,0.2987457513809204
1630932256173,0.4764740765094757,-0.2861238420009613,-0.0157956462353467,0.2454288899898529
