timestamp,TP9,AF7,AF8,TP10
1630932113030,0.4426703453063965,0.2747171521186828,0.4429608285427093,0.29692542552948
1630932113191,0.4426703453063965,0.2747171521186828,0.4429608285427093,0.29692542552948
1630932113233,0.4426703453063965,0.2747171521186828,0.4429608285427093,0.29692542552948
1630932113371,0.4426703453063965,0.2747171521186828,0.4429608285427093,0.29692542552948
1630932113500,0.4426703453063965,0.2747171521186828,0.4429608285427093,0.29692542552948
1630932113549,0.4426703453063965,0.2747171521186828,0.4429608285427093,0.29692542552948
1630932113665,0.4426703453063965,0.2747171521186828,0.4429608285427093,0.29692542552948
1630932113748,0.4426703453063965,0.2747171521186828,0.4429608285427093,0.29692542552948
1630932113905,0.4426703453063965,0.2747171521186828,0.4429608285427093,0.29692542552948
1630932113952,0.4426703453063965,0.2466670274734497,0.4429608285427093,0.29692542552948
1630932114103,0.4426703453063965,0.18998384475708,0.4429608285427093,0.29692542552948
1630932114191,0.4426703453063965,0.1486916095018386,0.4429608285427093,0.29692542552948
1630932114262,0.4426703453063965,0.0370148494839668,0.4429608285427093,0.29692542552948
1630932114557,0.4426703453063965,-0.0612206123769283,0.4429608285427093,0.29692542552948
1630932114620,0.4426703453063965,-0.1542863994836807,0.4429608285427093,0.29692542552948
1630932114690,0.4426703453063965,-0.1703728288412094,0.4429608285427093,0.4391680955886841
1630932114773,0.4426703453063965,-0.1924403756856918,0.4429608285427093,0.4660122096538543
1630932114782,0.4426703453063965,-0.2155397534370422,0.4429608285427093,0.4970590472221374
1630932114865,0.4426703453063965,-0.2349379658699035,0.4429608285427093,0.5273415446281433
1630932115035,0.4426703453063965,-0.2483359426259994,0.4429608285427093,0.5471726655960083
1630932115290,0.4426703453063965,-0.2583856880664825,0.4429608285427093,0.5471726655960083
1630932115442,0.4426703453063965,-0.2694772481918335,0.4429608285427093,0.5424611568450928
1630932115525,0.4426703453063965,-0.2838951051235199,0.4429608285427093,0.5380298495292664
1630932115536,0.4426703453063965,-0.3001949191093445,0.4429608285427093,0.5403059720993042
1630932115651,0.4426703453063965,-0.3290097415447235,0.1935739070177078,0.5464726090431213
1630932115813,0.4426703453063965,-0.3575118780136108,0.1877988278865814,0.5500058531761169
1630932115849,0.4426703453063965,-0.3867807984352112,0.1823349744081497,0.5473682284355164
1630932115874,0.4426703453063965,-0.4173802435398102,0.174331709742546,0.552066445350647
1630932116053,0.4426703453063965,-0.4468677341938019,0.1631701737642288,0.5523015856742859
1630932116099,0.4426703453063965,-0.46954545378685,0.1507674306631088,0.5613446831703186
1630932116184,0.4426703453063965,-0.48037850856781,0.1411289125680923,0.5905144214630127
1630932116211,0.4426703453063965,-0.4778693914413452,0.1377516239881515,0.6335773468017578
1630932116374,0.4426703453063965,-0.4654514193534851,0.1387908309698104,0.6707225441932678
1630932116391,0.4426703453063965,-0.4517247974872589,0.1396246254444122,0.6887003183364868
1630932116662,0.4426703453063965,-0.445039838552475,0.1383708119392395,0.690114438533783
1630932116719,0.4426703453063965,-0.4463299214839935,0.1375323683023452,0.6816210746765137
1630932116854,0.4426703453063965,-0.4494572281837463,0.1314432471990585,0.6919664144515991
1630932117048,0.4426703453063965,-0.4460232555866241,0.1290797293186187,0.7039334177970886
1630932117155,0.4426703453063965,-0.4326111078262329,0.1266938894987106,0.7138819694519043
1630932117284,0.4426703453063965,-0.4113620221614837,0.1206007972359657,0.7222650051116943
1630932117421,0.4426703453063965,-0.3871777057647705,0.1128253862261772,0.7067788243293762
1630932117464,0.4426703453063965,-0.3665652275085449,0.1092976406216621,0.6946566700935364
1630932117507,0.4426703453063965,-0.3521495461463928,0.1138693839311599,0.6884177923202515
1630932117640,0.5480016469955444,-0.3409501016139984,0.1263714432716369,0.6861990094184875
1630932117739,0.5409032106399536,-0.3284789323806762,0.1418423652648925,0.6781243681907654
1630932117781,0.53163743019104,-0.3146331906318664,0.1535465866327285,0.6502017378807068
1630932117868,0.5210870504379272,-0.302850991487503,0.1559647768735885,0.5966225266456604
1630932117934,0.5079629421234131,-0.2942090630531311,0.1482109427452087,0.531665027141571
1630932117987,0.4924082159996032,-0.2856427431106567,0.1481181979179382,0.4872404038906097
1630932118029,0.4775035083293915,-0.2751248180866241,0.1500829458236694,0.4794250428676605
1630932118129,0.464828222990036,-0.2644716203212738,0.1520606130361557,0.4881224930286407
1630932118334,0.4445002675056457,-0.2543447911739349,0.1648067235946655,0.4886110723018646
1630932118598,0.4445002675056457,-0.2586171329021454,0.1975982785224914,0.4886110723018646
1630932118783,0.4370877742767334,-0.2591639757156372,0.2047182619571685,0.5027139186859131
1630932118913,0.4238597452640533,-0.2523421049118042,0.206753522157669,0.5206527709960938
1630932118928,0.4070261120796203,-0.2381005883216858,0.2055939137935638,0.5396167635917664
1630932119160,0.3711830377578735,-0.2184810042381286,0.1818059235811233,0.5623051524162292
1630932119162,0.3891767561435699,-0.2240139693021774,0.1981945782899856,0.554779052734375
1630932119300,0.3527467548847198,-0.2230388075113296,0.1585557907819748,0.5635609030723572
1630932119379,0.3338048756122589,-0.2341558188199997,0.1367343217134475,0.5646783113479614
1630932119428,0.3185462653636932,-0.2490008175373077,0.126466155052185,0.5671637058258057
1630932119537,0.3123154640197754,-0.2673914730548858,0.1149251610040664,0.5620853304862976
1630932119653,0.3123154640197754,-0.2881578207015991,0.108691930770874,0.5620853304862976
1630932119821,0.3123154640197754,-0.3066965341567993,0.1038199737668037,0.5620853304862976
1630932119972,0.3123154640197754,-0.3197308480739593,0.0934000685811042,0.5620853304862976
1630932120043,0.3123154640197754,-0.3271439969539642,0.0656458809971809,0.5620853304862976
1630932120134,0.3123154640197754,-0.3324147164821625,0.0278498772531747,0.5620853304862976
1630932120192,0.3123154640197754,-0.3393000662326813,-0.0081570260226726,0.5620853304862976
1630932120279,0.3123154640197754,-0.3482768833637237,-0.0222390387207269,0.5620853304862976
1630932120328,0.3123154640197754,-0.3555310368537903,-0.0368376113474369,0.5620853304862976
1630932120466,0.3123154640197754,-0.3568771481513977,-0.0595285594463348,0.5620853304862976
1630932120483,0.3123154640197754,-0.3520647287368774,-0.0857881903648376,0.5620853304862976
1630932120604,0.3123154640197754,-0.3436671197414398,-0.1015555113554,0.5620853304862976
1630932120621,0.3123154640197754,-0.3329135179519653,-0.115957573056221,0.5620853304862976
1630932120752,0.3123154640197754,-0.3186036050319671,-0.1236836314201355,0.5620853304862976
1630932120876,0.3123154640197754,-0.3001628220081329,-0.1403406858444214,0.5620853304862976
1630932120975,0.3123154640197754,-0.2790653109550476,-0.1734718084335327,0.5620853304862976
1630932121237,0.3123154640197754,-0.2565410733222961,-0.2221156656742096,0.5620853304862976
1630932121261,0.3123154640197754,-0.2352377027273178,-0.2806903123855591,0.5620853304862976
1630932121329,0.3123154640197754,-0.2086931020021438,-0.3736369609832763,0.5620853304862976
1630932121353,0.3123154640197754,-0.2181316018104553,-0.3385721743106842,0.5620853304862976
1630932121445,0.3123154640197754,-0.2076594233512878,-0.366421490907669,0.5620853304862976
1630932121648,0.3123154640197754,-0.2126340419054031,-0.3279598653316498,0.5620853304862976
1630932121762,0.3123154640197754,-0.2226552367210388,-0.2886915206909179,0.5620853304862976
1630932121815,0.3123154640197754,-0.239497423171997,-0.2626770734786987,0.5620853304862976
1630932121878,0.3123154640197754,-0.2614108026027679,-0.2477600127458572,0.5620853304862976
1630932122094,0.3123154640197754,-0.2789531648159027,-0.2410020530223846,0.5620853304862976
1630932122178,0.3123154640197754,-0.2966791689395904,-0.2397031933069229,0.5620853304862976
1630932122227,0.3123154640197754,-0.3098428845405578,-0.2352707087993621,0.5620853304862976
1630932122316,0.3123154640197754,-0.3213006556034088,-0.2286961823701858,0.5620853304862976
1630932122427,0.3123154640197754,-0.3363553583621979,-0.2219077795743942,0.5620853304862976
1630932122523,0.3123154640197754,-0.3578067421913147,-0.2165361791849136,0.5620853304862976
1630932122566,0.3123154640197754,-0.3794474303722381,-0.2120167165994644,0.5620853304862976
1630932122694,0.3123154640197754,-0.4050749242305755,-0.2068896144628524,0.5620853304862976
1630932122784,0.3123154640197754,-0.4222505986690521,-0.2029251605272293,0.5620853304862976
1630932122947,0.3123154640197754,-0.3809174001216888,-0.2109707146883011,0.5620853304862976
1630932122976,0.3123154640197754,-0.4152370393276214,-0.2034288495779037,0.5620853304862976
1630932123084,0.3123154640197754,-0.3330212831497192,-0.2244029343128204,0.5620853304862976
1630932123210,0.3123154640197754,-0.2881208956241607,-0.2415951341390609,0.5620853304862976
1630932123322,0.3123154640197754,-0.2553470134735107,-0.2596981227397918,0.5620853304862976
1630932123509,0.3123154640197754,-0.2400263398885727,-0.2766768932342529,0.802056074142456
1630932123525,0.3123154640197754,-0.2446916103363037,-0.2899112701416015,0.7751707434654236
1630932123617,0.3123154640197754,-0.2529907524585724,-0.2982628941535949,0.7444012761116028
1630932123751,0.3123154640197754,-0.2607766985893249,-0.3031798601150512,0.7149497866630554
1630932123780,0.3123154640197754,-0.2646509110927582,-0.3070549368858337,0.6901902556419373
1630932123933,0.3123154640197754,-0.2627919614315033,-0.3085340559482574,0.6703193783760071
1630932124111,0.3123154640197754,-0.2554905712604522,-0.301911860704422,0.651896059513092
1630932124153,0.3123154640197754,-0.2407545149326324,-0.2798364460468292,0.63165682554245
1630932124214,0.5114488005638123,-0.2228100299835205,-0.243696928024292,0.6103683114051819
1630932124344,0.5114488005638123,-0.2085729837417602,-0.2038844674825668,0.5916404724121094
1630932124441,0.5114488005638123,-0.2051218748092651,-0.1708099991083145,0.5791215896606445
1630932124502,0.5114488005638123,-0.2141255587339401,-0.1435332149267196,0.5729689598083496
1630932124664,0.5114488005638123,-0.2310628741979599,-0.1127551048994064,0.5471938848495483
1630932124808,0.5114488005638123,-0.2472347319126129,-0.0743766874074935,0.5147338509559631
1630932124809,0.5114488005638123,-0.2545310258865356,-0.0337233357131481,0.4797421395778656
1630932124920,0.5114488005638123,-0.2502935826778412,0.0014402917586266,0.4465161561965942
1630932125002,0.5114488005638123,-0.2393603920936584,0.0298124738037586,0.4202488958835602
1630932125116,0.5114488005638123,-0.2286094278097152,0.0473443381488323,0.4037736356258392
1630932125280,0.5114488005638123,-0.2208986133337021,0.066334456205368,0.3935920894145965
1630932125387,0.5114488005638123,-0.213510125875473,0.087407000362873,0.3831251859664917
1630932125409,0.5114488005638123,-0.1985008716583252,0.110757477581501,0.3675249516963959
1630932125507,0.5114488005638123,-0.2010433375835418,0.1341780424118042,0.3521351516246795
1630932125590,0.5114488005638123,-0.2088993787765503,0.1530391424894333,0.3526394069194793
1630932125771,0.5114488005638123,-0.2203077375888824,0.1649675220251083,0.3526394069194793
1630932125848,0.5114488005638123,-0.2302975356578827,0.1738641113042831,0.3526394069194793
1630932125995,0.5114488005638123,-0.2310063540935516,0.1865876019001007,0.3526394069194793
1630932126127,0.5114488005638123,-0.2188371419906616,0.2040257006883621,0.3526394069194793
1630932126270,0.5114488005638123,-0.1973645836114883,0.2162491828203201,0.3526394069194793
1630932126301,0.5114488005638123,-0.1745181530714035,0.2162491828203201,0.3526394069194793
1630932126379,0.5114488005638123,-0.1582279950380325,0.2162491828203201,0.3526394069194793
1630932126606,0.5114488005638123,-0.1527888923883438,0.2162491828203201,0.3526394069194793
1630932126691,0.5114488005638123,-0.1542097330093383,0.2162491828203201,0.3526394069194793
1630932126739,0.5114488005638123,-0.1542097330093383,0.2162491828203201,0.3526394069194793
1630932126769,0.5114488005638123,-0.1542097330093383,0.2162491828203201,0.3526394069194793
1630932126855,0.5114488005638123,-0.1542097330093383,0.2162491828203201,0.3526394069194793
1630932126908,0.5114488005638123,-0.1542097330093383,0.2162491828203201,0.3526394069194793
1630932127130,0.4863015711307525,-0.1542097330093383,0.2162491828203201,0.3526394069194793
1630932127227,0.5022343993186951,-0.1542097330093383,0.2162491828203201,0.357553631067276
1630932127328,0.5032011270523071,-0.1542097330093383,0.2162491828203201,0.3236550986766815
1630932127386,0.4877123832702636,0.1937850564718246,0.2162491828203201,0.3227638304233551
1630932127420,0.4639152884483337,0.1781859248876571,0.2162491828203201,0.3514991104602813
1630932127552,0.4430174827575683,0.1619196534156799,0.2162491828203201,0.3940297067165375
1630932127694,0.4318816661834717,0.1440924853086471,0.2162491828203201,0.4337242543697357
1630932127820,0.4316444098949432,0.1256567984819412,0.2162491828203201,0.4604015052318573
1630932127854,0.4384163320064544,0.1085041314363479,0.2162491828203201,0.4717119932174682
1630932127980,0.4469251632690429,0.0971157327294349,0.2162491828203201,0.4705967009067535
1630932128029,0.4526293873786926,0.0965606868267059,0.2162491828203201,0.4619764685630798
1630932128227,0.4528248012065887,0.107145719230175,0.2162491828203201,0.4512389600276947
1630932128264,0.4457978904247284,0.1224602088332176,0.2162491828203201,0.4431566596031189
1630932128340,0.4341204464435577,0.136576771736145,0.2162491828203201,0.4269725978374481
1630932128481,0.4176105856895447,0.1469719856977462,0.2162491828203201,0.4322205185890198
1630932128606,0.3960256576538086,0.1470841616392135,0.2162491828203201,0.4504154026508331
1630932128659,0.3733267486095428,0.1478389054536819,0.2162491828203201,0.4704596996307373
1630932128812,0.3570563495159149,0.1507376581430435,0.2162491828203201,0.4851995706558227
1630932128903,0.3536181151866913,0.159665897488594,0.2162491828203201,0.4919571280479431
1630932128996,0.3609233498573303,0.1765804290771484,0.2162491828203201,0.4915706217288971
1630932129040,0.3699978291988373,0.2012709677219391,0.2162491828203201,0.4880793988704681
1630932129147,0.3736335337162018,0.2313813716173172,0.2162491828203201,0.485132098197937
1630932129256,0.3691258728504181,0.2625641226768493,0.2162491828203201,0.4840763211250305
1630932129370,0.3590278923511505,0.2886154949665069,0.2162491828203201,0.485856294631958
1630932129559,0.3467049896717071,0.3038817048072815,0.2162491828203201,0.4895374774932861
1630932129634,0.3341047465801239,0.3065136075019836,0.2162491828203201,0.4956587255001068
1630932129691,0.323891282081604,0.299206793308258,0.2162491828203201,0.5069262981414795
1630932129780,0.3189184665679931,0.2863815426826477,0.2162491828203201,0.5240830779075623
1630932129937,0.3215149641036987,0.2716186344623565,0.2162491828203201,0.5425797700881958
1630932129959,0.3328717947006225,0.2583606541156769,0.2162491828203201,0.553344190120697
1630932130158,0.3523300588130951,0.2505644857883453,0.2162491828203201,0.5517753958702087
1630932130197,0.377537190914154,0.2501283884048462,0.2162491828203201,0.5418859720230103
1630932130290,0.4049261510372162,0.2518424987792969,0.2162491828203201,0.5314536690711975
1630932130381,0.4296749234199524,0.2467703223228454,0.2162491828203201,0.5256959199905396
1630932130475,0.4473395645618438,0.2292199432849884,0.2162491828203201,0.525636613368988
1630932130694,0.4564295411109924,0.1987170428037643,0.2162491828203201,0.5306846499443054
1630932130740,0.4590438306331634,0.1598620265722274,0.2162491828203201,0.5389816164970398
1630932130801,0.4581235349178314,0.1194834932684898,0.2162491828203201,0.5467879772186279
1630932130892,0.4550228118896484,0.0857220739126205,0.2162491828203201,0.549400806427002
1630932131031,0.4518891274929046,0.0631519109010696,0.2162491828203201,0.5464730262756348
1630932131128,0.4527592360973358,0.0505863465368747,0.2162491828203201,0.5522686243057251
1630932131182,0.4598583281040191,0.0456907264888286,0.3604346215724945,0.5562376379966736
1630932131316,0.4706554710865021,0.0503001771867275,0.3472158908843994,0.5523250699043274
1630932131407,0.4822349548339844,0.0633730590343475,0.3331277072429657,0.5403361916542053
1630932131585,0.4903339743614197,0.0769881606101989,0.3257942497730255,0.5306189656257629
1630932131609,0.4909360408782959,0.08122069388628,0.3292185664176941,0.5356937646865845
1630932131732,0.4816388785839081,0.0730993971228599,0.3378795981407165,0.5577465891838074
1630932131925,0.4618394076824188,0.0595018975436687,0.3450994789600372,0.5892015695571899
1630932131970,0.4332997500896454,0.0506361909210681,0.3512450158596039,0.6207401752471924
1630932132104,0.4024966359138489,0.0519651100039482,0.3614307343959808,0.6433281302452087
1630932132203,0.3798815011978149,0.0628761053085327,0.3764377534389496,0.6454810500144958
1630932132264,0.3715508282184601,0.0794806182384491,0.3926854729652405,0.6454810500144958
1630932132380,0.3771969676017761,0.101046897470951,0.4074879884719848,0.6454810500144958
1630932132435,0.3771969676017761,0.1282841712236404,0.4223487973213196,0.6454810500144958
1630932132528,0.3771969676017761,0.1592470407485962,0.436286449432373,0.6454810500144958
1630932132729,0.3771969676017761,0.1869832426309585,0.4414882361888885,0.6454810500144958
1630932132782,0.3771969676017761,0.1992149204015731,0.4488623142242431,0.6454810500144958
1630932132846,0.3771969676017761,0.2075097113847732,0.4598156809806824,0.6454810500144958
1630932132930,0.3771969676017761,0.2103797048330307,0.4744186699390411,0.6454810500144958
1630932132995,0.3771969676017761,0.2115022987127304,0.4898778796195984,0.6454810500144958
1630932133150,0.3771969676017761,0.2162923663854599,0.5027732849121094,0.6454810500144958
1630932133312,0.2042269855737686,0.2269059270620346,0.5139133930206299,0.6454810500144958
1630932133387,0.217225432395935,0.2422578334808349,0.5274412035942078,0.6454810500144958
1630932133453,0.2415566444396972,0.2620662450790405,0.5444636940956116,0.6454810500144958
1630932133603,0.2743186056613922,0.2881157994270324,0.5595390200614929,0.6454810500144958
1630932133665,0.3018821477890014,0.3201647400856018,0.5677814483642578,0.6454810500144958
1630932133852,0.3167729079723358,0.2832629382610321,0.5677814483642578,0.6454810500144958
1630932133984,0.3221471011638641,0.2163999825716018,0.5677814483642578,0.6454810500144958
1630932134048,0.3245168924331665,0.101301297545433,0.5677814483642578,0.6454810500144958
1630932134115,0.3276758193969726,-0.0822476521134376,0.5677814483642578,0.6454810500144958
1630932134252,0.3305946290493011,-0.3626063764095306,0.5677814483642578,0.5855517387390137
1630932134289,0.3305946290493011,-0.3657140135765075,0.5677814483642578,0.579724133014679
1630932134340,0.3305946290493011,-0.3587947189807892,0.5677814483642578,0.5709245800971985
1630932134521,0.3392737805843353,-0.3502540588378906,0.5677814483642578,0.5728104710578918
1630932134653,0.3641599416732788,-0.357061505317688,0.5677814483642578,0.5925145745277405
1630932134664,0.35178142786026,-0.3491755723953247,0.5677814483642578,0.5925145745277405
1630932134744,0.3767798542976379,-0.3687542080879211,0.5677814483642578,0.5925145745277405
1630932134832,0.3888667523860931,-0.3777809143066406,0.5677814483642578,0.5925145745277405
1630932135230,0.3946353197097778,-0.3801064193248749,0.5677814483642578,0.5925145745277405
1630932135267,0.3881815969944,-0.3756327927112579,0.5677814483642578,0.592893123626709
1630932135513,0.3729179501533508,-0.3696537017822265,0.5677814483642578,0.5832486748695374
1630932135579,0.3601732552051544,-0.3749577403068542,0.5677814483642578,0.5691949129104614
1630932135688,0.3601732552051544,-0.3798150718212127,0.5677814483642578,0.5607724189758301
1630932135900,0.3601732552051544,-0.3866311907768249,0.5677814483642578,0.5465244054794312
1630932136140,0.3601732552051544,-0.3965039253234863,0.5677814483642578,0.5262420773506165
1630932136181,0.3601732552051544,-0.409829318523407,0.5677814483642578,0.5056011080741882
1630932136181,0.3601732552051544,-0.4283033013343811,0.5677814483642578,0.490716278553009
1630932136219,0.5028728246688843,-0.4793071150779724,0.5677814483642578,0.4717848598957062
1630932136227,0.3601732552051544,-0.452827900648117,0.5677814483642578,0.4822869598865509
1630932136258,0.469458132982254,-0.2607775628566742,0.5677814483642578,0.5102251768112183
1630932136311,0.469458132982254,-0.2665552198886871,0.5677814483642578,0.5102251768112183
1630932136322,0.469458132982254,-0.2683911025524139,0.5677814483642578,0.5102251768112183
1630932136378,0.469458132982254,-0.2709090709686279,-0.5428561568260193,0.5102251768112183
1630932136513,0.469458132982254,-0.2778747975826263,-0.5081055164337158,0.5102251768112183
1630932136690,0.469458132982254,-0.2884309589862823,-0.4329023361206054,0.5006482005119324
1630932136757,0.469458132982254,-0.2960019707679748,-0.3569080531597137,0.5023316144943237
1630932136982,0.469458132982254,-0.2951834797859192,-0.3039453029632568,0.5139650106430054
1630932137072,0.469458132982254,-0.1179910451173782,0.0148355476558208,0.5296356678009033
1630932137107,0.469458132982254,-0.1098270267248153,0.0055583636276423,0.5471597909927368
1630932137228,0.469458132982254,-0.1002409532666206,-0.0007824797648936,0.5716440081596375
1630932137273,0.4941929578781128,-0.0871912613511085,-0.0060629956424236,0.6095489859580994
1630932137313,0.4941929578781128,-0.0696603059768676,-0.0126416804268956,0.6095489859580994
1630932137456,0.4941929578781128,-0.0500326976180076,-0.0203027073293924,0.6095489859580994
1630932137513,0.4941929578781128,-0.0318662896752357,-0.0280030108988285,0.6095489859580994
1630932137764,0.1910864263772964,-0.1207260638475418,-0.0072879497893154,0.5197162628173828
1630932137765,0.4941929578781128,-0.1369033902883529,-0.0174041483551263,0.6095489859580994
1630932137790,0.2051482051610946,-0.105475477874279,0.0043538738973438,0.5041710734367371
1630932137905,0.2326639145612716,-0.0884742960333824,0.0158890411257743,0.5016006231307983
1630932138027,0.2566185891628265,-0.0680329501628875,0.022252382710576,0.508069634437561
1630932138122,0.2699989080429077,-0.0453090630471706,0.0202199015766382,0.5123695731163025
1630932138233,0.2744142413139343,-0.0235016047954559,0.0123068848624825,0.5110694169998169
1630932138304,0.2746598720550537,-0.0066625652834773,0.005044505931437,0.5063744187355042
1630932138453,0.2738174796104431,-0.1180755943059921,-0.1537366807460785,0.5014121532440186
1630932138602,0.2743269801139831,-0.1144629493355751,-0.1595612317323684,0.496453583240509
1630932138755,0.2820218205451965,-0.1254584938287735,-0.1780093014240265,0.4827901422977447
1630932138781,0.2769970893859863,-0.1179529801011085,-0.1691086590290069,0.4904143512248993
1630932138816,0.2902292013168335,-0.1330934762954712,-0.1762622594833374,0.4733210504055023
1630932139018,0.3032466769218445,-0.1348907649517059,-0.1598836630582809,0.4556865394115448
1630932139105,0.3232346177101135,-0.126740351319313,-0.1307031810283661,0.4348373711109161
1630932139352,0.3469716012477875,-0.1119067594408989,-0.0955272316932678,0.4149471223354339
1630932139400,0.3659237921237945,-0.098226711153984,-0.089576169848442,0.4008168280124664
1630932139604,0.3734390139579773,-0.0920059606432914,-0.0830648615956306,0.3909415304660797
1630932139610,0.3574309647083282,-0.1054518073797226,-0.0665784478187561,0.366662859916687
1630932139610,0.3690947592258453,-0.0945847034454345,-0.0760623589158058,0.3811194002628326
1630932145116,0.0,0.0,0.0,0.0
1630932145180,0.0,0.0,0.0,0.0
1630932145289,0.0,0.0,0.0,0.0
1630932145384,0.0,0.0,0.0,0.0
1630932145470,0.0,0.0,0.0,0.0
1630932145627,0.0,0.0,0.0,0.0
1630932145699,0.0,0.0,0.0,0.0
1630932145785,0.0,0.0,0.0,0.0
1630932145871,0.0,0.0,0.0,0.0
1630932145964,0.0,0.0,0.0,0.0
1630932146053,0.0,0.0,0.0,0.0
1630932146206,0.0,0.0,0.0,0.0
1630932146323,0.0,0.0,0.0,0.0
1630932146413,0.0,0.0,0.0,0.0
1630932146496,0.0,0.0,0.0,0.0
1630932146591,0.0,0.0,0.0,0.0
1630932146707,0.0,0.0,0.0,0.0
1630932146814,0.0,0.0,0.0,0.0
1630932146908,0.0,0.0,0.0,0.0
1630932147013,0.0,0.0,0.0,0.0
1630932147143,0.0,0.0,0.0,0.0
1630932147217,0.0,0.0,0.0,0.0
1630932147303,0.2932756841182709,-0.1686852872371673,-0.0785836428403854,0.5101423859596252
1630932147433,0.2800972759723663,-0.1877196878194809,-0.0839119255542755,0.4886707961559295
1630932147534,0.2846603393554687,-0.2087584882974624,-0.0888819098472595,0.4558651745319366
1630932147616,0.3021873831748962,-0.2245600670576095,-0.0933532640337944,0.4302525520324707
1630932147726,0.3235899806022644,-0.2330425679683685,-0.095028318464756,0.426803320646286
1630932147822,0.3414719104766845,-0.2397252172231674,-0.0943928733468055,0.4429723024368286
1630932147913,0.3520112931728363,-0.2507626712322235,-0.0940838456153869,0.4642538130283355
1630932148046,0.3535520434379577,-0.2681575417518616,-0.0958879590034484,0.4786405563354492
1630932148136,0.3465530276298523,-0.2900514304637909,-0.0982262939214706,0.4824948906898498
1630932148251,0.3342660367488861,-0.3124122321605682,-0.100453034043312,0.4788515865802765
1630932148319,0.3212287425994873,-0.3307015597820282,-0.1041726842522621,0.4724544286727905
1630932148432,0.3106948733329773,-0.3427329957485199,-0.1107110232114791,0.4682863354682922
1630932148536,0.2957189381122589,-0.3721451163291931,-0.1253027617931366,0.4685941636562347
1630932148676,0.2936477959156036,-0.3888956606388092,-0.1336681991815567,0.4729068279266357
1630932148729,0.3000864386558532,-0.3997485637664795,-0.1347347348928451,0.4754224717617035
1630932148830,0.3079046308994293,-0.4036498665809631,-0.1305356174707412,0.4736790359020233
1630932148917,0.3092060685157776,-0.3961140513420105,-0.1240629255771637,0.4703771471977234
1630932149029,0.3001717031002044,-0.3788017332553863,-0.1190318614244461,0.4704196751117706
1630932149160,0.2834693491458893,-0.3628523647785187,-0.1193200275301933,0.4746101200580597
1630932149251,0.2665010094642639,-0.3560356795787811,-0.1269725412130355,0.4790048599243164
1630932149369,0.2554706633090973,-0.3570258319377899,-0.1388648450374603,0.4795917272567749
1630932149483,0.2525485455989837,-0.3572017848491668,-0.1494965404272079,0.4749131500720978
1630932149547,0.2591632902622223,-0.3499318361282348,-0.1556926518678665,0.4671256840229034
1630932149631,0.27542445063591,-0.3356871604919433,-0.1583819538354873,0.4598365724086761
1630932149721,0.2969495058059692,-0.3191911876201629,-0.1596846878528595,0.4541775286197662
1630932149871,0.3151493668556213,-0.3062013387680053,-0.1583424806594848,0.4475298523902893
1630932149979,0.3247940838336944,-0.3003616333007812,-0.150400310754776,0.4359278082847595
1630932150055,0.3265103697776794,-0.3019804954528808,-0.1344359964132309,0.4157446622848511
1630932150142,0.3230196237564087,-0.3072592616081238,-0.116090290248394,0.3890420198440552
1630932150233,0.3159034252166748,-0.3122396767139435,-0.1048309653997421,0.3638801276683807
1630932150322,0.3058120012283325,-0.3160462975502014,-0.1070987060666084,0.3500294387340545
1630932150486,0.2958498299121856,-0.3222861289978027,-0.1208479180932045,0.353780061006546
1630932150577,0.2896069884300232,-0.333965003490448,-0.1360451281070709,0.3708791136741638
1630932150664,0.2876755595207214,-0.3431916832923889,-0.1428080201148986,0.3906848430633545
1630932150749,0.2885845303535461,-0.3375998139381408,-0.1384114176034927,0.4035277068614959
1630932150863,0.2902126908302307,-0.3131954371929168,-0.1289881914854049,0.4086528122425079
1630932150952,0.2917109429836273,-0.27969691157341,-0.1211419478058815,0.4139475226402282
1630932151111,0.2914240062236786,-0.2497481405735016,-0.1179979145526886,0.4254243075847626
1630932151200,0.2767938077449798,-0.2288346141576767,-0.1178643777966499,0.4401730895042419
1630932151284,0.259475439786911,-0.2164893150329589,-0.1154792308807373,0.4515295922756195
1630932151355,0.2449055314064026,-0.2084167748689651,-0.1065708100795745,0.460614949464798
1630932151465,0.245555430650711,-0.2002898156642913,-0.0936861857771873,0.4718334078788757
1630932151555,0.2458886802196502,-0.1913286596536636,-0.0822730511426925,0.488152801990509
1630932151685,0.2414881139993667,-0.1766333729028701,-0.0733104571700096,0.5081520080566406
1630932151805,0.2331647127866745,-0.1636113226413726,-0.0638495162129402,0.5283443927764893
1630932151889,0.2255608141422271,-0.1533553004264831,-0.0526484735310077,0.5444050431251526
1630932151981,0.2199314683675766,-0.1439340263605117,-0.042317196726799,0.5504389405250549
1630932152072,0.2139533162117004,-0.1321497708559036,-0.0358982719480991,0.5436122417449951
1630932152157,0.2238431870937347,-0.1325816810131073,-0.0327719300985336,0.5257393717765808
1630932152297,0.2212836444377899,-0.1463464200496673,-0.0294736213982105,0.5026453137397766
1630932152383,0.2019053697586059,-0.1747320890426635,-0.0211425218731164,0.4791075885295868
1630932152485,0.1640680730342865,-0.2129560261964798,-0.0048042070120573,0.4548544585704803
1630932152629,0.1063805520534515,-0.253057986497879,0.0169761609286069,0.4289504885673523
1630932152676,0.1063805520534515,-0.2855643033981323,0.0367201641201972,0.4048250913619995
1630932152781,0.1063805520534515,-0.3023098111152649,0.0487974844872951,0.3900545835494995
1630932152912,0.1063805520534515,-0.3049600422382355,0.0526895709335804,0.3859855234622955
1630932153004,0.0553364604711532,-0.3038932085037231,0.0520161353051662,0.3855529427528381
1630932153094,0.050777044147253,-0.3065113127231598,0.0485500432550907,0.3811027109622955
1630932153211,0.0862363949418068,-0.3071462213993072,0.0407052002847194,0.3702242970466614
1630932153332,0.1374502927064895,-0.2972196638584137,0.0284279696643352,0.3573349118232727
1630932153385,0.1901308596134185,-0.2732656896114349,0.0156303532421588,0.3495218753814697
1630932153525,0.2420149892568588,-0.2412537783384323,0.0081032831221818,0.3529514074325561
1630932153613,0.2892317473888397,-0.2094532996416092,0.0068630850873887,0.3651904463768005
1630932153714,0.288489431142807,-0.1784681528806686,0.0089790038764476,0.37836554646492
1630932153791,0.2821457982063293,-0.1503679901361465,0.0107913585379719,0.3865785002708435
1630932153900,0.2760998010635376,-0.1292294114828109,0.0090790474787354,0.3886638283729553
1630932153990,0.2732460498809814,-0.1161738410592079,0.0009432358201593,0.388945609331131
1630932154153,0.2722525298595428,-0.1079756766557693,-0.0128322914242744,0.3929231166839599
1630932154243,0.2708956301212311,-0.1013634726405143,-0.0286823324859142,0.4035172760486603
1630932154325,0.2673056125640869,-0.0940800756216049,-0.0445736274123191,0.4174961447715759
1630932154437,0.2626060545444488,-0.0846225470304489,-0.063043512403965,0.4285648465156555
1630932154505,0.2700592577457428,-0.0716060623526573,-0.087051935493946,0.4343603849411011
1630932154627,0.2712421715259552,-0.0557452365756034,-0.1138695403933525,0.4366714656352997
1630932154761,0.2718665897846222,-0.0416206680238246,-0.1363753080368042,0.4366792738437652
1630932154847,0.2784613668918609,-0.0354939736425876,-0.1503297537565231,0.4321239590644836
1630932154935,0.2914140224456787,-0.0411343909800052,-0.1570173949003219,0.4225009083747864
1630932155025,0.3054728507995605,-0.0579915195703506,-0.1624088734388351,0.4108160138130188
1630932155112,0.3168497681617737,-0.0817158073186874,-0.167979821562767,0.4015198647975921
1630932155248,0.3191526532173157,-0.1057443916797638,-0.1706113517284393,0.3959940373897552
1630932155341,0.3254468142986297,-0.1235231086611747,-0.1673160195350647,0.3936653733253479
1630932155425,0.333337664604187,-0.130342349410057,-0.1598568707704544,0.3936668634414673
1630932155510,0.3406441807746887,-0.1324080228805542,-0.1529226899147033,0.3933017253875732
1630932155648,0.347846657037735,-0.1294248253107071,-0.1498798877000808,0.3873034417629242
1630932155715,0.357100635766983,-0.1243568807840347,-0.1476610898971557,0.3716785609722137
1630932155826,0.3717544078826904,-0.12202849984169,-0.1401779800653457,0.3487062454223633
1630932155949,0.3770276606082916,-0.1264073997735977,-0.1242087334394455,0.3251987099647522
1630932156070,0.3781393468379974,-0.1389535069465637,-0.102897860109806,0.3064015209674835
1630932156138,0.3691821992397308,-0.1575432568788528,-0.0882900282740593,0.2930991053581238
1630932156255,0.3437676429748535,-0.1781948059797287,-0.0743472278118133,0.2862703204154968
1630932156337,0.2985555827617645,-0.1960086524486541,-0.0628900751471519,0.2891072332859039
1630932156429,0.2358940541744232,-0.2044228911399841,-0.0531732700765132,0.3009797036647796
1630932156566,0.164308875799179,-0.1974892318248748,-0.0401992425322532,0.3165018856525421
1630932156665,0.0949649214744567,-0.1974892318248748,-0.0231424309313297,0.3313817083835602
1630932156742,0.0965907126665115,-0.1974892318248748,-0.0066390489228069,0.3453456163406372
1630932156854,0.0989752188324928,-0.1974892318248748,0.0033448771573603,0.3584394752979278
1630932156960,0.100617691874504,-0.1974892318248748,0.0054559712298214,0.3680357933044433
1630932157052,0.1031015887856483,-0.1974892318248748,0.002920578001067,0.3724385797977447
1630932157220,0.1107306629419326,-0.1974892318248748,0.001451511401683,0.3732946217060089
1630932157282,0.1275315433740615,-0.3108462989330292,0.001851137378253,0.3741633892059326
1630932157403,0.1512168198823928,-0.2885696589946747,0.0012926243944093,0.376860648393631
1630932157459,0.1697083711624145,-0.2751227617263794,-0.0016499086050316,0.3802133202552795
1630932157555,0.1887665390968322,-0.2699558734893799,-0.003931432031095,0.3822870254516601
1630932157636,0.2071365863084793,-0.2661559283733368,-0.0027751412708312,0.3813893795013428
1630932157776,0.2247002273797989,-0.2582213878631592,-0.0027751412708312,0.3773046433925628
1630932157906,0.2397602647542953,-0.2476235032081604,0.0030362168326973,0.3699580729007721
1630932157973,0.2491742074489593,-0.2420365363359451,0.0107375783845782,0.3601070940494537
1630932158076,0.2529428899288177,-0.244862824678421,0.0171370543539524,0.3485059440135956
1630932158166,0.2632804811000824,-0.2520091235637665,0.018354594707489,0.3362977802753448
1630932158240,0.2731358706951141,-0.2576473355293274,0.0124699650332331,0.3269177079200744
1630932158394,0.2837666273117065,-0.2612317204475403,0.0013378146104514,0.3229888677597046
1630932158491,0.2961942851543426,-0.2560544610023498,-0.0111679192632436,0.3248838484287262
1630932158583,0.3098197281360626,-0.2587230503559112,-0.0208857152611017,0.3310921788215637
1630932158685,0.3210422098636627,-0.2639618217945099,-0.0273957885801792,0.3405117690563202
1630932158757,0.2961809039115906,-0.265605479478836,-0.0297310315072536,0.3520458042621612
1630932158854,0.2551546990871429,-0.2622971534729004,0.0045595150440931,0.3623087704181671
1630932159013,0.2054536938667297,-0.2577782273292541,0.033291183412075,0.3686443865299225
1630932159132,0.170538067817688,-0.2556347846984863,0.0629203766584396,0.3712818324565887
1630932159206,0.1340475976467132,-0.2573408782482147,0.1142863407731056,0.372084230184555
1630932159300,0.0951991975307464,-0.2574511468410492,0.1704648435115814,0.3716269135475158
1630932159396,0.0511761084198951,-0.2417999356985092,0.2274554520845413,0.3691593706607818
1630932159482,0.0074595278128981,-0.1991697251796722,0.2683299481868744,0.3641380965709686
1630932159606,0.0074595278128981,-0.1397030055522918,0.2847045063972473,0.3572215437889099
1630932159713,0.0074595278128981,-0.0856159552931785,0.2779125273227691,0.3493584096431732
1630932159831,0.0074595278128981,-0.0512169115245342,0.2779125273227691,0.3400722742080688
1630932159899,0.0074595278128981,-0.0358379110693931,0.2779125273227691,0.3288687467575073
1630932159989,0.0074595278128981,-0.0304152220487594,0.2779125273227691,0.3184624016284942
1630932160079,0.0074595278128981,-0.0264261662960052,0.2779125273227691,0.3123281896114349
1630932160216,0.0074595278128981,-0.0219653379172086,0.2779125273227691,0.3116094768047333
1630932160345,0.0074595278128981,-0.0188651382923126,0.255159854888916,0.3124512434005737
1630932160407,0.0074595278128981,-0.018303157761693,0.249190405011177,0.3105036914348602
1630932160502,0.0074595278128981,-0.0185436252504587,0.2445582449436187,0.3043063282966614
1630932160601,0.0074595278128981,-0.0170513372868299,0.2394866943359375,0.2960443198680877
1630932160680,0.0074595278128981,-0.0141134057193994,0.2279998064041137,0.2892316579818725
1630932160837,0.0074595278128981,-0.0143580613657832,0.2030842155218124,0.2873492538928985
1630932160933,0.0074595278128981,-0.025999516248703,0.162673071026802,0.2905157506465912
1630932161060,0.0074595278128981,-0.0549906454980373,0.113797940313816,0.2945576012134552
1630932161150,0.0074595278128981,-0.098224252462387,0.0715749040246009,0.2949869334697723
1630932161214,0.0074595278128981,-0.142442837357521,0.0479732193052768,0.2913691699504852
1630932161310,0.0074595278128981,-0.1711170971393585,0.0375901907682418,0.2888541221618652
1630932161449,0.3460367321968078,-0.1793087869882583,0.0244844388216733,0.2927054762840271
1630932161537,0.3329555988311767,-0.176518976688385,0.0116879604756832,0.3015088140964508
1630932161623,0.3206959962844848,-0.174163669347763,-0.0014705914072692,0.3109084069728851
1630932161711,0.3155453205108642,-0.1762571334838867,-0.0161985363811254,0.3183121085166931
1630932161824,0.3176001906394958,-0.1812078654766082,-0.0309541020542383,0.3258590698242187
1630932161932,0.3228408396244049,-0.1863260120153427,-0.0465772710740566,0.3358194231986999
1630932162060,0.3273397088050842,-0.1904894113540649,-0.0616458877921104,0.3494338095188141
1630932162180,0.3282322287559509,-0.1934872716665268,-0.0793702155351638,0.3675480186939239
1630932162254,0.3253828883171081,-0.1963455080986023,-0.1016133278608322,0.3894931674003601
1630932162336,0.3205701112747192,-0.2003508657217025,-0.1263351887464523,0.409806340932846
1630932162448,0.317315399646759,-0.2060756683349609,-0.1509277373552322,0.4221293330192566
1630932162517,0.3160980343818664,-0.2143778800964355,-0.1732047349214553,0.4263108670711517
1630932162669,0.3157787621021271,-0.2259261608123779,-0.1878019124269485,0.4298215508460998
1630932162766,0.308600902557373,-0.2404857128858566,-0.1868356317281723,0.4401476979255676
1630932162852,0.2965596318244934,-0.2544115781784057,-0.1696528047323227,0.4566730856895447
1630932162952,0.2836033701896667,-0.2621561288833618,-0.1458889245986938,0.4743243455886841
1630932163052,0.2725442051887512,-0.2613349854946136,-0.1254815310239792,0.489645391702652
1630932163164,0.2606719732284546,-0.2559394836425781,-0.1087123900651931,0.5013744235038757
1630932163284,0.2444524019956588,-0.252139538526535,-0.0905769765377044,0.5085192918777466
1630932163370,0.2231016457080841,-0.2531167268753052,-0.0705931782722473,0.5108480453491211
1630932163490,0.2002985477447509,-0.2576350271701813,-0.053862202912569,0.5095269083976746
1630932163572,0.1820758730173111,-0.2631206214427948,-0.0437979064881801,0.5052266120910645
1630932163656,0.1767719537019729,-0.2680995464324951,-0.0394684821367263,0.4967456459999084
1630932163743,0.1889616250991821,-0.2693656682968139,-0.038533266633749,0.4821432828903198
1630932163882,0.2157450318336486,-0.2643394470214844,-0.0377892330288887,0.4626855552196502
1630932163969,0.2457507401704788,-0.2543851435184479,-0.0328037440776824,0.4433095157146454
1630932164082,0.2683543562889099,-0.2446168065071106,-0.0207915809005498,0.4285501539707184
1630932164173,0.2805036008358001,-0.2376871258020401,-0.0057962858118116,0.4176047444343567
1630932164255,0.2847025692462921,-0.229993924498558,0.0038958047516644,0.4056398570537567
1630932164352,0.2859717309474945,-0.2165780812501907,0.0051516103558242,0.3875059485435486
1630932164507,0.2868517339229584,-0.1977224498987198,0.0026453244499862,0.3607870936393738
1630932164598,0.2870365679264068,-0.1784062385559082,0.0028213646728545,0.3272025883197784
1630932164683,0.2881651520729065,-0.1640716791152954,0.005723928567022,0.2926534116268158
1630932164770,0.2937750518321991,-0.1571904420852661,0.0062478105537593,0.2631459236145019
1630932164869,0.3063244819641113,-0.1572604924440384,0.0060973786748945,0.2404774576425552
1630932164954,0.3228574991226196,-0.1627208888530731,0.007692941930145,0.2243728339672088
1630932165113,0.3367064595222473,-0.1719218343496322,0.0155015084892511,0.2145803570747375
1630932165200,0.3407360315322876,-0.1832859814167022,0.0208388715982437,0.210673376917839
1630932165291,0.3317464292049408,-0.1965390741825103,0.0318520702421665,0.2105088829994201
1630932165411,0.3120678067207336,-0.2121888697147369,0.0451264232397079,0.2121767699718475
1630932165489,0.2919380366802215,-0.2291836589574813,0.0531233251094818,0.2174156010150909
1630932165585,0.2838554084300995,-0.2436097860336303,0.0490986965596675,0.2272290736436844
1630932165720,0.2901718318462372,-0.2530665993690491,0.0325662605464458,0.2415256351232528
1630932165836,0.3038721680641174,-0.2610413730144501,0.0135844498872756,0.2572709619998932
1630932165907,0.317968487739563,-0.275454968214035,-0.0003090541285928,0.2720904052257538
1630932166015,0.3309025764465332,-0.3008714020252228,-0.011324836872518,0.2852181792259216
1630932166120,0.3437835276126861,-0.3333104252815246,-0.0251962207257747,0.2989312708377838
1630932166203,0.3543592393398285,-0.3624415695667267,-0.0409571565687656,0.3155754804611206
1630932166321,0.3575330674648285,-0.3770293295383453,-0.0471371859312057,0.3342143297195434
1630932166404,0.350341796875,-0.3736824095249176,-0.0517678409814834,0.3504400849342346
1630932166550,0.334178477525711,-0.3551348149776459,-0.0563355945050716,0.3607394397258758
1630932166614,0.3147216141223907,-0.327096551656723,-0.061860304325819,0.3672741651535034
1630932166699,0.2988731861114502,-0.2961767017841339,-0.064750388264656,0.3761056661605835
1630932166790,0.2895818054676056,-0.2683763802051544,-0.0687978714704513,0.3908850252628326
1630932166948,0.2833587527275085,-0.2465467900037765,-0.077348805963993,0.4080730974674225
1630932167033,0.2718907296657562,-0.2305421680212021,-0.0912178754806518,0.4209197759628296
1630932167128,0.248150423169136,-0.2187654674053192,-0.1084870919585228,0.4272025227546692
1630932167217,0.2138693034648895,-0.212008461356163,-0.125858724117279,0.4286975264549255
1630932167302,0.1764653623104095,-0.2115489393472671,-0.1451071798801422,0.4288601875305176
1630932167414,0.142044261097908,-0.2167726457118988,-0.1671229898929596,0.4307384788990021
1630932167580,0.1108670383691787,-0.2236860990524292,-0.1868649125099182,0.4350738525390625
1630932167640,0.0818030685186386,-0.2283990830183029,-0.1959306299686432,0.4387739896774292
1630932167730,0.0574828423559665,-0.2290394157171249,-0.1912571787834167,0.4376465678215027
1630932167820,0.0416098795831203,-0.2274685949087143,-0.1775990724563598,0.4342541992664337
1630932167949,0.0343975126743316,-0.2243586033582687,-0.1604452580213546,0.4365920424461365
1630932168023,0.0375252142548561,-0.2267381995916366,-0.1634400784969329,0.4485567808151245
1630932168152,0.0418623201549053,-0.2337973117828369,-0.1646795719861984,0.464625746011734
1630932168270,0.0422231182456016,-0.245264858007431,-0.165616363286972,0.4685666859149933
1630932168355,0.0351349040865898,-0.2587192952632904,-0.1687900871038437,0.468882143497467
1630932168452,0.0204606652259826,-0.2711648941040039,-0.1728659868240356,0.4678367674350738
1630932168535,-0.0004800641036126,-0.2806690335273742,-0.1736034750938415,0.4708181619644165
1630932168621,-0.0209257751703262,-0.2872227728366852,-0.1661976724863052,0.4796085059642792
1630932168754,-0.0360599085688591,-0.2879548370838165,-0.1475477963685989,0.490423709154129
1630932168871,-0.0426774695515632,-0.2789939045906067,-0.1165059208869934,0.4989685714244842
1630932168965,-0.0419757179915905,-0.2602256834506988,-0.0744511410593986,0.5039711594581604
1630932169060,-0.036498662084341,-0.2385085225105285,-0.0272947642952203,0.5087303519248962
1630932169169,-0.036498662084341,-0.2385085225105285,-0.0272947642952203,0.5194411873817444
1630932169253,-0.036498662084341,-0.2385085225105285,-0.0272947642952203,0.541658341884613
1630932169359,-0.036498662084341,-0.2385085225105285,-0.0272947642952203,0.541658341884613
1630932169498,-0.036498662084341,-0.2385085225105285,-0.0272947642952203,0.541658341884613
1630932169563,-0.036498662084341,-0.2385085225105285,-0.0272947642952203,0.541658341884613
1630932169671,-0.036498662084341,-0.2385085225105285,-0.0272947642952203,0.541658341884613
1630932169763,-0.036498662084341,-0.2385085225105285,-0.0272947642952203,0.541658341884613
1630932169855,-0.036498662084341,-0.2385085225105285,-0.0272947642952203,0.541658341884613
1630932169966,-0.036498662084341,-0.2385085225105285,-0.0272947642952203,0.541658341884613
1630932170071,-0.036498662084341,-0.2385085225105285,-0.0272947642952203,0.541658341884613
1630932170163,-0.036498662084341,-0.2385085225105285,-0.0272947642952203,0.541658341884613
1630932170264,-0.036498662084341,-0.2385085225105285,-0.0272947642952203,0.541658341884613
1630932170366,-0.036498662084341,-0.2385085225105285,-0.0272947642952203,0.541658341884613
1630932170478,-0.036498662084341,-0.2385085225105285,-0.0272947642952203,0.541658341884613
1630932170591,-0.036498662084341,0.584036111831665,-0.0272947642952203,0.541658341884613
1630932170680,-0.036498662084341,0.5611620545387268,-0.0272947642952203,0.541658341884613
1630932170765,-0.036498662084341,0.5446260571479797,-0.0272947642952203,0.541658341884613
1630932170861,-0.036498662084341,0.5360405445098877,-0.0272947642952203,0.541658341884613
1630932171036,-0.036498662084341,0.5291736721992493,-0.0272947642952203,0.541658341884613
1630932171065,-0.036498662084341,0.5199169516563416,-0.0272947642952203,0.541658341884613
1630932171215,-0.036498662084341,0.5086146593093872,-0.0272947642952203,0.541658341884613
1630932171316,-0.036498662084341,0.5086146593093872,-0.0272947642952203,0.541658341884613
1630932171375,-0.036498662084341,0.5086146593093872,-0.0272947642952203,0.541658341884613
1630932171458,-0.036498662084341,0.5086146593093872,-0.0272947642952203,0.541658341884613
1630932171572,-0.036498662084341,0.4843819737434387,-0.0272947642952203,0.541658341884613
1630932171669,-0.036498662084341,0.4843819737434387,-0.0272947642952203,0.541658341884613
1630932171822,-0.036498662084341,0.4843819737434387,-0.0272947642952203,0.541658341884613
1630932171888,-0.036498662084341,0.4720230996608734,-0.0272947642952203,0.541658341884613
1630932171996,-0.036498662084341,0.4589754641056061,-0.0272947642952203,0.541658341884613
1630932172095,-0.036498662084341,0.4499086737632751,-0.0272947642952203,0.541658341884613
1630932172199,-0.036498662084341,0.4488226771354675,-0.0272947642952203,0.541658341884613
1630932172293,-0.036498662084341,0.4482930302619934,-0.0272947642952203,0.541658341884613
1630932172524,-0.036498662084341,0.4482930302619934,-0.0272947642952203,0.541658341884613
1630932172606,-0.036498662084341,0.4482930302619934,-0.0272947642952203,0.541658341884613
1630932172717,-0.036498662084341,0.4482930302619934,-0.0272947642952203,0.541658341884613
1630932172812,-0.036498662084341,0.4482930302619934,-0.0272947642952203,0.541658341884613
1630932172873,-0.036498662084341,0.4482930302619934,-0.0272947642952203,0.541658341884613
1630932173046,-0.036498662084341,0.4482930302619934,-0.0272947642952203,0.541658341884613
1630932173137,-0.036498662084341,0.4482930302619934,-0.0272947642952203,0.541658341884613
1630932173206,-0.036498662084341,0.4482930302619934,-0.0272947642952203,0.541658341884613
1630932173292,-0.036498662084341,0.4482930302619934,-0.0272947642952203,0.541658341884613
1630932173388,-0.036498662084341,0.4482930302619934,-0.0272947642952203,0.541658341884613
1630932173495,-0.036498662084341,0.4482930302619934,-0.0272947642952203,0.541658341884613
1630932173635,-0.036498662084341,0.4482930302619934,-0.0272947642952203,0.541658341884613
1630932173726,-0.036498662084341,0.4482930302619934,-0.0272947642952203,0.541658341884613
1630932173847,-0.036498662084341,0.4482930302619934,-0.0272947642952203,0.541658341884613
1630932173948,-0.036498662084341,0.4482930302619934,-0.0272947642952203,0.541658341884613
1630932174041,-0.036498662084341,0.4482930302619934,-0.0272947642952203,0.541658341884613
1630932174108,-0.036498662084341,0.4482930302619934,-0.0272947642952203,0.541658341884613
1630932174264,-0.036498662084341,0.4482930302619934,-0.0272947642952203,0.541658341884613
1630932174347,-0.036498662084341,0.4482930302619934,-0.0272947642952203,0.541658341884613
1630932174419,-0.036498662084341,0.4482930302619934,-0.0272947642952203,0.541658341884613
1630932174549,-0.036498662084341,0.4482930302619934,-0.0272947642952203,0.541658341884613
1630932174670,-0.036498662084341,0.4482930302619934,-0.0272947642952203,0.541658341884613
1630932174731,-0.036498662084341,0.4482930302619934,-0.0272947642952203,0.541658341884613
1630932174905,-0.036498662084341,0.096822865307331,-0.0272947642952203,0.541658341884613
1630932174950,-0.036498662084341,0.1066005900502204,-0.0272947642952203,0.7430648803710938
1630932175076,-0.036498662084341,0.1094489470124244,-0.0272947642952203,0.7179347276687622
1630932175153,-0.036498662084341,0.1047397181391716,-0.0272947642952203,0.6889678239822388
1630932175224,-0.036498662084341,0.0942172557115554,-0.0272947642952203,0.664600670337677
1630932175331,-0.036498662084341,0.0810771211981773,-0.0272947642952203,0.654586136341095
1630932175469,-0.036498662084341,0.0671114102005958,-0.0272947642952203,0.6594468951225281
1630932175554,-0.036498662084341,0.0523755513131618,-0.0272947642952203,0.6673804521560669
1630932175650,-0.036498662084341,0.0376409366726875,-0.0272947642952203,0.6673804521560669
1630932175763,-0.036498662084341,0.0255999974906444,-0.0272947642952203,0.6673804521560669
1630932175846,-0.036498662084341,0.0177948512136936,-0.0272947642952203,0.6673804521560669
1630932175931,-0.036498662084341,0.0120216663926839,-0.0272947642952203,0.6673804521560669
1630932176091,-0.036498662084341,0.0013021436752751,-0.0272947642952203,0.6673804521560669
1630932176181,-0.036498662084341,-0.0167227797210216,-0.0272947642952203,0.6512104868888855
1630932176270,-0.036498662084341,-0.0416409447789192,0.0198259893804788,0.6350612640380859
1630932176364,-0.036498662084341,-0.0696141198277473,-0.009731032885611,0.6196133494377136
1630932176455,-0.036498662084341,-0.0971910133957862,-0.0322636365890502,0.6084355711936951
1630932176546,-0.036498662084341,-0.1222506016492843,-0.0476744547486305,0.6101564764976501
1630932176696,-0.036498662084341,-0.1435655504465103,-0.0540852546691894,0.6328436136245728
1630932176787,-0.036498662084341,-0.1595122665166854,-0.0513410866260528,0.6328436136245728
1630932176871,-0.036498662084341,-0.1704505681991577,-0.0417051017284393,0.6328436136245728
1630932176988,-0.036498662084341,-0.1776588559150695,-0.0286967810243368,0.6328436136245728
1630932177060,-0.036498662084341,-0.1809228807687759,-0.0161728356033563,0.6328436136245728
1630932177163,-0.036498662084341,-0.1789764016866684,-0.0084442794322967,0.6328436136245728
1630932177298,-0.036498662084341,-0.1719025075435638,-0.0075671132653951,0.6328436136245728
1630932177374,-0.036498662084341,-0.1588346064090728,-0.0122510669752955,0.6328436136245728
1630932177501,-0.036498662084341,-0.1364123374223709,-0.0306763425469398,0.6328436136245728
1630932177592,-0.036498662084341,-0.1046730875968933,-0.0442726388573646,0.6328436136245728
1630932177686,-0.036498662084341,-0.071800097823143,-0.0532272607088089,0.6328436136245728
1630932177768,-0.036498662084341,-0.0487612336874008,-0.062128085643053,0.6328436136245728
1630932177925,-0.036498662084341,-0.0406300239264965,-0.0733909085392952,0.6328436136245728
1630932177993,-0.036498662084341,-0.0435763075947761,-0.0862089470028877,0.6328436136245728
1630932178086,-0.036498662084341,-0.051112663000822,-0.0998570546507835,0.6328436136245728
1630932178196,-0.036498662084341,-0.0427611693739891,-0.1166689544916153,0.6328436136245728
1630932178311,-0.036498662084341,-0.0330720692873001,-0.1395914107561111,0.6328436136245728
1630932178373,-0.036498662084341,-0.0224240701645612,-0.1694157272577285,0.6328436136245728
1630932178515,-0.036498662084341,-0.0362287126481533,-0.2052250057458877,0.6328436136245728
1630932178609,-0.036498662084341,-0.0504536591470241,-0.2451513558626175,0.6328436136245728
1630932178687,-0.036498662084341,-0.0681184977293014,-0.2850796282291412,0.6328436136245728
1630932178799,-0.036498662084341,-0.0944311842322349,-0.3154066205024719,0.6328436136245728
1630932178897,-0.036498662084341,-0.1341200619935989,-0.3495919108390808,0.6328436136245728
1630932178972,-0.036498662084341,-0.1893801093101501,-0.3843435943126678,0.6328436136245728
1630932179117,-0.036498662084341,-0.2567312717437744,-0.4202324748039245,0.6328436136245728
1630932179231,-0.036498662084341,-0.3225170373916626,-0.4497975707054138,0.6328436136245728
1630932179331,-0.036498662084341,-0.3665387332439422,-0.4616751968860626,0.6328436136245728
1630932179412,-0.036498662084341,-0.378397136926651,-0.4547410309314728,0.6328436136245728
1630932179500,-0.036498662084341,-0.3696497976779938,-0.4392431974411011,0.6328436136245728
1630932179584,-0.036498662084341,-0.3562665283679962,-0.4267085194587707,0.6328436136245728
1630932179717,-0.036498662084341,-0.347942441701889,-0.4220282733440399,0.6328436136245728
1630932179835,-0.036498662084341,-0.3442211747169494,-0.4227661490440368,0.6328436136245728
1630932179915,-0.036498662084341,-0.3459191918373108,-0.4240694046020508,0.6328436136245728
1630932180038,-0.036498662084341,-0.3438269197940826,-0.422804057598114,0.634001612663269
1630932180118,-0.036498662084341,-0.3466847538948059,-0.4197723567485809,0.6164150834083557
1630932180195,-0.036498662084341,-0.3490519523620605,-0.4178462922573089,0.6025680899620056
1630932180348,-0.036498662084341,-0.3462079465389251,-0.4175990223884582,0.5892221331596375
1630932180461,-0.036498662084341,-0.3392594158649444,-0.4185845851898193,0.5728346109390259
1630932180545,-0.036498662084341,-0.333849549293518,-0.4186252355575561,0.5535122752189636
1630932180638,-0.036498662084341,-0.3342018127441406,-0.4181861877441406,0.5318034291267395
1630932180721,-0.036498662084341,-0.3403107225894928,-0.4185972511768341,0.5106633305549622
1630932180790,-0.036498662084341,-0.3482846617698669,-0.422954112291336,0.5106633305549622
1630932180980,-0.036498662084341,-0.3572863042354584,-0.4322217404842376,0.5106633305549622
1630932181039,-0.036498662084341,-0.36776864528656,-0.4440642595291137,0.5106633305549622
1630932181136,-0.036498662084341,-0.3813514411449432,-0.4529743790626526,0.5106633305549622
1630932181221,-0.036498662084341,-0.3989681303501129,-0.4552490711212158,0.4887190461158752
1630932181325,-0.036498662084341,-0.4071146845817566,-0.4538607001304626,0.4630559086799621
1630932181412,-0.036498662084341,-0.410070389509201,-0.4564003944396972,0.4401673078536987
1630932181575,-0.036498662084341,-0.4049111008644104,-0.4688914716243744,0.4203939437866211
1630932181664,-0.036498662084341,-0.3920896053314209,-0.4917010962963104,0.3972907066345215
1630932181780,-0.036498662084341,-0.398816168308258,-0.5185012221336365,0.3662965595722198
1630932181840,-0.036498662084341,-0.4034775793552398,-0.5390565395355225,0.3255816996097564
1630932181979,-0.036498662084341,-0.4006395637989044,-0.5441489219665527,0.3255816996097564
1630932182040,-0.036498662084341,-0.3871543705463409,-0.5342848300933838,0.3255816996097564
1630932182198,-0.036498662084341,-0.3655222058296203,-0.5133448243141174,0.3255816996097564
1630932182271,-0.036498662084341,-0.345371276140213,-0.4908264279365539,0.3255816996097564
1630932182397,-0.036498662084341,-0.3355287909507751,-0.4734373092651367,0.3255816996097564
1630932182467,-0.036498662084341,-0.3347058594226837,-0.4634096622467041,0.3255816996097564
1630932182537,-0.036498662084341,-0.3362572789192199,-0.4613052904605865,0.3255816996097564
1630932182634,-0.036498662084341,-0.3316388130187988,-0.4661979377269745,0.3255816996097564
1630932182757,-0.036498662084341,-0.3181670606136322,-0.472217321395874,0.3255816996097564
1630932182880,-0.036498662084341,-0.3227357268333435,-0.4739678502082824,0.3255816996097564
1630932182955,-0.036498662084341,-0.3315511643886566,-0.4670495688915252,0.3255816996097564
1630932183048,-0.036498662084341,-0.3415977656841278,-0.4500979483127594,0.3255816996097564
1630932183166,-0.036498662084341,-0.3477030098438263,-0.4228500723838806,0.3255816996097564
1630932183251,-0.036498662084341,-0.3300800025463104,-0.3856982588768005,0.3255816996097564
1630932183389,-0.036498662084341,-0.3165320754051208,-0.3390631675720215,0.3255816996097564
1630932183493,-0.036498662084341,-0.3107853531837463,-0.2862273454666137,0.3255816996097564
1630932183569,-0.036498662084341,-0.3159294128417969,-0.2357111871242523,0.3255816996097564
1630932183684,-0.036498662084341,-0.3328926265239715,-0.200026586651802,0.3255816996097564
1630932183784,-0.036498662084341,-0.3564137518405914,-0.1815446764230728,0.3255816996097564
1630932183866,-0.036498662084341,-0.3772518634796142,-0.1689656376838684,0.3255816996097564
1630932184001,-0.036498662084341,-0.3896168768405914,-0.1394032388925552,0.3255816996097564
1630932184087,-0.036498662084341,-0.3946102261543274,-0.0816260576248169,0.3255816996097564
1630932184185,-0.036498662084341,-0.3864325284957886,-0.0104673318564891,0.3255816996097564
1630932184263,-0.036498662084341,-0.3905650079250335,0.0519942864775657,0.3255816996097564
1630932184367,-0.036498662084341,-0.3945488631725311,0.0988737419247627,0.3255816996097564
1630932184454,-0.036498662084341,-0.3914830982685089,0.1195087805390358,0.3255816996097564
1630932184592,-0.036498662084341,-0.3802803754806518,0.1402610838413238,0.3255816996097564
1630932184703,-0.036498662084341,-0.3613272905349731,0.161157876253128,0.3255816996097564
1630932184795,-0.036498662084341,-0.3669628798961639,0.1816404461860656,0.3255816996097564
1630932184884,-0.036498662084341,-0.3669628798961639,0.1996831446886062,0.3255816996097564
1630932184997,-0.036498662084341,-0.3669628798961639,0.2130755186080932,0.3255816996097564
1630932185080,-0.036498662084341,-0.3669628798961639,0.2235796153545379,0.3255816996097564
1630932185197,-0.036498662084341,-0.3669628798961639,0.2399530261754989,0.3255816996097564
1630932185311,-0.036498662084341,-0.3669628798961639,0.2716394364833832,0.3255816996097564
1630932185418,-0.036498662084341,-0.3669628798961639,0.3186226487159729,0.3255816996097564
1630932185491,-0.036498662084341,-0.3669628798961639,0.364164650440216,0.3255816996097564
1630932185619,-0.036498662084341,-0.3669628798961639,0.364164650440216,0.3255816996097564
1630932185668,-0.036498662084341,-0.3799828588962555,0.364164650440216,0.3255816996097564
1630932185826,-0.036498662084341,-0.3853877186775207,0.364164650440216,0.3255816996097564
1630932185912,-0.036498662084341,-0.3853877186775207,0.364164650440216,0.3255816996097564
1630932186030,-0.036498662084341,-0.3853877186775207,0.364164650440216,0.3255816996097564
1630932186114,-0.036498662084341,-0.3853877186775207,0.364164650440216,0.3255816996097564
1630932186200,-0.036498662084341,-0.3853877186775207,0.364164650440216,0.3255816996097564
1630932186315,-0.036498662084341,-0.3853877186775207,0.364164650440216,0.3255816996097564
1630932186453,-0.036498662084341,-0.3853877186775207,0.364164650440216,0.3255816996097564
1630932186552,-0.036498662084341,-0.3853877186775207,0.364164650440216,0.3255816996097564
1630932186634,-0.036498662084341,-0.3853877186775207,0.364164650440216,0.3255816996097564
1630932186718,-0.036498662084341,-0.3853877186775207,0.364164650440216,0.3255816996097564
1630932186810,-0.036498662084341,-0.3853877186775207,0.364164650440216,0.3255816996097564
1630932186919,-0.036498662084341,-0.3853877186775207,0.364164650440216,0.3255816996097564
1630932187028,-0.036498662084341,-0.3853877186775207,0.364164650440216,0.3255816996097564
1630932187131,-0.036498662084341,-0.3853877186775207,0.364164650440216,0.3255816996097564
1630932187219,-0.036498662084341,-0.3853877186775207,0.364164650440216,0.3255816996097564
1630932187355,-0.036498662084341,-0.3853877186775207,0.364164650440216,0.3255816996097564
1630932187435,-0.036498662084341,-0.3853877186775207,0.364164650440216,0.3255816996097564
1630932187504,-0.036498662084341,-0.3853877186775207,0.364164650440216,0.3255816996097564
1630932187664,-0.036498662084341,-0.3853877186775207,0.364164650440216,0.3255816996097564
1630932187750,-0.036498662084341,-0.3853877186775207,0.364164650440216,0.3255816996097564
1630932187847,-0.036498662084341,-0.3853877186775207,0.364164650440216,0.3255816996097564
1630932187928,-0.036498662084341,-0.3853877186775207,0.364164650440216,0.3255816996097564
1630932188019,-0.036498662084341,-0.3853877186775207,0.364164650440216,0.3255816996097564
1630932188135,-0.036498662084341,-0.3853877186775207,0.364164650440216,0.3255816996097564
1630932188280,-0.036498662084341,-0.3853877186775207,0.364164650440216,0.3255816996097564
1630932188349,-0.036498662084341,-0.3853877186775207,0.364164650440216,0.3255816996097564
1630932188434,0.5547615885734558,-0.3853877186775207,0.364164650440216,0.4347206056118011
1630932188549,0.6025093793869019,-0.3853877186775207,0.364164650440216,0.440420925617218
1630932188655,0.6610355377197266,-0.2635121047496795,0.364164650440216,0.4322986006736755
1630932188742,0.703152596950531,-0.2146885693073272,0.364164650440216,0.4194324910640716
1630932188896,0.7180226445198059,-0.1760022789239883,0.364164650440216,0.4074769616127014
1630932188961,0.711243212223053,-0.1496116518974304,0.364164650440216,0.3983828127384186
1630932189044,0.6972669959068298,-0.1394717544317245,0.364164650440216,0.3966559469699859
1630932189133,0.6872762441635132,-0.1455159932374954,-0.3026662170886993,0.4062390923500061
1630932189250,0.682184636592865,-0.1622024774551391,-0.3219460844993591,0.4235362112522125
1630932189372,0.676353394985199,-0.1817015260457992,-0.3335575759410858,0.4409407675266266
1630932189481,0.6657839417457581,-0.1992608904838562,-0.342000275850296,0.4530757367610931
1630932189579,0.6508762240409851,-0.2139998972415924,-0.3476747274398803,0.4589989781379699
1630932189683,0.6373296976089478,-0.2263196408748626,-0.3457468748092651,0.4662419259548187
1630932189781,0.626664400100708,-0.2362509220838546,-0.3360823690891266,0.4672558009624481
1630932189874,0.6172051429748535,-0.2318423390388488,-0.3230077922344208,0.4607537090778351
1630932189968,0.6014884114265442,-0.2337827980518341,-0.3095486462116241,0.449228286743164
1630932190098,0.5709189176559448,-0.2453715652227401,-0.2948101460933685,0.4371146261692047
1630932190226,0.5238114595413208,-0.2668921947479248,-0.2749150693416595,0.4263174533843994
1630932190273,0.4704130291938782,-0.2957397699356079,-0.2469067424535751,0.4166695475578308
1630932190370,0.4286226332187652,-0.3281826972961426,-0.2147040069103241,0.4097495079040527
1630932190455,0.4072203338146209,-0.3592736423015594,-0.1747881174087524,0.4071626961231231
1630932190565,0.3954167068004608,-0.3834077417850494,-0.1400186270475387,0.4050867259502411
1630932190698,0.3765318989753723,-0.3976519107818603,-0.1174084618687629,0.3945099413394928
1630932190812,0.3456470668315887,-0.4037505984306335,-0.107182078063488,0.3711321651935577
1630932190875,0.3125650286674499,-0.4051311016082763,-0.1047103926539421,0.3383483588695526
1630932190968,0.2906050086021423,-0.4035763144493103,-0.1042907685041427,0.3038955926895141
1630932191083,0.2852498888969421,-0.4006807506084442,-0.1027843803167343,0.2729286551475525
1630932191178,0.286136120557785,-0.398520827293396,-0.1016123071312904,0.2541196942329407
1630932191308,0.2883248925209045,-0.397887110710144,-0.0923511832952499,0.2384577989578247
1630932191403,0.2916780412197113,-0.3996444046497345,-0.0844827219843864,0.2265418469905853
1630932191511,0.2981685101985931,-0.4023496508598327,-0.0771435424685478,0.2185995280742645
1630932191594,0.3074890971183777,-0.4021973609924316,-0.0711980462074279,0.2163457423448562
1630932191684,0.3154579997062683,-0.3961479663848877,-0.0707521960139274,0.2222577482461929
1630932191773,0.3159636557102203,-0.3879384696483612,-0.0829572081565857,0.2349195480346679
1630932191915,0.3046226799488067,-0.387083351612091,-0.1150285825133323,0.244927704334259
1630932192023,0.2805303335189819,-0.4004951119422912,-0.169450968503952,0.241104394197464
1630932192119,0.2462319433689117,-0.4258788228034973,-0.2383511811494827,0.2165763825178146
1630932192198,0.2462319433689117,-0.4258788228034973,-0.3025539815425873,0.1793808937072754
1630932192312,0.2462319433689117,-0.4258788228034973,-0.3399569094181061,0.5729753375053406
1630932192378,0.2462319433689117,-0.4258788228034973,-0.3399569094181061,0.5729753375053406
1630932192509,0.2462319433689117,-0.4258788228034973,-0.3399569094181061,0.5729753375053406
1630932192632,0.2462319433689117,-0.4258788228034973,-0.3399569094181061,0.5729753375053406
1630932192732,0.2462319433689117,-0.4258788228034973,-0.3399569094181061,0.5729753375053406
1630932192802,0.2462319433689117,-0.4258788228034973,-0.3399569094181061,0.5729753375053406
1630932192924,0.2462319433689117,-0.4258788228034973,-0.3399569094181061,0.5729753375053406
1630932193003,0.2462319433689117,-0.4258788228034973,-0.3399569094181061,0.5729753375053406
1630932193139,0.2462319433689117,-0.4258788228034973,-0.3399569094181061,0.5729753375053406
1630932193230,0.2462319433689117,-0.4258788228034973,-0.3399569094181061,0.5729753375053406
1630932193363,0.2462319433689117,-0.4258788228034973,-0.3399569094181061,0.5729753375053406
1630932193407,0.2462319433689117,-0.4258788228034973,-0.3399569094181061,0.5729753375053406
1630932193524,0.2462319433689117,-0.4258788228034973,-0.3399569094181061,0.5729753375053406
1630932193617,0.2462319433689117,-0.4258788228034973,-0.3399569094181061,0.5729753375053406
1630932193746,0.2462319433689117,-0.4258788228034973,-0.3399569094181061,0.5729753375053406
1630932193845,0.2462319433689117,-0.4258788228034973,-0.3399569094181061,0.5729753375053406
1630932193931,0.2462319433689117,-0.4258788228034973,-0.3399569094181061,0.5729753375053406
1630932194029,0.2462319433689117,-0.4258788228034973,-0.3399569094181061,0.5729753375053406
1630932194112,0.2462319433689117,-0.4258788228034973,-0.3399569094181061,0.5729753375053406
1630932194230,0.2462319433689117,-0.4258788228034973,-0.3399569094181061,0.5729753375053406
1630932194334,0.2462319433689117,-0.4258788228034973,-0.3399569094181061,0.5729753375053406
1630932194447,0.2462319433689117,-0.4258788228034973,-0.3399569094181061,0.5729753375053406
1630932194557,0.2462319433689117,-0.4258788228034973,-0.3399569094181061,0.5729753375053406
1630932194646,0.2462319433689117,-0.4258788228034973,-0.3399569094181061,0.5729753375053406
1630932194737,0.2462319433689117,-0.4258788228034973,-0.3399569094181061,0.5729753375053406
1630932194862,0.2462319433689117,-0.4258788228034973,-0.3399569094181061,0.5729753375053406
1630932194962,0.2462319433689117,-0.4258788228034973,0.7373940348625183,0.5729753375053406
1630932195064,0.2462319433689117,-0.4258788228034973,0.7373940348625183,0.5729753375053406
1630932195152,0.2462319433689117,-0.4258788228034973,0.7373940348625183,0.5729753375053406
1630932195268,0.2462319433689117,-0.4258788228034973,0.7373940348625183,0.5729753375053406
1630932195338,0.2462319433689117,-0.4258788228034973,0.7373940348625183,0.5729753375053406
1630932195431,0.2462319433689117,-0.4258788228034973,0.7373940348625183,0.5729753375053406
1630932195569,0.2462319433689117,-0.4258788228034973,0.7373940348625183,0.5729753375053406
1630932195696,0.2462319433689117,-0.4258788228034973,0.7373940348625183,0.5729753375053406
1630932195769,0.2462319433689117,-0.4258788228034973,0.7373940348625183,0.5729753375053406
1630932195862,0.2462319433689117,-0.4258788228034973,0.7373940348625183,0.5729753375053406
1630932195954,0.2462319433689117,-0.4258788228034973,0.7373940348625183,0.5729753375053406
1630932196035,0.7546882629394531,-0.4258788228034973,0.7373940348625183,0.8631858229637146
1630932196197,0.7728800773620605,-0.4258788228034973,0.7373940348625183,0.880767822265625
1630932196283,0.7848568558692932,-0.4258788228034973,0.7373940348625183,0.8857166171073914
1630932196373,0.7848568558692932,-0.4258788228034973,0.7373940348625183,0.8857166171073914
1630932196505,0.7848568558692932,-0.4258788228034973,0.7373940348625183,0.8857166171073914
1630932196572,0.7848568558692932,-0.4258788228034973,0.7373940348625183,0.8857166171073914
1630932196633,0.7848568558692932,-0.4258788228034973,0.7373940348625183,0.8857166171073914
1630932196795,0.7848568558692932,-0.4258788228034973,0.7373940348625183,0.8857166171073914
1630932196881,0.7848568558692932,-0.4258788228034973,0.7373940348625183,0.8857166171073914
1630932196983,0.7848568558692932,-0.4258788228034973,0.7373940348625183,0.8857166171073914
1630932197065,0.7848568558692932,-0.4258788228034973,0.7373940348625183,0.8857166171073914
1630932197182,0.7848568558692932,-0.4258788228034973,0.7373940348625183,0.8857166171073914
1630932197290,0.7975567579269409,-0.4258788228034973,0.7373940348625183,0.9085426926612854
1630932197422,0.8126260638237,-0.4258788228034973,0.7373940348625183,0.926677405834198
1630932197515,0.8126260638237,-0.4258788228034973,0.7373940348625183,0.926677405834198
1630932197574,0.8126260638237,-0.4258788228034973,0.7373940348625183,0.926677405834198
1630932197670,0.8126260638237,-0.4258788228034973,0.7373940348625183,0.926677405834198
1630932197785,0.8126260638237,-0.4258788228034973,0.7373940348625183,0.926677405834198
1630932197872,0.8126260638237,-0.4258788228034973,0.7373940348625183,0.926677405834198
1630932198027,0.8126260638237,-0.4258788228034973,0.7373940348625183,0.926677405834198
1630932198118,0.8126260638237,-0.4258788228034973,0.7373940348625183,0.926677405834198
1630932198208,0.8126260638237,-0.4258788228034973,0.7373940348625183,0.926677405834198
1630932198320,0.8126260638237,-0.4258788228034973,0.7373940348625183,0.926677405834198
1630932198382,0.8126260638237,-0.4258788228034973,0.7373940348625183,0.926677405834198
1630932198496,0.8126260638237,-0.4258788228034973,0.7373940348625183,0.926677405834198
1630932198608,0.8126260638237,-0.4258788228034973,0.7373940348625183,0.926677405834198
1630932198722,0.8126260638237,-0.4258788228034973,0.7373940348625183,0.926677405834198
1630932198827,0.8126260638237,-0.4258788228034973,0.7373940348625183,0.926677405834198
1630932198897,0.8126260638237,-0.4258788228034973,0.7373940348625183,0.926677405834198
1630932199010,0.8126260638237,-0.4258788228034973,0.7373940348625183,0.926677405834198
1630932199096,0.8126260638237,-0.4258788228034973,0.7373940348625183,0.926677405834198
1630932199234,0.8126260638237,-0.4258788228034973,0.7373940348625183,0.926677405834198
1630932199301,0.8126260638237,-0.4258788228034973,0.7373940348625183,0.926677405834198
1630932199435,0.8126260638237,-0.4258788228034973,0.7373940348625183,0.926677405834198
1630932199529,0.8126260638237,-0.4258788228034973,0.7373940348625183,0.926677405834198
1630932199617,0.8126260638237,-0.4258788228034973,0.7373940348625183,0.926677405834198
1630932199705,0.8126260638237,-0.4258788228034973,0.7373940348625183,0.926677405834198
1630932199837,0.8126260638237,-0.4258788228034973,0.7373940348625183,0.926677405834198
1630932199923,0.8126260638237,-0.4258788228034973,0.7373940348625183,0.926677405834198
1630932200016,0.8126260638237,-0.4258788228034973,0.7373940348625183,0.926677405834198
1630932200133,0.8126260638237,-0.4258788228034973,0.7373940348625183,0.926677405834198
1630932200218,0.8126260638237,-0.1072342917323112,0.7373940348625183,0.926677405834198
1630932200309,0.8126260638237,-0.0852302089333534,0.7373940348625183,0.926677405834198
1630932200436,0.8126260638237,-0.0723415613174438,0.7373940348625183,0.926677405834198
1630932200530,0.8126260638237,-0.0610026903450489,0.7373940348625183,0.3514535129070282
1630932200622,0.8126260638237,-0.0673135891556739,0.7373940348625183,0.3361732959747314
1630932200728,0.8126260638237,-0.0838028416037559,0.7373940348625183,0.3120578825473785
1630932200824,0.8126260638237,-0.0954864248633384,0.7373940348625183,0.2890072166919708
1630932200940,0.8126260638237,-0.0954864248633384,0.7373940348625183,0.2734900712966919
1630932201112,0.8126260638237,-0.0954864248633384,0.7373940348625183,0.2646270394325256
1630932201181,0.8126260638237,-0.0954864248633384,0.7373940348625183,0.257928192615509
1630932201247,0.8126260638237,-0.0954864248633384,0.7373940348625183,0.2509054541587829
1630932201360,0.8126260638237,-0.0954864248633384,0.7373940348625183,0.2458434998989105
1630932201454,0.354957640171051,-0.0954864248633384,0.7373940348625183,0.2456418722867965
1630932201565,0.3282688558101654,-0.0954864248633384,0.7373940348625183,0.2510366141796112
1630932201682,0.308614045381546,-0.0936890095472335,0.7373940348625183,0.2611754536628723
1630932201768,0.308614045381546,-0.099787063896656,-0.1858667731285095,0.2713623046875
1630932201855,0.308614045381546,-0.1210077181458473,-0.1966701447963714,0.2785952985286712
1630932201956,0.308614045381546,-0.1071536540985107,-0.1891952455043792,0.2795851826667785
1630932202052,0.3133573532104492,-0.0572722852230072,-0.1732801496982574,0.2779776155948639
1630932202187,0.3137300610542297,-0.0049843369051814,-0.1605633497238159,0.2793110013008117
1630932202297,0.3064320981502533,0.0265306122601032,-0.155410960316658,0.2840273082256317
1630932202373,0.2935177385807037,0.0364959314465522,-0.1556958854198455,0.2891795933246612
1630932202474,0.2793135344982147,0.0110082598403096,-0.1581765711307525,0.2970522046089172
1630932202567,0.2670647799968719,-0.0016745293978601,-0.1604955941438675,0.3160375356674194
1630932202652,0.2445266097784042,-0.0040668025612831,-0.1620455831289291,0.3482155501842499
1630932202762,0.2206373214721679,-0.0060052280314266,-0.1634527444839477,0.3846679329872131
1630932202900,0.2027452141046524,-0.0154196321964263,-0.1653753966093063,0.4149887263774872
1630932203015,0.1964713335037231,-0.0328081510961055,-0.1700367033481598,0.4361994862556457
1630932203077,0.1981482952833175,-0.0537550747394561,-0.1695714443922042,0.4505160748958587
1630932203185,0.2000866830348968,-0.074478879570961,-0.1603487282991409,0.4583110809326172
1630932203263,0.2016875296831131,-0.0936476737260818,-0.14458829164505,0.4584349393844604
1630932203373,0.2076482623815536,-0.0936476737260818,-0.1295734345912933,0.452490359544754
1630932203501,0.2076482623815536,-0.1057071089744567,-0.1224804446101188,0.4443963170051574
1630932203594,0.1954959630966186,-0.1309145390987396,-0.1248524859547615,0.4369988441467285
1630932203686,0.1837281584739685,-0.1592096239328384,-0.1331760287284851,0.4313496351242065
1630932203782,0.1778989285230636,-0.1697961837053299,-0.1426207721233368,0.4285477995872497
1630932203863,0.1800425350666046,-0.172370970249176,-0.1508881449699401,0.428872287273407
1630932203958,0.1877448260784149,-0.1789818704128265,-0.1566829234361648,0.4291576743125915
1630932204133,0.1972662210464477,-0.1962299644947052,-0.1595552563667297,0.4255892932415008
1630932204203,0.2078244984149933,-0.2218146622180938,-0.1570241451263427,0.4104044735431671
1630932204301,0.219127744436264,-0.2431826889514923,-0.1478057503700256,0.3857350647449493
1630932204396,0.2898779213428497,-0.2476019263267517,-0.1326464414596557,0.3591256737709045
1630932204490,0.3438919186592102,-0.2320082336664199,-0.1132571771740913,0.333947479724884
1630932204585,0.3833561837673187,-0.2011935710906982,-0.0920291617512703,0.3073073029518127
1630932204715,0.4109531044960022,-0.1610469818115234,-0.0730320513248443,0.2790213525295257
1630932204849,0.429279625415802,-0.1196880117058754,-0.059045135974884,0.2557814121246338
1630932204914,0.4375331103801727,-0.1079554408788681,-0.0497752390801906,0.2441297024488449
1630932205006,0.4201803803443908,-0.1052519604563713,-0.0423699095845222,0.2460388541221618
1630932205098,0.4201803803443908,-0.1055212169885635,-0.0347211584448814,0.2605316340923309
1630932205207,0.4201803803443908,-0.1031675785779953,-0.0282716769725084,0.2841185927391052
1630932205314,0.4201803803443908,-0.0985568687319755,-0.023376515135169,0.2675375640392303
1630932205428,0.3797028660774231,-0.0899970978498458,-0.0155504429712891,0.2512892186641693
1630932205518,0.3511259257793426,-0.0792844146490097,-0.0006572457496076,0.2299760729074478
1630932205610,0.3354369103908539,-0.0695948675274849,0.0190483294427394,0.1772086024284362
1630932205713,0.3311630189418793,-0.0628962516784668,0.0359305068850517,0.1938473284244537
1630932205809,0.3311630189418793,-0.0599757619202137,0.0451202131807804,0.2020585834980011
1630932205949,0.3087732791900635,-0.0588256642222404,0.0482079461216926,0.2034808099269867
1630932206054,0.2814758419990539,-0.0595703646540641,0.0506776496767997,0.2033853083848953
1630932206157,0.2517909407615661,-0.0652141273021698,0.0585405975580215,0.2099924683570861
1630932206234,0.2493074238300323,-0.0774711370468139,0.0740857124328613,0.2331628650426864
1630932206332,0.2534687519073486,-0.0923541933298111,0.0930728986859321,0.2722195088863373
1630932206443,0.251209557056427,-0.1001024171710014,0.1081180274486541,0.3130997717380523
1630932206547,0.2405198067426681,-0.1021720096468925,0.1154391542077064,0.340360552072525
1630932206637,0.2405198067426681,-0.1016048043966293,0.1182746216654777,0.340360552072525
1630932206731,0.2405198067426681,-0.0973045900464057,0.123786024749279,0.340360552072525
1630932206839,0.2405198067426681,-0.1007716655731201,0.1344324648380279,0.355959415435791
1630932206933,0.2741922736167907,-0.1085793599486351,0.1462735086679458,0.3706361353397369
1630932207007,0.3059882819652557,-0.11506949365139,0.153494507074356,0.383929431438446
1630932207171,0.3299925625324249,-0.1168133467435836,0.1533941626548767,0.3969557583332062
1630932207267,0.3403416872024536,-0.114541083574295,0.1473565697669983,0.4118622541427612
1630932207355,0.3403416872024536,-0.1101599857211113,0.1391160935163498,0.4315930604934692
1630932207441,0.3403416872024536,-0.1068348214030265,0.1313783228397369,0.459417462348938
1630932207553,0.3403416872024536,-0.1048241704702377,0.1227056384086608,0.4965465366840362
1630932207619,0.3403416872024536,-0.103262573480606,0.1077098920941352,0.5399690270423889
1630932207759,0.3403416872024536,-0.1018609702587127,0.0834981277585029,0.5399690270423889
1630932207864,0.3403416872024536,-0.1014193519949913,0.0549913793802261,0.5399690270423889
1630932207958,0.3403416872024536,-0.1054281219840049,0.0334561094641685,0.5399690270423889
1630932208046,0.3403416872024536,-0.1088930368423461,0.0279845837503671,0.5399690270423889
1630932208165,0.3403416872024536,-0.1124042868614196,0.0373420417308807,0.5399690270423889
1630932208249,-0.1063299104571342,-0.1210482344031333,0.0522323213517665,0.2763651311397552
1630932208364,-0.0635217428207397,-0.123376540839672,0.064408041536808,0.2797675430774688
1630932208482,-0.0531048960983753,-0.1159893572330474,0.071527361869812,0.287061482667923
1630932208586,-0.0687979906797409,-0.0989150404930114,0.0772859007120132,0.2911396324634552
1630932208648,-0.0957288220524787,-0.0768357515335083,0.0868707820773124,0.2869020700454712
1630932208742,-0.1199763715267181,-0.0580618269741535,0.0998634621500969,0.2727009952068329
1630932208829,-0.1353192925453186,-0.0497761778533458,0.1099515184760093,0.2518288493156433
1630932209026,-0.1407592445611953,-0.0525508187711238,0.1115553528070449,0.2318165153264999
1630932209098,-0.1406674534082412,-0.0604800432920455,0.1052421182394027,0.2224030941724777
1630932209196,-0.1412116885185241,-0.0659076794981956,0.0973585918545723,0.2279038727283477
1630932209267,-0.14515320956707,-0.0661858469247818,0.0935549363493919,0.2430478036403656
1630932209364,-0.1487544476985931,-0.0632073134183883,0.0950185805559158,0.2578437030315399
1630932209504,-0.140723779797554,-0.0595085881650447,0.0977557525038719,0.2598246932029724
1630932209590,-0.1223337575793266,-0.0566945821046829,0.0958839952945709,0.2605331540107727
1630932209682,-0.1058364659547805,-0.0565571598708629,0.0851488932967186,0.2595087587833404
1630932209811,-0.0997105836868286,-0.0602889321744442,0.0656958818435669,0.256828099489212
1630932209902,-0.0994748175144195,-0.0675728395581245,0.0422442182898521,0.2548774182796478
1630932209979,-0.092943787574768,-0.0790465623140335,0.0206345170736312,0.2592730522155761
1630932210061,-0.0725268945097923,-0.0984117537736892,0.0044515579938888,0.2750675976276397
1630932210201,-0.0417243503034114,-0.128261998295784,-0.0046456102281808,0.3009853363037109
1630932210333,-0.0087722921743988,-0.1634239107370376,-0.0042311986908316,0.3304213881492615
1630932210462,0.0196081511676311,-0.1923817843198776,0.0075813666917383,0.3561647534370422
1630932210532,0.0317184440791606,-0.2081772238016128,0.0280007719993591,0.3741483986377716
1630932210602,0.0424767881631851,-0.2155349105596542,0.0504610650241375,0.3820809423923492
1630932210680,0.0551295578479766,-0.2225288599729538,0.0676176771521568,0.3789488077163696
1630932210828,0.0723217949271202,-0.2320049107074737,0.0761864110827446,0.3662489056587219
1630932210939,0.092227004468441,-0.241373136639595,0.0768987908959388,0.3494304716587066
1630932211023,0.1086442768573761,-0.2473808079957962,0.0732884928584098,0.3352172374725342
1630932211093,0.1422711908817291,-0.2477230131626129,0.0693279206752777,0.3255443274974823
1630932211235,0.1687679141759872,-0.2439985871315002,0.067498467862606,0.3183128237724304
1630932211312,0.1885957270860672,-0.2401794046163559,0.0686566978693008,0.3103640377521515
1630932211432,0.1999315768480301,-0.2400392889976501,0.0721285566687583,0.2988365888595581
1630932211520,0.2016945481300354,-0.2436723858118057,0.0751999616622924,0.2800593674182892
1630932211621,0.1949514597654342,-0.2458274215459823,0.0730198100209236,0.2521226108074188
1630932211719,0.1823689937591552,-0.2410251796245575,0.0613034926354885,0.221053197979927
1630932211817,0.167610302567482,-0.2299558222293853,0.0386623404920101,0.2001058310270309
1630932211891,0.1562770307064056,-0.2180964946746826,0.0077730254270136,0.1986760646104812
1630932212054,0.1513433009386062,-0.2077357918024063,-0.0250871479511261,0.2141379565000534
1630932212147,0.1501691788434982,-0.1961085647344589,-0.0530657470226287,0.2378714084625244
1630932212233,0.151419460773468,-0.1817532628774643,-0.0724708810448646,0.2651881277561188
1630932212317,0.154635414481163,-0.1685789972543716,-0.0847882330417633,0.2959897816181183
1630932212409,0.158205434679985,-0.1634491682052612,-0.0948709994554519,0.3303061723709106
1630932212521,0.1614988148212433,-0.1698640137910843,-0.1060618162155151,0.3650324642658233
1630932212649,0.1534189283847808,-0.1855029314756393,-0.1180576756596565,0.3962954878807068
1630932212746,0.1442991495132446,-0.2015630304813385,-0.1274188458919525,0.4224573671817779
1630932212837,0.1380017101764679,-0.2095908373594284,-0.1301587074995041,0.4439296722412109
1630932212923,0.1378941982984542,-0.2075385600328445,-0.1244435533881187,0.4620623886585235
1630932213017,0.1443090885877609,-0.2010112553834915,-0.1131475418806076,0.4772039651870727
1630932213101,0.1523947566747665,-0.1976424902677536,-0.1013603806495666,0.4945088028907776
1630932213261,0.1627847701311111,-0.2008545994758606,-0.0918488577008247,0.5095683336257935
1630932213325,0.173307329416275,-0.2085216641426086,-0.0840820893645286,0.5198426246643066
1630932213442,0.182310864329338,-0.2154902666807174,-0.0748400092124939,0.5249819159507751
1630932213523,0.1893999576568603,-0.2191627472639084,-0.0634500458836555,0.5269137620925903
1630932213640,0.1947285383939743,-0.2213251590728759,-0.0525173656642437,0.5278303623199463
1630932213702,0.1983124166727066,-0.2258026897907257,-0.0440247803926467,0.5278636813163757
1630932213866,0.1992802619934082,-0.2336891442537307,-0.0363083407282829,0.5250263810157776
1630932213955,0.1988038569688797,-0.2406029254198074,-0.0268258918076753,0.5157690048217773
1630932214070,0.1975210756063461,-0.2385069280862808,-0.016780212521553,0.4984819293022156
1630932214138,0.195192277431488,-0.2243659645318985,-0.0105289667844772,0.4760056734085083
1630932214246,0.195192277431488,-0.203998327255249,-0.001786618726328,0.4760056734085083
1630932214327,0.195192277431488,-0.1980607062578201,0.0039791213348507,0.4760056734085083
1630932214513,0.195192277431488,-0.1984031498432159,0.0030895110685378,0.4760056734085083
1630932214619,0.195192277431488,-0.2036846429109573,-0.0211407523602247,0.4760056734085083
1630932214665,0.195192277431488,-0.2094374448060989,-0.0473623760044574,0.3411214053630829
1630932214781,0.195192277431488,-0.2105827331542968,-0.0585777461528778,0.3477709591388702
1630932214849,0.195192277431488,-0.2048806250095367,-0.0627985075116157,0.3501148521900177
1630932214960,0.195192277431488,-0.1942785680294037,-0.060694184154272,0.3548032343387604
1630932215091,0.195192277431488,-0.1838382482528686,-0.0565477237105369,0.3597640097141266
1630932215181,0.195192277431488,-0.1786614507436752,-0.0553765892982482,0.3616998791694641
1630932215252,0.195192277431488,-0.1787022799253463,-0.0603044517338275,0.3593315780162811
1630932215383,0.195192277431488,-0.1736003011465072,-0.0763372853398323,0.3532191216945648
1630932215451,0.195192277431488,-0.1736003011465072,-0.1105214282870292,0.3454225659370422
1630932215549,0.1166055276989936,-0.1736003011465072,-0.1105214282870292,0.3412811458110809
1630932215696,0.117750734090805,-0.1736003011465072,-0.1105214282870292,0.3449054658412933
1630932215789,0.120586447417736,-0.1736003011465072,-0.1105214282870292,0.355325698852539
1630932215869,0.1261977255344391,-0.1736003011465072,-0.1105214282870292,0.3739137053489685
1630932215970,0.1345672458410263,-0.1736003011465072,-0.1105214282870292,0.3837594091892242
1630932216067,0.1447086781263351,-0.1736003011465072,-0.1105214282870292,0.3867205083370209
1630932216150,0.1546718776226043,-0.1736003011465072,-0.1105214282870292,0.3904151618480682
1630932216313,0.1626254171133041,-0.1736003011465072,-0.1105214282870292,0.3976170122623443
1630932216397,0.166714534163475,-0.1736003011465072,-0.1105214282870292,0.4032677710056305
1630932216484,0.1650014519691467,-0.1736003011465072,-0.1105214282870292,0.4018924832344055
1630932216603,0.1566629409790039,-0.1736003011465072,-0.1105214282870292,0.3947505950927734
1630932216665,0.1435815691947937,-0.1736003011465072,-0.1105214282870292,0.3869691789150238
1630932216784,0.1328308880329132,-0.1736003011465072,0.0770703330636024,0.3816693425178528
1630932216917,0.1201901063323021,-0.1736003011465072,0.0839873850345611,0.3793384134769439
1630932217070,0.10864969342947,-0.0261502955108881,0.0884187743067741,0.3799044489860534
1630932217118,0.0989481508731842,-0.0154387596994638,0.0891264900565147,0.3857676386833191
1630932217213,0.0945572033524513,-0.0240998025983572,0.0898207649588584,0.3854823112487793
1630932217287,0.0915589928627014,-0.0337430350482463,0.0989673137664794,0.3766137361526489
1630932217378,0.0859626233577728,-0.0329733379185199,0.1228868141770362,0.3629104197025299
1630932217508,0.0761589780449867,-0.0264593306928873,0.1589450091123581,0.3510203659534454
1630932217598,0.0605962909758091,-0.0239126719534397,0.1986140608787536,0.3411367535591125
1630932217753,0.0385320484638214,-0.0269907377660274,0.2362860143184662,0.3255168497562408
1630932217803,0.0100021986290812,-0.0299975778907537,0.2708110511302948,0.2994495630264282
1630932217912,-0.0228254459798336,-0.0280602946877479,0.3002009987831116,0.2694670259952545
1630932218019,-0.0528770312666893,-0.0209151431918144,0.3335402309894562,0.2489240318536758
1630932218114,-0.0684853792190551,-0.0100316498428583,0.3564061522483825,0.2439658492803573
1630932218255,-0.0626122206449508,0.012254842557013,0.3704903125762939,0.2439658492803573
1630932218337,0.0211642365902662,0.0315361991524696,0.3804595172405243,0.2439658492803573
1630932218431,0.1003570780158042,0.0408516712486743,0.3886238634586334,0.2439658492803573
1630932218530,0.1530621200799942,0.0402106717228889,0.3940367102622986,0.2439658492803573
1630932218603,0.1699727922677993,0.0366695709526538,0.3958536684513092,0.2439658492803573
1630932218763,0.1944672912359237,0.0360629074275493,0.3937359452247619,0.2439658492803573
1630932218855,0.1944672912359237,0.0366387031972408,0.3865601420402527,0.2439658492803573
1630932218920,0.1944672912359237,0.0331599116325378,0.3717929124832153,0.2439658492803573
1630932219056,0.1531012654304504,0.0246777832508087,0.3480701446533203,0.2793199419975281
1630932219133,0.1268246620893478,0.0160891972482204,0.3169111311435699,0.3069704473018646
1630932219204,0.1043700948357582,0.0125861773267388,0.2799263298511505,0.3069704473018646
1630932219350,0.0836431384086608,0.0161379482597112,0.2363902181386947,0.3069704473018646
1630932219430,0.0836431384086608,0.0245781932026147,0.1862997412681579,0.3069704473018646
1630932219582,0.0836431384086608,0.0321178622543811,0.1344067156314849,0.3069704473018646
1630932219640,0.0836431384086608,0.0323735438287258,0.0877365842461586,0.3069704473018646
1630932219725,0.0836431384086608,0.0234950948506593,0.0472574532032012,0.3069704473018646
1630932219813,0.0613985024392604,0.0107231773436069,0.0071194316260516,0.3069704473018646
1630932219945,0.0176425501704216,0.0038763436023145,-0.0340044498443603,0.3069704473018646
1630932220035,-0.0350559055805206,0.0066587589681148,-0.0676449611783027,0.3069704473018646
1630932220176,-0.0655247941613197,0.013528199866414,-0.0860458463430404,0.3069704473018646
1630932220269,-0.0655247941613197,0.018440868705511,-0.0916821360588073,0.2844331264495849
1630932220352,-0.0655247941613197,0.0215230342000722,-0.0941757708787918,0.2844331264495849
1630932220452,-0.0655247941613197,0.027318000793457,-0.0987062901258468,0.2844331264495849
1630932220585,-0.0655247941613197,0.0389860309660434,-0.1044877767562866,0.2844331264495849
1630932220678,-0.0655247941613197,0.0553243979811668,-0.111015684902668,0.2844331264495849
1630932220783,-0.0655247941613197,0.0711308047175407,-0.1198657304048538,0.2844331264495849
1630932220845,-0.0655247941613197,0.0786899849772453,-0.1325448751449585,0.1856359988451004
1630932220935,-0.0655247941613197,0.0725549161434173,-0.147863894701004,0.2260078191757202
1630932221027,-0.0655247941613197,0.0535435900092124,-0.1623790115118026,0.2720902562141418
1630932221187,-0.0655247941613197,0.0283817183226346,-0.1733359545469284,0.3066966831684112
1630932221249,-0.0655247941613197,0.0029698999132961,-0.1789868324995041,0.3270522356033325
1630932221353,-0.0655247941613197,-0.0215956177562475,-0.1782649606466293,0.3407931923866272
1630932221442,-0.0655247941613197,-0.047099906951189,-0.1738062053918838,0.356114387512207
1630932221534,-0.0655247941613197,-0.0715138018131256,-0.1720452755689621,0.3740135729312897
1630932221645,-0.0655247941613197,-0.0886299535632133,-0.1753495633602142,0.3893969357013702
1630932221779,-0.0655247941613197,-0.0954661518335342,-0.1771727502346038,0.3969272673130035
1630932221866,-0.0655247941613197,-0.0963871255517005,-0.168036088347435,0.3955028355121612
1630932221964,-0.0655247941613197,-0.099347099661827,-0.1470750719308853,0.3889386355876922
1630932222090,-0.0655247941613197,-0.1102024316787719,-0.124087743461132,0.3915598392486572
1630932222183,-0.0655247941613197,-0.131177544593811,-0.1064585223793983,0.3991620540618896
1630932222249,-0.0655247941613197,-0.160641148686409,-0.0921546891331672,0.4080553948879242
1630932222383,-0.0655247941613197,-0.1922026574611663,-0.07582838088274,0.4117699563503265
1630932222481,-0.0655247941613197,-0.2161014825105667,-0.0567746609449386,0.4061263799667358
1630932222631,-0.0655247941613197,-0.2250702083110809,-0.0389964841306209,0.3925848007202148
1630932222672,-0.0655247941613197,-0.2208384126424789,-0.0257891453802585,0.3755422532558441
1630932222776,-0.0655247941613197,-0.2099010199308395,-0.0162794739007949,0.3572835624217987
1630932222880,-0.0655247941613197,-0.1987495571374893,-0.0087743829935789,0.3359591662883758
1630932223015,-0.0655247941613197,-0.1903067231178283,-0.0028945840895175,0.3093281984329223
1630932223109,-0.0655247941613197,-0.1842040568590164,0.0017220857553184,0.2893568575382232
1630932223196,-0.0655247941613197,-0.1772245168685913,0.0076176412403583,0.2638676762580871
1630932223280,-0.0655247941613197,-0.1666744947433471,0.0201933607459068,0.2401134222745895
1630932223371,-0.0655247941613197,-0.1522847265005111,0.0443929806351661,0.2252909839153289
1630932223472,-0.0655247941613197,-0.1356355845928192,0.078154370188713,0.2188662588596344
1630932223648,-0.0655247941613197,-0.1166708022356033,0.0797135308384895,0.2122032046318054
1630932223720,-0.0655247941613197,-0.0937436819076538,0.0832622572779655,0.1973890364170074
1630932223811,-0.0655247941613197,-0.0656788870692253,0.0877781584858894,0.173932671546936
1630932223896,-0.0655247941613197,-0.0337040685117244,0.0907879620790481,0.148018404841423
1630932223984,-0.0655247941613197,-0.0014681096654385,0.092263177037239,0.1242605969309806
1630932224072,-0.0655247941613197,0.0281316116452217,0.0959736555814743,0.0983406528830528
1630932224216,-0.0655247941613197,0.0454968325793743,0.1069643571972847,0.0983406528830528
1630932224322,-0.0655247941613197,0.0647541359066963,0.1258486211299896,0.0983406528830528
1630932224416,-0.0655247941613197,0.085417129099369,0.364370048046112,0.0983406528830528
1630932224501,-0.0655247941613197,0.1066687926650047,0.4896555542945862,0.0983406528830528
1630932224603,0.2764362394809723,0.127358004450798,0.5584346055984497,0.4260767102241516
1630932224686,0.2790767550468445,0.1451663076877594,0.6032488942146301,0.4617019891738891
1630932224853,0.2715858817100525,0.1753414124250412,0.6394858360290527,0.4984085857868194
1630932224933,0.2597596347332001,0.2169205695390701,0.6692637801170349,0.5240427255630493
1630932225013,0.2439785301685333,0.2519470751285553,0.6905083060264587,0.537519097328186
1630932225136,0.2241555303335189,0.2682356536388397,0.6905083060264587,0.5407543778419495
1630932225218,0.2031322717666626,0.2677516043186188,0.6905083060264587,0.5355361104011536
1630932225286,0.1853756606578827,0.2626555860042572,0.6905083060264587,0.5228738784790039
1630932225464,0.1738703697919845,0.2645013034343719,0.6905083060264587,0.5044450759887695
1630932225524,0.1703886538743972,0.2785178422927856,0.6587386727333069,0.4838280379772186
1630932225637,0.1703886538743972,0.3045661449432373,0.6403089761734009,0.4838280379772186
1630932225732,0.1703886538743972,0.3224910199642181,0.6403089761734009,0.4838280379772186
1630932225826,0.1691427826881408,0.3358052372932434,0.6403089761734009,0.4863549470901489
1630932225906,0.1605769842863083,0.3409050107002258,0.596585214138031,0.4943162500858307
1630932226050,0.1407199949026107,0.3382844030857086,0.5577374696731567,0.5039550065994263
1630932226149,0.1134259551763534,0.3306280076503753,0.5369730591773987,0.507220447063446
1630932226229,0.085404448211193,0.3199723064899444,0.5292909145355225,0.4971054196357727
1630932226343,0.0597380250692367,0.3075399100780487,0.5172457695007324,0.4709285795688629
1630932226414,0.0357475839555263,0.2986438572406769,0.5172457695007324,0.4316584169864654
1630932226498,0.018307127058506,0.2883144021034241,0.5172457695007324,0.3811515271663666
1630932226679,0.0176320783793926,0.2875259518623352,0.5172457695007324,0.3194382786750793
1630932226747,0.0176320783793926,0.2989833950996399,0.5172457695007324,0.3194382786750793
1630932226841,0.0176320783793926,0.3145443797111511,0.5172457695007324,0.3194382786750793
1630932226955,0.0176320783793926,0.3246055841445923,0.5172457695007324,0.3194382786750793
1630932227038,0.0176320783793926,0.3239482939243316,0.5172457695007324,0.3194382786750793
1630932227122,0.0176320783793926,0.309287428855896,0.5172457695007324,0.3194382786750793
1630932227275,0.0176320783793926,0.2788583934307098,0.5172457695007324,0.3194382786750793
1630932227350,0.0176320783793926,0.2041617929935455,0.5172457695007324,0.3194382786750793
1630932227480,0.3661161065101623,0.1349498629570007,0.5172457695007324,0.3194382786750793
1630932227566,0.3779444396495819,0.0706543028354644,0.5172457695007324,0.3194382786750793
1630932227636,0.3779444396495819,0.0345484763383865,0.5172457695007324,0.3455000817775726
1630932227735,0.3779444396495819,0.0055390945635735,0.5172457695007324,0.3455000817775726
1630932227886,0.3779444396495819,0.0055390945635735,0.5172457695007324,0.3455000817775726
1630932227987,0.3779444396495819,0.0055390945635735,0.5172457695007324,0.3455000817775726
1630932228071,0.3779444396495819,0.0055390945635735,0.5172457695007324,0.3455000817775726
1630932228169,0.3779444396495819,-0.0404098220169544,0.1543803811073303,0.3680804073810577
1630932228255,0.3779444396495819,-0.0683799535036087,0.1563935875892639,0.3897621631622314
1630932228371,0.3291295170783996,-0.0907241031527519,0.1448600888252258,0.4098847508430481
1630932228491,0.2956223487854004,-0.1064121350646019,0.1237224712967872,0.4272913038730621
1630932228587,0.2764011025428772,-0.1180227324366569,0.0990583971142768,0.4388652741909027
1630932228671,0.271174818277359,-0.1307864338159561,0.077195756137371,0.4416589736938476
1630932228774,0.2474696189165115,-0.1471214145421981,0.0609117113053798,0.4354418814182281
1630932228853,0.2023501843214035,-0.188228577375412,0.0488932579755783,0.4361976683139801
1630932228945,0.1434416025876999,-0.2399124652147293,0.0382114201784133,0.4346458315849304
1630932229141,0.0890172272920608,-0.283081591129303,0.0276932157576084,0.4258937537670135
1630932229179,0.1015262454748153,-0.2930241227149963,0.0185612142086029,0.4042828381061554
1630932229315,0.1139957904815673,-0.2972016930580139,0.0116341421380639,0.3903113901615143
1630932229382,0.1202322095632553,-0.2970085144042969,-0.0009002140723168,0.3760841786861419
1630932229461,0.1198468580842018,-0.2942162454128265,-0.0197258125990629,0.3626697957515716
1630932229567,0.1157450675964355,-0.2893373668193817,-0.0445678010582923,0.3518087565898895
1630932229705,0.1108230128884315,-0.29135861992836,-0.0695258229970932,0.3355075418949127
1630932229820,0.1069390252232551,-0.2902487516403198,-0.0872272551059722,0.3148794770240783
1630932229903,0.1155476197600364,-0.2897323668003082,-0.0961969643831253,0.2874344289302826
1630932230001,0.125306099653244,-0.2927615344524383,-0.100851722061634,0.2539188265800476
1630932230078,0.1329649537801742,-0.2966477274894714,-0.1058658137917518,0.2211310416460037
1630932230188,0.1373500972986221,-0.2949528396129608,-0.1130671128630638,0.1982889771461486
1630932230305,0.1393746584653854,-0.2848480939865112,-0.1215006187558174,0.1890390068292617
1630932230421,0.1396762579679489,-0.2681302726268768,-0.1296268701553344,0.1907871216535568
1630932230509,0.1362804472446441,-0.2482452392578125,-0.1372733265161514,0.200242131948471
1630932230612,0.1262386590242386,-0.2287622839212417,-0.1460549533367157,0.2189114689826965
1630932230680,0.1102574691176414,-0.2110390812158584,-0.1587055325508117,0.2493177354335785
1630932230782,0.0940954610705375,-0.1955983787775039,-0.1747522950172424,0.2858017086982727
1630932230904,0.0840840637683868,-0.1816124469041824,-0.1868120729923248,0.3176032602787018
1630932231016,0.0809895917773246,-0.1682448238134384,-0.1854207813739776,0.3373886942863464
1630932231111,0.0816889777779579,-0.1556670069694519,-0.1711633205413818,0.3449313640594482
1630932231202,0.0858201310038566,-0.1447125822305679,-0.1552605032920837,0.3465973138809204
1630932231308,0.0943117812275886,-0.1362031996250152,-0.1490382701158523,0.3493680953979492
1630932231403,0.1036378741264343,-0.1309253722429275,-0.1545623987913131,0.3553363978862762
1630932231532,0.1062750145792961,-0.1300202757120132,-0.163028597831726,0.3611023128032684
1630932231620,0.0991941466927528,-0.1337394565343856,-0.1635137498378753,0.3610974252223968
1630932231711,0.0875888466835022,-0.1416969746351242,-0.1513988226652145,0.3524340689182281
1630932231825,0.0819192975759506,-0.152456060051918,-0.1302399933338165,0.3368566036224365
1630932231916,0.087390549480915,-0.1638365983963012,-0.1048872545361518,0.3170116245746612
1630932232004,0.1003134921193122,-0.1735449284315109,-0.0786440670490264,0.2936389446258545
1630932232137,0.116752803325653,-0.1784776151180267,-0.0537528023123741,0.2656591534614563
1630932232247,0.1363127529621124,-0.1751880198717117,-0.032653734087944,0.2329245805740356
1630932232337,0.157912477850914,-0.1648648083209991,-0.0184147097170352,0.2004136592149734
1630932232429,0.1772805005311966,-0.1546152383089065,-0.0128467343747615,0.1755746752023697
1630932232520,0.1902021318674087,-0.1526820659637451,-0.0153855020180344,0.1619065105915069
1630932232605,0.1961644142866134,-0.1629473716020584,-0.0230368003249168,0.1547533571720123
1630932232741,0.1947112828493118,-0.1824286729097366,-0.0310811158269643,0.1451516598463058
1630932232847,0.1849942803382873,-0.2039505094289779,-0.0351327992975711,0.1286974102258682
1630932232919,0.1682537347078323,-0.2212463021278381,-0.0338552966713905,0.1095143780112266
1630932233028,0.1511930376291275,-0.2305452525615692,-0.0300293732434511,0.096420869231224
1630932233150,0.1403463035821914,-0.2312050908803939,-0.0283109135925769,0.0977939814329147
1630932233229,0.1351865231990814,-0.223144456744194,-0.0307055916637182,0.1169762760400772
1630932233372,0.1295738220214843,-0.207307368516922,-0.0351111888885498,0.1509139984846115
1630932233467,0.1191741302609443,-0.1885353028774261,-0.0395820140838623,0.1917097568511963
1630932233545,0.1050842553377151,-0.1745302677154541,-0.0447832867503166,0.2293312400579452
1630932233658,0.0874728932976722,-0.1704901903867721,-0.052830621600151,0.2541702091693878
1630932233735,0.0638825893402099,-0.1766519993543625,-0.0627366378903389,0.262126475572586
1630932233838,0.0344150736927986,-0.1862912774085998,-0.0691516697406768,0.2581890821456909
1630932233971,0.0071325334720313,-0.192313015460968,-0.0689938142895698,0.2548965811729431
1630932234065,-0.0073902555741369,-0.1916724741458892,-0.0663551837205886,0.26329305768013
1630932234155,-0.0094775455072522,-0.1864442080259323,-0.0678299590945243,0.2830013334751129
1630932234238,-0.0082549145445227,-0.1800984740257263,-0.0761981010437011,0.3047138750553131
1630932234348,-0.0101111838594079,-0.1727381199598312,-0.0880156978964805,0.3216330409049988
1630932234438,-0.0143093671649694,-0.1609344035387039,-0.0966880321502685,0.3326771259307861
1630932234603,-0.0183764044195413,-0.1449199169874191,-0.0998788923025131,0.3397471010684967
1630932234670,-0.0212979074567556,-0.1300472766160965,-0.1012842580676078,0.3438700735569
1630932234784,-0.0219030249863863,-0.1237772554159164,-0.1065016761422157,0.3447049260139465
1630932234884,-0.0195319317281246,-0.1296872645616531,-0.1160882785916328,0.341097742319107
1630932234999,-0.0160840190947055,-0.1450238674879074,-0.1232603639364242,0.3328560888767242
1630932235079,-0.0150317922234535,-0.1632714122533798,-0.1207429617643356,0.3230209350585937
1630932235186,-0.0176513977348804,-0.1793410331010818,-0.1097418367862701,0.315732330083847
1630932235265,-0.0230648387223482,-0.1914019584655761,-0.0989413484930992,0.3125723600387573
1630932235370,-0.0314714573323726,-0.1998050659894943,-0.0936827361583709,0.3090262413024902
1630932235470,-0.0455736219882965,-0.2031222432851791,-0.0908843427896499,0.2976205945014953
1630932235562,-0.06476940959692,-0.2007645368576049,-0.0847701951861381,0.2751063406467438
1630932235678,-0.0817537605762481,-0.1959379017353058,-0.0750076845288276,0.2469494193792343
1630932235811,-0.087917186319828,-0.19376240670681,-0.0656113773584365,0.2238326668739318
1630932235888,-0.0834698230028152,-0.1976748257875442,-0.0584419034421443,0.2130893319845199
1630932235962,-0.0770337134599685,-0.2072098404169082,-0.0515780858695507,0.2175436168909073
1630932236075,-0.0772218257188797,-0.2177899032831192,-0.0420030876994133,0.2342137098312378
1630932236212,-0.0862825736403465,-0.2254067063331604,-0.0272049717605114,0.2553273141384125
1630932236279,-0.1029323637485504,-0.2272116541862487,-0.0090003609657287,0.2701670229434967
1630932236404,-0.1241106539964675,-0.2246065288782119,0.0079544819891452,0.2728928029537201
1630932236505,-0.1435859948396682,-0.220277801156044,0.018157348036766,0.2686125040054321
1630932236605,-0.1509795933961868,-0.2161883562803268,0.0201436839997768,0.2665232717990875
1630932236676,-0.1393603682518005,-0.2130914628505706,0.0176393613219261,0.2721036374568939
1630932236779,-0.1134432554244995,-0.2139280885457992,0.0170656293630599,0.2843013703823089
1630932236901,-0.0852583423256874,-0.2245868295431137,0.0196466669440269,0.3000376522541046
1630932237034,-0.0614424683153629,-0.248189315199852,0.0224670935422182,0.3184941112995147
1630932237099,-0.0413559563457965,-0.2790970504283905,0.022313293069601,0.3419099748134613
1630932237219,-0.0229698736220598,-0.3016992807388305,0.0205705482512712,0.3716824948787689
1630932237300,-0.005091349594295,-0.3033599853515625,0.0209955964237451,0.405355155467987
1630932237396,0.0143238687887787,-0.2890777289867401,0.0233015175908803,0.4362540543079376
1630932237485,0.0375911891460418,-0.2762928307056427,0.0227692518383264,0.4558644592761993
1630932237614,0.0640455484390258,-0.2773341238498688,0.0160432700067758,0.4603129029273987
1630932237708,0.0902686044573783,-0.2909769415855407,0.0039926990866661,0.4544314742088318
1630932237797,0.1129204034805297,-0.3081788122653961,-0.0085788825526833,0.448906272649765
1630932237922,0.1319196820259094,-0.3211110532283783,-0.019740929827094,0.4506829977035522
1630932238023,0.1481550633907318,-0.3292926251888275,-0.0322500877082347,0.4570951759815216
1630932238090,0.1623562723398208,-0.3347730636596679,-0.0492735803127288,0.4607239067554474
1630932238242,0.1726808398962021,-0.3366138339042663,-0.0688048526644706,0.4587614834308624
1630932238333,0.1789428144693374,-0.3317402005195617,-0.0859050452709198,0.4544501900672912
1630932238443,0.1839763671159744,-0.3187471330165863,-0.0979126989841461,0.4514467120170593
1630932238524,0.2023929059505462,-0.3006093502044678,-0.1087744161486625,0.4495950639247894
1630932238597,0.2062363028526306,-0.2845679819583893,-0.1225533261895179,0.4437454044818878
1630932238697,0.1957169771194458,-0.2793367505073547,-0.1386545896530151,0.4276872873306274
1630932238853,0.1741201132535934,-0.2894947826862335,-0.154515653848648,0.4002759754657745
1630932238961,0.1457920670509338,-0.3096770644187927,-0.1687613278627395,0.3675186336040497
1630932239037,0.1157754883170127,-0.3215773403644562,-0.1812177151441574,0.3406197726726532
1630932239146,0.090855598449707,-0.3256385028362274,-0.1909350305795669,0.3292362987995147
1630932239214,0.0786694958806037,-0.3210795819759369,-0.1915675699710846,0.3341685533523559
1630932239314,0.0678200796246528,-0.3134582936763763,-0.1972001492977142,0.3484504222869873
1630932239480,0.0557612590491771,-0.3057448863983154,-0.2111245244741439,0.3629128634929657
1630932239574,0.0557612590491771,-0.2955431342124939,-0.2291109263896942,0.3707815706729889
1630932239653,0.0557612590491771,-0.2798799574375152,-0.2426773309707641,0.3696721196174621
1630932239763,0.0557612590491771,-0.2631108164787292,-0.248073011636734,0.3608161509037018
1630932239815,0.0767447054386138,-0.2547109425067901,-0.2501537501811981,0.3467698693275451
1630932239937,0.0805426612496376,-0.2315807491540908,-0.2441890686750412,0.3300368189811706
1630932240065,0.0454990789294242,-0.204791709780693,-0.2413376569747924,0.3144107758998871
1630932240156,0.0284918118268251,-0.1697168350219726,-0.2389073520898819,0.3056859076023102
1630932240247,0.0316405780613422,-0.1332252621650695,-0.2349734306335449,0.309319257736206
1630932240356,0.0465567782521247,-0.1010863110423088,-0.2250212728977203,0.3234038352966308
1630932240452,0.0634046122431755,-0.0702246651053428,-0.2068308740854263,0.3393051624298095
1630932240535,0.0810792669653892,-0.0709991231560707,-0.1829626113176345,0.3486772179603576
1630932240665,0.1064170747995376,-0.0593366660177707,-0.1610140800476074,0.3501521646976471
1630932240757,0.1344418376684188,-0.0453777238726615,-0.1605994403362274,0.3474227488040924
1630932240904,0.1670663654804229,-0.0376906879246234,-0.1594481766223907,0.3436331748962402
1630932240953,0.1914321035146713,-0.03845139965415,-0.1529554277658462,0.3402401506900787
1630932241056,0.203540027141571,-0.0463378801941871,-0.1362830102443695,0.3396257758140564
1630932241164,0.2068184614181518,-0.0595573969185352,-0.1107249408960342,0.3458397090435028
1630932241297,0.2049563974142074,-0.0753212720155716,-0.0851488932967186,0.3582926988601684
1630932241359,0.1987536698579788,-0.0895121246576309,-0.0686794072389602,0.3718182444572449
1630932241503,0.2044621407985687,-0.0986771062016487,-0.0577155835926532,0.3813582360744476
1630932241587,0.2138005644083023,-0.1088152080774307,-0.0552930012345314,0.3850111663341522
1630932241687,0.2245113551616668,-0.1215152442455291,-0.0567925311625003,0.3812616169452667
1630932241771,0.2143386006355285,-0.1340574324131012,-0.061252374202013,0.3690463602542877
1630932241923,0.2044957727193832,-0.1413383930921554,-0.0713141933083534,0.3531819880008697
1630932241985,0.1983662843704223,-0.1427458822727203,-0.0867892876267433,0.3447232246398926
1630932242086,0.1936031728982925,-0.1429165303707122,-0.1033607497811317,0.3519454598426819
1630932242167,0.1797030419111251,-0.1467433869838714,-0.1151724755764007,0.3683607280254364
1630932242281,0.1472716331481933,-0.154733806848526,-0.1209278032183647,0.3808055222034454
1630932242344,0.096184454858303,-0.1647031009197235,-0.1250138878822326,0.3847649991512298
1630932242510,0.0362646356225013,-0.1745063364505767,-0.1333741396665573,0.3881729543209076
1630932242592,-0.0201743766665458,-0.1810236275196075,-0.1511420160531997,0.3977520167827606
1630932242683,-0.0675926879048347,-0.179516851902008,-0.1795790195465088,0.4102790653705597
1630932242801,-0.1034636124968528,-0.1687755435705185,-0.2137648463249206,0.4200291633605957
1630932242916,-0.1225854158401489,-0.1544706523418426,-0.244816392660141,0.425408273935318
1630932242996,-0.1119735687971115,-0.1444809734821319,-0.2624391913414001,0.4291687905788421
1630932243115,-0.0981703475117683,-0.1412262469530105,-0.2643509209156036,0.4324223399162292
1630932243198,-0.0847913771867752,-0.1412022560834884,-0.2571956813335418,0.4360703229904175
1630932243321,-0.0710856169462204,-0.1411615759134292,-0.2470303177833557,0.4422425627708435
1630932243394,-0.0608262792229652,-0.1431348919868469,-0.2321817129850387,0.4501115977764129
1630932243490,-0.0545795895159244,-0.1519339829683303,-0.2085055410861969,0.4535184800624847
1630932243599,-0.0513639189302921,-0.1703772842884063,-0.1779888719320297,0.4456996619701385
1630932243708,-0.0459511317312717,-0.1957354098558426,-0.1501239389181137,0.4258789122104645
1630932243803,-0.0337588936090469,-0.2218985855579376,-0.1315083354711532,0.3989627659320831
1630932243911,-0.0250557046383619,-0.241866260766983,-0.1208956241607666,0.3702762722969055
1630932244005,-0.0115599380806088,-0.252335637807846,-0.1138738393783569,0.340646743774414
1630932244091,0.0044368738308548,-0.2559190392494201,-0.1084093898534774,0.3091941177845001
1630932244181,0.0189161580055952,-0.2609080970287323,-0.1056057959794998,0.2786426246166229
1630932244353,0.0307286214083433,-0.2749255001544952,-0.1066827923059463,0.254618376493454
1630932244421,0.0424911901354789,-0.3003849983215332,-0.109644703567028,0.2445652186870575
1630932244515,0.0512744821608066,-0.3337450325489044,-0.1127018257975578,0.2534924745559692
1630932244606,0.0516733452677726,-0.3685229420661926,-0.1153077334165573,0.2788613140583038
1630932244693,0.0431859977543354,-0.3996647298336029,-0.1173983290791511,0.3086692988872528
1630932244781,0.0306190494447946,-0.4238758385181427,-0.1197404488921165,0.3297782838344574
1630932244947,0.0211165528744459,-0.4380801618099212,-0.124524176120758,0.3359520733356476
1630932245042,0.0166221912950277,-0.4411394596099853,-0.1335243284702301,0.3307651281356811
1630932245118,0.0137317087501287,-0.4351223409175873,-0.1455712616443634,0.3232888281345367
1630932245232,0.008262756280601,-0.4217587411403656,-0.1564096808433532,0.3227764666080475
1630932245317,0.0013068380067124,-0.4003298282623291,-0.163831427693367,0.3315887749195099
1630932245414,0.0054319049231708,-0.3719623684883117,-0.1697989702224731,0.344020277261734
1630932245553,0.0097704259678721,-0.3419191539287567,-0.1771804094314575,0.3529678285121918
1630932245631,0.0084399534389376,-0.3154652118682861,-0.186778724193573,0.3569087982177734
1630932245728,0.0002477163798175,-0.2926249504089355,-0.1955360174179077,0.3593347072601318
1630932245811,-0.0133942831307649,-0.270180344581604,-0.1990010142326355,0.361878365278244
1630932245925,-0.029971020296216,-0.2468901127576828,-0.195837065577507,0.3591863512992859
1630932246014,-0.0442541874945163,-0.2248792648315429,-0.1903988867998123,0.3453739583492279
1630932246179,-0.0512927733361721,-0.205811470746994,-0.1889617890119552,0.3244553804397583
1630932246239,-0.0500810667872428,-0.1903570294380188,-0.1938598603010177,0.3097521960735321
1630932246333,-0.044148676097393,-0.1791889071464538,-0.2016124874353408,0.3097365200519562
1630932246415,-0.0399720147252082,-0.1736792027950287,-0.2080071568489074,0.3198030292987823
1630932246515,-0.0403556376695632,-0.1747617572546005,-0.2119117230176925,0.3304081261157989
1630932246651,-0.0445714220404624,-0.1822270452976226,-0.2145333737134933,0.3379705548286438
1630932246802,-0.0517538040876388,-0.1958905905485153,-0.2157987505197525,0.342218279838562
1630932246868,-0.0621005184948444,-0.2167042940855026,-0.2147375643253326,0.3426542282104492
1630932246960,-0.070553109049797,-0.243789330124855,-0.2103987783193588,0.3391856253147125
1630932247052,-0.0684663280844688,-0.2738335728645324,-0.2027030736207962,0.3344308137893677
1630932247168,-0.0528540164232254,-0.3034180998802185,-0.1913812458515167,0.3309519290924072
1630932247253,-0.0326887555420398,-0.3321487307548523,-0.1777645796537399,0.3283142447471618
1630932247376,-0.0199341773986816,-0.3621555864810943,-0.1650972515344619,0.3254347741603851
1630932247503,-0.0186397191137075,-0.3932153284549713,-0.1556981950998306,0.3233254551887512
1630932247570,-0.0246294979006052,-0.422804445028305,-0.148980364203453,0.3217849135398865
1630932247669,-0.0309090204536914,-0.4507891833782196,-0.1431088000535965,0.3147001564502716
1630932247753,-0.0348851345479488,-0.4779243469238281,-0.1358974725008011,0.2950398921966553
1630932247838,-0.0388587191700935,-0.5025206804275513,-0.1261870712041854,0.2637679278850555
1630932247994,-0.0467386357486248,-0.5194486975669861,-0.1140793189406395,0.231355220079422
1630932248083,-0.0585959330201149,-0.5221465826034546,-0.103636510670185,0.2090158313512802
1630932248171,-0.0697525143623352,-0.5089505910873413,-0.1002866253256797,0.1969931572675705
1630932248282,-0.0749760493636131,-0.4862810373306274,-0.1059293746948242,0.1890997141599655
1630932248379,-0.0747426897287368,-0.4629606008529663,-0.1170184463262558,0.1847177296876907
1630932248498,-0.077578417956829,-0.4471305906772613,-0.1280754655599594,0.1925060749053955
1630932248579,-0.0909090116620063,-0.4418112635612488,-0.1360141038894653,0.2150742411613464
1630932248701,-0.1131265610456466,-0.4456615447998047,-0.1411360651254654,0.244444653391838
1630932248794,-0.1334381848573684,-0.4540824592113495,-0.1435361802577972,0.2694014608860016
1630932248881,-0.1403629183769226,-0.4613221287727356,-0.1399489790201187,0.2855617702007293
1630932248960,-0.1320760995149612,-0.4625254571437835,-0.1278317272663116,0.2965939044952392
1630932249094,-0.1133585646748542,-0.4536817669868469,-0.1100365221500396,0.3087576925754547
1630932249205,-0.1110685765743255,-0.4333083927631378,-0.0930037498474121,0.3176378905773163
1630932249337,-0.1130589917302131,-0.4212205111980438,-0.0826663821935653,0.3295837640762329
1630932249410,-0.1156242191791534,-0.4100494384765625,-0.0809175968170166,0.3435308337211609
1630932249495,-0.1124505922198295,-0.4021967351436615,-0.0870965346693992,0.357354462146759
1630932249604,-0.1011903136968612,-0.3998931050300598,-0.0974434316158294,0.3699662983417511
1630932249673,-0.0851986780762672,-0.404495358467102,-0.1048790737986564,0.3833921253681183
1630932249808,-0.070241093635559,-0.4152113497257232,-0.1036092415452003,0.4008219838142395
1630932249917,-0.0598499178886413,-0.4296765625476837,-0.0946681872010231,0.4215449094772339
1630932250007,-0.0535326115787029,-0.4451300799846649,-0.0838504359126091,0.4365377724170685
1630932250077,-0.0489433519542217,-0.4567645192146301,-0.0728235691785812,0.4364558160305023
1630932250186,-0.0422605015337467,-0.4579839706420898,-0.0632819309830665,0.4183492362499237
1630932250299,-0.0422605015337467,-0.442828893661499,-0.0582568906247615,0.4183492362499237
1630932250419,-0.0422605015337467,-0.442828893661499,-0.0630729421973228,0.4183492362499237
1630932250508,-0.0422605015337467,-0.442828893661499,-0.0838027969002723,0.4183492362499237
1630932250600,-0.0422605015337467,-0.442828893661499,-0.1223099529743194,0.4183492362499237
1630932250683,-0.0422605015337467,-0.442828893661499,-0.1709519177675247,0.4183492362499237
1630932250789,-0.0422605015337467,-0.442828893661499,-0.2129673063755035,0.2391234636306762
1630932250907,-0.0422605015337467,-0.442828893661499,-0.2352031469345092,0.2389131188392639
1630932251040,-0.0422605015337467,-0.442828893661499,-0.2352031469345092,0.2563640177249908
1630932251129,-0.0422605015337467,-0.442828893661499,-0.2352031469345092,0.2748549878597259
1630932251225,-0.0422605015337467,-0.442828893661499,-0.2352031469345092,0.279827207326889
1630932251318,-0.0422605015337467,-0.442828893661499,-0.2352031469345092,0.2705351114273071
1630932251410,-0.0422605015337467,-0.442828893661499,-0.2352031469345092,0.2553957104682922
1630932251486,-0.0422605015337467,-0.442828893661499,-0.1914820820093155,0.2432527244091034
1630932251640,-0.0422605015337467,-0.3980106711387634,-0.2156092226505279,0.2372592687606811
1630932251737,-0.0422605015337467,-0.4075088798999786,-0.2357584536075592,0.2364464253187179
1630932251836,-0.0422605015337467,-0.4290090799331665,-0.2448445409536361,0.2372630685567855
1630932251947,-0.0422605015337467,-0.4560059309005737,-0.2438490390777588,0.2372630685567855
1630932251995,-0.0422605015337467,-0.4802116751670837,-0.2388433814048767,0.2336011081933975
1630932252125,-0.0422605015337467,-0.4975419342517853,-0.2348680049180984,0.2311363816261291
1630932252261,-0.0422605015337467,-0.5074042677879333,-0.234426349401474,0.2322877347469329
1630932252349,-0.0422605015337467,-0.5086254477500916,-0.2383075356483459,0.2365166693925857
1630932252422,-0.0422605015337467,-0.5002103447914124,-0.2453146278858184,0.236343652009964
1630932252533,-0.0422605015337467,-0.485990822315216,-0.2493669390678405,0.2223650217056274
1630932252619,-0.0422605015337467,-0.472122311592102,-0.2412818074226379,0.1961062252521515
1630932252741,-0.0422605015337467,-0.472122311592102,-0.2198803871870041,0.1731254756450653
1630932252847,-0.0422605015337467,-0.4791247844696045,-0.1897774189710617,0.1700811684131622
1630932252953,-0.0422605015337467,-0.4852424561977386,-0.1600643098354339,0.1883140653371811
1630932253037,-0.0422605015337467,-0.4943737685680389,-0.1378439515829086,0.1883140653371811
1630932253132,-0.0422605015337467,-0.5057128071784973,-0.1242905259132385,0.1883140653371811
1630932253227,-0.0422605015337467,-0.5126609802246094,-0.1172201260924339,0.1883140653371811
1630932253334,-0.0422605015337467,-0.5075209140777588,-0.1158371716737747,0.1883140653371811
1630932253470,-0.0422605015337467,-0.4888598918914795,-0.1189138665795326,0.1883140653371811
1630932253586,-0.0422605015337467,-0.4615657031536102,-0.1224671974778175,0.1883140653371811
1630932253657,-0.0422605015337467,-0.3799106180667877,-0.1206391528248786,0.1883140653371811
1630932253759,-0.0422605015337467,-0.3147152662277221,-0.1107463762164115,0.1883140653371811
1630932253853,-0.0422605015337467,-0.2756153047084808,-0.095855101943016,0.1883140653371811
1630932253931,-0.0422605015337467,-0.2647099792957306,-0.0806812047958374,0.1883140653371811
