timestamp,TP9,AF7,AF8,TP10
1631018753893,0.2908840775489807,0.2263717949390411,-0.0294932145625352,0.374611884355545
1631018753971,0.2908840775489807,0.2263717949390411,-0.0294932145625352,0.374611884355545
1631018754065,0.2908840775489807,0.2263717949390411,-0.0294932145625352,0.374611884355545
1631018754159,0.2908840775489807,0.2263717949390411,-0.0294932145625352,0.374611884355545
1631018754237,0.2908840775489807,0.2263717949390411,-0.0294932145625352,0.374611884355545
1631018754395,0.2908840775489807,0.2263717949390411,-0.0294932145625352,0.374611884355545
1631018754505,0.2908840775489807,0.2263717949390411,-0.0294932145625352,0.374611884355545
1631018754614,0.2908840775489807,0.2263717949390411,-0.0294932145625352,0.374611884355545
1631018754661,0.2908840775489807,-0.0439627654850482,-0.3006816208362579,0.374611884355545
1631018754754,0.2908840775489807,-0.0247751101851463,-0.32741379737854,0.374611884355545
1631018754895,0.2908840775489807,-0.0120763471350073,-0.3331324756145477,0.374611884355545
1631018754989,0.2908840775489807,-0.0004200582043267,-0.3156201839447021,0.374611884355545
1631018755083,0.2908840775489807,0.0127763729542493,-0.2871653735637665,0.374611884355545
1631018755176,0.2908840775489807,0.0259396061301231,-0.2624474465847015,0.374611884355545
1631018755317,0.2908840775489807,0.0351884774863719,-0.2470616847276687,0.374611884355545
1631018755364,0.2908840775489807,0.0395373739302158,-0.23614002764225,0.374611884355545
1631018755506,0.2908840775489807,0.0393737480044364,-0.2236426025629043,0.374611884355545
1631018755600,0.2908840775489807,0.0353585444390773,-0.2079241424798965,0.374611884355545
1631018755709,0.2908840775489807,0.0281867943704128,-0.1920854449272155,0.374611884355545
1631018755834,0.2908840775489807,0.019243124872446,-0.1793965250253677,0.374611884355545
1631018755912,0.9399260878562928,0.0182499289512634,-0.1712024360895156,0.374611884355545
1631018755991,0.9070502519607544,0.0183282140642404,-0.1628612875938415,0.5800747275352478
1631018756069,0.8774608373641968,0.0202113166451454,-0.1556648313999176,0.5493779182434082
1631018756225,0.8465743660926819,0.0228515081107616,-0.1506393700838089,0.5493779182434082
1631018756334,0.8144006133079529,0.025905355811119,-0.1486571282148361,0.5493779182434082
1631018756412,0.8144006133079529,0.0293794907629489,-0.1508413106203079,0.5493779182434082
1631018756490,0.8144006133079529,0.0305097866803407,-0.1584372818470001,0.5232769250869751
1631018756584,0.8144006133079529,0.0256893970072269,-0.1695173382759094,0.5111403465270996
1631018756697,0.79534912109375,0.0135782221332192,-0.1794735044240951,0.4955468773841858
1631018756869,0.779606282711029,-0.0032325405627489,-0.184606596827507,0.5004220008850098
1631018756932,0.7675597071647644,-0.0209496095776557,-0.1878657639026641,0.5052818059921265
1631018757010,0.7622538805007935,-0.0376386158168315,-0.1948761492967605,0.5055657625198364
1631018757103,0.7334616184234619,-0.0514195412397384,-0.2082045376300811,0.5055657625198364
1631018757307,0.7106326222419739,-0.059339553117752,-0.2235249578952789,0.5055657625198364
1631018757322,0.6923266649246216,-0.0582608990371227,-0.2338234782218933,0.4765423834323883
1631018757447,0.6801283359527588,-0.0492975823581218,-0.2344011962413787,0.4681090414524078
1631018757541,0.6733072400093079,-0.0376665517687797,-0.223900631070137,0.4722403883934021
1631018757625,0.6715652942657471,-0.0287714153528213,-0.2018119394779205,0.4833549261093139
1631018757715,0.6804559826850891,-0.0249057877808809,-0.1667553335428238,0.4833549261093139
1631018757825,0.7029116153717041,-0.0282220598310232,-0.1541161686182022,0.4833549261093139
1631018757934,0.7029116153717041,-0.0356790870428085,-0.1390823572874069,0.4833549261093139
1631018758059,0.7029116153717041,-0.0451599359512329,-0.1238196417689323,0.5039854645729065
1631018758137,0.7029116153717041,-0.0513856112957,-0.1099254041910171,0.5206272602081299
1631018758215,0.717617928981781,-0.0509381256997585,-0.0978900492191314,0.5206272602081299
1631018758356,0.7371311187744141,-0.0427189692854881,-0.0876575261354446,0.5206272602081299
1631018758434,0.7613191604614258,-0.0287135373800992,-0.0767824724316597,0.5206272602081299
1631018758512,0.7613191604614258,-0.0093296151608228,-0.061518870294094,0.5206272602081299
1631018758670,0.7613191604614258,0.0146477045491337,-0.0392848774790763,0.5206272602081299
1631018758764,0.7613191604614258,0.04021468013525,-0.0122197028249502,0.5206272602081299
1631018758842,0.7613191604614258,0.0610624700784683,0.0152599550783634,0.5206272602081299
1631018758936,0.7613191604614258,0.071772463619709,0.0152599550783634,0.5206272602081299
1631018759045,0.7613191604614258,0.0692075043916702,0.0152599550783634,0.5206272602081299
1631018759139,0.7613191604614258,0.0692075043916702,0.0152599550783634,0.5206272602081299
1631018759248,0.7613191604614258,0.0692075043916702,0.0152599550783634,0.5206272602081299
1631018759389,0.7613191604614258,0.0692075043916702,0.0152599550783634,0.5206272602081299
1631018759467,0.7613191604614258,0.0692075043916702,0.0152599550783634,0.5206272602081299
1631018759561,0.7613191604614258,0.0692075043916702,0.0152599550783634,0.5206272602081299
1631018759657,0.7613191604614258,0.0692075043916702,0.0152599550783634,0.5206272602081299
1631018759735,0.7613191604614258,0.0692075043916702,0.0152599550783634,0.5206272602081299
1631018759891,0.7613191604614258,0.0692075043916702,0.0152599550783634,0.5206272602081299
1631018759953,0.7613191604614258,0.0692075043916702,0.0152599550783634,0.5206272602081299
1631018760063,0.7613191604614258,0.0692075043916702,0.0152599550783634,0.5206272602081299
1631018760203,0.7613191604614258,0.0692075043916702,0.0152599550783634,0.5206272602081299
1631018760250,0.7613191604614258,0.0692075043916702,0.0152599550783634,0.5206272602081299
1631018760328,0.7613191604614258,0.0692075043916702,0.0152599550783634,0.5206272602081299
1631018760471,0.7613191604614258,0.0692075043916702,0.0152599550783634,0.5206272602081299
1631018760565,0.7613191604614258,0.0692075043916702,0.0152599550783634,0.5206272602081299
1631018760658,0.7613191604614258,0.0692075043916702,0.0152599550783634,0.5206272602081299
1631018760752,0.7613191604614258,0.0692075043916702,0.0152599550783634,0.5206272602081299
1631018760862,0.7613191604614258,0.0692075043916702,0.0152599550783634,0.5206272602081299
1631018760977,0.7613191604614258,0.0692075043916702,0.0152599550783634,0.5206272602081299
1631018761110,0.7613191604614258,0.0692075043916702,0.0152599550783634,0.5206272602081299
1631018761188,0.7613191604614258,0.0692075043916702,0.0152599550783634,0.5206272602081299
1631018761378,0.7613191604614258,0.0692075043916702,0.0152599550783634,0.5206272602081299
1631018761585,0.7613191604614258,0.0692075043916702,0.0152599550783634,0.5206272602081299
1631018761715,0.7613191604614258,0.0692075043916702,0.0152599550783634,0.5206272602081299
1631018761829,0.7613191604614258,0.0692075043916702,0.0152599550783634,0.5206272602081299
1631018761930,0.7613191604614258,0.0692075043916702,0.0152599550783634,0.5206272602081299
1631018762001,0.7613191604614258,0.0692075043916702,0.0152599550783634,0.5206272602081299
1631018762048,0.7613191604614258,0.0692075043916702,0.0152599550783634,0.5206272602081299
1631018762204,0.7613191604614258,0.0692075043916702,0.0152599550783634,0.5206272602081299
1631018762313,0.7613191604614258,-0.1282303184270858,0.0152599550783634,0.5206272602081299
1631018762490,0.7613191604614258,-0.1486289799213409,0.0152599550783634,0.5206272602081299
1631018762619,0.7613191604614258,-0.1708384454250335,-0.1965959221124649,0.5206272602081299
1631018762686,0.7613191604614258,-0.1815041154623031,-0.1965959221124649,0.5206272602081299
1631018762764,0.7613191604614258,-0.1949139684438705,-0.1965959221124649,0.5206272602081299
1631018762827,0.7613191604614258,-0.1949139684438705,-0.1965959221124649,0.5206272602081299
1631018762952,0.7613191604614258,-0.1949139684438705,-0.1965959221124649,0.5206272602081299
1631018763124,0.7613191604614258,-0.1949139684438705,-0.1965959221124649,0.5206272602081299
1631018763217,0.7613191604614258,-0.1949139684438705,-0.1965959221124649,0.5206272602081299
1631018763280,0.7613191604614258,-0.1949139684438705,-0.1965959221124649,0.5206272602081299
1631018763327,0.7613191604614258,-0.1949139684438705,-0.1965959221124649,0.5206272602081299
1631018763393,0.7613191604614258,-0.1949139684438705,-0.1965959221124649,0.5206272602081299
1631018763471,0.7613191604614258,-0.1949139684438705,-0.1965959221124649,0.5206272602081299
1631018763596,0.7613191604614258,-0.1949139684438705,-0.1965959221124649,0.5206272602081299
1631018763710,0.7613191604614258,-0.1949139684438705,-0.1965959221124649,0.5206272602081299
1631018763804,0.7613191604614258,-0.1949139684438705,-0.1965959221124649,0.5206272602081299
1631018763866,0.7613191604614258,-0.1949139684438705,-0.1965959221124649,0.5206272602081299
1631018763945,0.7613191604614258,-0.1949139684438705,-0.1965959221124649,0.5206272602081299
1631018764007,0.7613191604614258,-0.1949139684438705,-0.1965959221124649,0.5206272602081299
1631018764054,0.7613191604614258,-0.1949139684438705,-0.1965959221124649,0.5206272602081299
1631018764148,0.7613191604614258,-0.1949139684438705,-0.1965959221124649,0.5206272602081299
1631018764241,0.7613191604614258,-0.1949139684438705,-0.1965959221124649,0.5206272602081299
1631018764335,0.7613191604614258,-0.1949139684438705,-0.1965959221124649,0.5206272602081299
1631018764416,0.7613191604614258,-0.1949139684438705,-0.1965959221124649,0.5206272602081299
1631018764509,0.7613191604614258,-0.1949139684438705,-0.2021054327487945,0.5206272602081299
1631018764619,0.733788788318634,-0.2997242212295532,-0.220164269208908,0.5356398224830627
1631018764744,0.7084609866142273,-0.2757337987422943,-0.2236158549785614,0.4972157478332519
1631018764853,0.6813822984695435,-0.2423040568828582,-0.2087085545063018,0.4684281349182129
1631018764947,0.663006067276001,-0.2002383768558502,-0.1827002763748169,0.4413264989852905
1631018765041,0.6560476422309875,-0.1612982153892517,-0.1590787023305893,0.413357526063919
1631018765103,0.6521196365356445,-0.1347984820604324,-0.1483467668294906,0.3853049576282501
1631018765212,0.640097975730896,-0.122869037091732,-0.1524689197540283,0.3578827083110809
1631018765355,0.618219256401062,-0.1224832385778427,-0.1656660586595535,0.3321724534034729
1631018765475,0.5926798582077026,-0.1269589513540268,-0.1787302494049072,0.3103149831295013
1631018765542,0.571211576461792,-0.1314361840486526,-0.1832763254642486,0.2942110896110534
1631018765644,0.5585327744483948,-0.1330022364854812,-0.177858218550682,0.2850655317306518
1631018765751,0.5546146631240845,-0.1310972422361374,-0.1708462238311767,0.2822962999343872
1631018765845,0.5383782386779785,-0.1157938539981842,-0.1638895273208618,0.226504310965538
1631018766003,0.5192955732345581,-0.0993583649396896,-0.1599578708410263,0.1983707994222641
1631018766066,0.5009762048721313,-0.0867283195257186,-0.1580926924943924,0.1812836080789566
1631018766160,0.4954799115657806,-0.0808272957801818,-0.1494804620742797,0.1711488515138626
1631018766269,0.5142235159873962,-0.0812647268176078,-0.1431604623794555,0.1588628739118576
1631018766347,0.5143237709999084,-0.0827344506978988,-0.1443928033113479,0.1451959908008575
1631018766443,0.5128827691078186,-0.0823490470647811,-0.1559196710586547,0.1358221769332885
1631018766553,0.5043572187423706,-0.0791868790984153,-0.1742454022169113,0.1352214217185974
1631018766678,0.4922210276126861,-0.0743432939052581,-0.188700258731842,0.1443965286016464
1631018766740,0.4900191724300384,-0.0680370554327964,-0.1877967417240142,0.1640554964542389
1631018766880,0.5066215991973877,-0.0589710585772991,-0.1692830026149749,0.193808376789093
1631018766948,0.5376831889152527,-0.0476011075079441,-0.1426071971654892,0.2300213724374771
1631018767042,0.5720620155334473,-0.0354501828551292,-0.1244094967842102,0.2680692672729492
1631018767198,0.6003603935241699,-0.0272106528282165,-0.1285195350646972,0.2680692672729492
1631018767277,0.618575394153595,-0.025111136958003,-0.1285195350646972,0.2680692672729492
1631018767384,0.6303280591964722,-0.0270703099668025,-0.1285195350646972,0.2680692672729492
1631018767464,0.6303280591964722,-0.0277861803770065,-0.1285195350646972,0.2680692672729492
1631018767565,0.6303280591964722,-0.0234803892672061,-0.1285195350646972,0.2680692672729492
1631018767697,0.6303280591964722,-0.0160238686949014,-0.0378342978656291,0.2680692672729492
1631018767815,0.6303280591964722,-0.0046523162163794,-0.023837486281991,0.2680692672729492
1631018767877,0.6303280591964722,0.0042884405702352,-0.0266792234033346,0.2680692672729492
1631018767971,0.6303280591964722,0.0050309379585087,-0.0340595990419387,0.2680692672729492
1631018768090,0.6303280591964722,-0.0028918485622853,-0.0368959531188011,0.2680692672729492
1631018768181,0.6303280591964722,-0.0260121598839759,-0.036295861005783,0.2680692672729492
1631018768247,0.6303280591964722,-0.0419300943613052,-0.0391877330839633,0.2680692672729492
1631018768447,0.6303280591964722,-0.0471767894923687,-0.0496127866208553,0.2680692672729492
1631018768514,0.6303280591964722,-0.0446127280592918,-0.0653566196560859,0.2680692672729492
1631018768590,0.3301452100276947,-0.0413980111479759,-0.0817051008343696,0.3918811380863189
1631018768715,0.3525378704071045,-0.0410057790577411,-0.0961712077260017,0.3985644280910492
1631018768793,0.397076278924942,-0.044948972761631,-0.1095164194703102,0.3925274908542633
1631018768887,0.4418928921222687,-0.0548541061580181,-0.1180637776851654,0.3809739053249359
1631018769028,0.4692888259887695,-0.0707005113363266,-0.1350128054618835,0.3725502490997314
1631018769117,0.4757298231124878,-0.0906566977500915,-0.1586779505014419,0.3731846511363983
1631018769249,0.4679163098335266,-0.0998971760272979,-0.1813264489173889,0.381379634141922
1631018769343,0.4580864608287811,-0.1105830743908882,-0.1933249086141586,0.3907253742218017
1631018769392,0.456065833568573,-0.1252838522195816,-0.1931192129850387,0.3945654928684234
1631018769489,0.4626609683036804,-0.1427347958087921,-0.190543383359909,0.3899427056312561
1631018769629,0.4707591235637665,-0.1588601171970367,-0.1961987763643264,0.378074586391449
1631018769786,0.4730399549007416,-0.1701872497797012,-0.2103081941604614,0.3624671995639801
1631018769832,0.4714124500751495,-0.1763734072446823,-0.2231955528259277,0.3505921959877014
1631018769926,0.4707464575767517,-0.1786227077245712,-0.2246145755052566,0.3347586393356323
1631018770004,0.4754445850849151,-0.1795015186071396,-0.2140610367059707,0.3202942907810211
1631018770098,0.4874372780323028,-0.1792415380477905,-0.1999722123146057,0.3133701384067535
1631018770223,0.5003291368484497,-0.1767483055591583,-0.1897358447313308,0.3165308237075805
1631018770348,0.505504310131073,-0.1701263934373855,-0.1832978576421737,0.3257327973842621
1631018770413,0.5002224445343018,-0.1595933586359024,-0.1763483881950378,0.3349204361438751
1631018770507,0.4908245205879211,-0.147075280547142,-0.1663983166217804,0.3400049209594726
1631018770621,0.4883485436439514,-0.1327369213104248,-0.1551167964935302,0.33714160323143
1631018770709,0.4950394928455353,-0.1148620545864105,-0.1474372893571853,0.3272240459918976
1631018770848,0.505474328994751,-0.1066627278923988,-0.1438163816928863,0.3123561441898346
1631018770920,0.5114856958389282,-0.0922785252332687,-0.1523671895265579,0.2993146181106567
1631018771029,0.5090778470039368,-0.0716331526637077,-0.1611183583736419,0.2960960268974304
1631018771182,0.502493143081665,-0.0479996390640735,-0.1643415540456771,0.3069245815277099
1631018771220,0.5023327469825745,-0.026348304003477,-0.1608874201774597,0.3304719030857086
1631018771308,0.5170555114746094,-0.0111710187047719,-0.1545261442661285,0.3626386523246765
1631018771466,0.5442081689834595,-0.0054287491366267,-0.1507850885391235,0.3971215486526489
1631018771575,0.5716960430145264,-0.008851446211338,-0.1526519656181335,0.4251039922237396
1631018771638,0.5848159193992615,-0.0179259534925222,-0.1566915661096573,0.4375509023666382
1631018771747,0.5848159193992615,-0.0245127249509096,-0.1543233096599578,0.4375509023666382
1631018771856,0.5848159193992615,-0.0310987085103988,-0.1398699581623077,0.4375509023666382
1631018771919,0.5848159193992615,-0.0378092415630817,-0.1170037910342216,0.4375509023666382
1631018772060,0.5848159193992615,-0.0589826889336109,-0.1170037910342216,0.4375509023666382
1631018772169,0.5848159193992615,-0.1066542193293571,-0.1170037910342216,0.4375509023666382
1631018772231,0.5848159193992615,-0.1513006836175918,-0.1170037910342216,0.4375509023666382
1631018772325,0.5848159193992615,-0.1520372778177261,-0.1170037910342216,0.4375509023666382
1631018772437,0.5848159193992615,-0.1355669796466827,-0.1170037910342216,0.4375509023666382
1631018772546,0.5848159193992615,-0.123501032590866,-0.1170037910342216,0.4375509023666382
1631018772703,0.5848159193992615,-0.1263414025306701,-0.1170037910342216,0.4375509023666382
1631018772765,0.5848159193992615,-0.1425875723361969,-0.1170037910342216,0.4375509023666382
1631018772859,0.5848159193992615,-0.1425875723361969,-0.1170037910342216,0.4375509023666382
1631018772957,0.5848159193992615,-0.1425875723361969,-0.1170037910342216,0.4375509023666382
1631018773068,0.5848159193992615,-0.1425875723361969,-0.1170037910342216,0.4375509023666382
1631018773182,0.5848159193992615,-0.1425875723361969,-0.1170037910342216,0.4375509023666382
1631018773311,0.5848159193992615,-0.1425875723361969,-0.1170037910342216,0.4375509023666382
1631018773379,0.5848159193992615,-0.1527266353368759,-0.1170037910342216,0.4375509023666382
1631018773470,0.5848159193992615,-0.1607291400432586,-0.1170037910342216,0.4375509023666382
1631018773560,0.5848159193992615,-0.1579206883907318,-0.1170037910342216,0.4375509023666382
1631018773661,0.5848159193992615,-0.1357407867908477,-0.1170037910342216,0.4375509023666382
1631018773751,0.5848159193992615,-0.1357407867908477,-0.1170037910342216,0.4375509023666382
1631018773893,0.5848159193992615,-0.1310574263334274,-0.1170037910342216,0.4375509023666382
1631018773982,0.5848159193992615,-0.1310574263334274,-0.1170037910342216,0.4375509023666382
1631018774118,0.5848159193992615,-0.1310574263334274,-0.1170037910342216,0.4375509023666382
1631018774185,0.5848159193992615,-0.1310574263334274,-0.1170037910342216,0.4375509023666382
1631018774297,0.5848159193992615,-0.1310574263334274,-0.1170037910342216,0.4375509023666382
1631018774378,0.5848159193992615,-0.1310574263334274,-0.1170037910342216,0.4375509023666382
1631018774496,0.5848159193992615,-0.1310574263334274,-0.1170037910342216,0.4375509023666382
1631018774586,0.5848159193992615,-0.1310574263334274,-0.1170037910342216,0.4375509023666382
1631018774664,0.5848159193992615,-0.0733333751559257,-0.1170037910342216,0.4375509023666382
1631018774792,0.5848159193992615,-0.0676724836230278,-0.1170037910342216,0.4375509023666382
1631018774951,0.5848159193992615,-0.0638815909624099,-0.4547476172447204,0.4375509023666382
1631018774999,0.5848159193992615,-0.0638090744614601,-0.4811142385005951,0.4375509023666382
1631018775111,0.512381374835968,-0.0653541386127471,-0.5099488496780396,0.1554713249206543
1631018775211,0.5174131393432617,-0.0646176561713218,-0.5362315773963928,0.2078096717596054
1631018775303,0.532673180103302,-0.0608924701809883,-0.5477824211120605,0.2377043813467025
1631018775404,0.5440526008605957,-0.057670421898365,-0.5384284853935242,0.2447470724582672
1631018775510,0.550775945186615,-0.0569453351199626,-0.5154113173484802,0.2426457852125167
1631018775594,0.5604315400123596,-0.0563812740147113,-0.4909369647502899,0.2489841878414154
1631018775707,0.575045108795166,-0.0537759326398372,-0.4697062373161316,0.2695192992687225
1631018775823,0.5877730250358582,-0.0492459945380687,-0.4511555135250091,0.2948103249073028
1631018775907,0.5928584337234497,-0.0406499989330768,-0.4351418912410736,0.3127389252185821
1631018776005,0.589632511138916,-0.0288554355502128,-0.4214528501033783,0.3182691633701324
1631018776174,0.5815293788909912,-0.0135780237615108,-0.405083030462265,0.3130038380622864
1631018776238,0.5722455382347107,0.0019120894139632,-0.3717252314090729,0.3010150492191314
1631018776331,0.565008282661438,0.0155927101150155,-0.3210415244102478,0.2983169853687286
1631018776441,0.5626525282859802,0.0277130044996738,-0.2671579122543335,0.295098066329956
1631018776503,0.5671845078468323,0.0393737629055976,-0.2250634878873825,0.289157509803772
1631018776597,0.5713093876838684,0.049289733171463,-0.1979061216115951,0.2889698147773742
1631018776704,0.5670660138130188,0.0538149327039718,-0.1822718381881714,0.2820235192775726
1631018776829,0.564472496509552,0.0591516271233558,-0.1625530868768692,0.2746022045612335
1631018776923,0.5610477328300476,0.0651028752326965,-0.1459242403507232,0.2736667692661285
1631018777032,0.5502004027366638,0.0733884647488594,-0.1325776278972625,0.2780117094516754
1631018777111,0.5390087366104126,0.0830226019024849,-0.1200573444366455,0.2758947908878326
1631018777251,0.5226656794548035,0.0921954736113548,-0.1064474284648895,0.2539028525352478
1631018777313,0.504285454750061,0.1004679203033447,-0.0912295505404472,0.2067393064498901
1631018777407,0.4888840615749359,0.1074286252260208,-0.0734750404953956,0.1408781111240387
1631018777550,0.4823965728282928,0.110945239663124,-0.0519144535064697,0.0720374062657356
1631018777669,0.4848601520061493,0.1079996302723884,-0.0300505757331848,0.0183058772236108
1631018777732,0.4927697479724884,0.099668875336647,-0.021638736128807,0.0183058772236108
1631018777833,0.5007140636444092,0.0888127535581588,-0.0427421554923057,0.0183058772236108
1631018777948,0.500829815864563,0.0888127535581588,-0.1569941490888595,0.0183058772236108
1631018778040,0.4898024797439575,0.0888127535581588,-0.2667696177959442,0.0183058772236108
1631018778155,0.4766230881214142,0.0888127535581588,-0.3297410905361175,0.0183058772236108
1631018778248,0.497769296169281,0.0888127535581588,-0.3402353823184967,0.0183058772236108
1631018778358,0.5371988415718079,-0.1996255218982696,-0.3297828733921051,0.2096913456916809
1631018778434,0.567146360874176,-0.1804156452417373,-0.3058989942073822,0.2224863767623901
1631018778577,0.5918576717376709,-0.1687694787979126,-0.2708712220191955,0.2371241897344589
1631018778639,0.5854393243789673,-0.1604664325714111,-0.2358351349830627,0.2469102442264557
1631018778796,0.5648949146270752,-0.1516123116016388,-0.2042548358440399,0.2523793578147888
1631018778896,0.5552404522895813,-0.1378561407327652,-0.1686269342899322,0.2625318765640259
1631018778960,0.5864832401275635,-0.1094851717352867,-0.1227141693234443,0.2858524918556213
1631018779067,0.642302930355072,-0.0631680563092231,-0.0739828571677208,0.3173277676105499
1631018779151,0.6919924020767212,-0.0631680563092231,-0.0352776534855365,0.34283447265625
1631018779248,0.6919924020767212,-0.0631680563092231,-0.0107080265879631,0.34283447265625
1631018779386,0.6919924020767212,-0.0631680563092231,0.0066081066615879,0.34283447265625
1631018779467,0.6919924020767212,-0.0631680563092231,0.0249064695090055,0.34283447265625
1631018779545,0.6919924020767212,-0.04503970220685,0.0436913147568702,0.3521353304386139
1631018779670,0.6919924020767212,-0.0278455521911382,0.0634753108024597,0.3654626309871673
1631018779779,0.7057233452796936,-0.0135413333773612,0.0857969895005226,0.3808871507644653
1631018779836,0.7103729248046875,-0.0009341513505205,0.1102574989199638,0.3966877162456512
1631018780023,0.7129311561584473,0.0149864237755537,0.1343693435192108,0.4120875895023346
1631018780086,0.7280450463294983,0.0368649922311306,0.1567872911691665,0.4277850389480591
1631018780164,0.768215000629425,0.0675680935382843,0.1794738918542862,0.4491800665855407
1631018780242,0.8320534825325012,0.0675680935382843,0.2044242173433303,0.4814660549163818
1631018780382,0.8320534825325012,0.0675680935382843,0.2277706563472747,0.4814660549163818
1631018780463,0.8320534825325012,0.0675680935382843,0.2391501516103744,0.4814660549163818
1631018780588,0.8320534825325012,0.0675680935382843,0.2391501516103744,0.4814660549163818
1631018780709,0.8320534825325012,0.0675680935382843,0.2391501516103744,0.4814660549163818
1631018780772,0.8320534825325012,0.0675680935382843,0.2391501516103744,0.4814660549163818
1631018780881,0.8320534825325012,0.0675680935382843,0.2391501516103744,0.4814660549163818
1631018780943,0.8320534825325012,0.0675680935382843,0.2391501516103744,0.4814660549163818
1631018781053,0.8320534825325012,0.0675680935382843,-0.1282209008932113,0.3603752851486206
1631018781209,0.4767100214958191,0.0675680935382843,-0.1611011624336242,0.371092826128006
1631018781303,0.5003400444984436,0.0675680935382843,-0.166560485959053,0.3860795795917511
1631018781396,0.5206974744796753,0.0675680935382843,-0.1500036567449569,0.3934306502342224
1631018781478,0.5311289429664612,0.0675680935382843,-0.1208617761731147,0.388996422290802
1631018781571,0.5352012515068054,0.0675680935382843,-0.0937002375721931,0.3748961687088012
1631018781696,0.5373892188072205,-0.1661470681428909,-0.0797719657421112,0.3568581342697143
1631018781821,0.5382654070854187,-0.1334013491868972,-0.0803176164627075,0.341503381729126
1631018781915,0.5355584025382996,-0.105916328728199,-0.0883974730968475,0.3344301283359527
1631018781993,0.5293136835098267,-0.073005311191082,-0.0957602933049202,0.3370319604873657
1631018782118,0.522304356098175,-0.073005311191082,-0.0975038707256317,0.3370319604873657
1631018782181,0.5181149244308472,-0.073005311191082,-0.0903932377696037,0.3370319604873657
1631018782274,0.519641101360321,-0.073005311191082,-0.0844892114400863,0.3271809816360473
1631018782399,0.5260709524154663,-0.073005311191082,-0.0599965900182724,0.3247926533222198
1631018782511,0.537757933139801,-0.073005311191082,-0.0287331454455852,0.3271102011203766
1631018782604,0.5453863739967346,-0.073005311191082,-0.0124680781736969,0.3262403011322021
1631018782698,0.5421311259269714,-0.073005311191082,0.0043481336906552,0.3143023252487182
1631018782807,0.5302212238311768,-0.073005311191082,0.0174664538353681,0.2900758683681488
1631018782870,0.516873300075531,-0.043234746903181,0.0240236464887857,0.2603878378868103
1631018783027,0.5072890520095825,-0.0155723597854375,0.021574642509222,0.2382895648479461
1631018783124,0.5027354955673218,0.006943535991013,0.0212941356003284,0.2374138832092285
1631018783218,0.5028535723686218,0.006943535991013,0.0244651976972818,0.2374138832092285
1631018783311,0.5133316516876221,0.006943535991013,0.0291241202503442,0.2374138832092285
1631018783415,0.5384467840194702,0.006943535991013,0.0303750038146972,0.2374138832092285
1631018783534,0.573416531085968,0.006943535991013,0.0252292044460773,0.2374138832092285
1631018783627,0.5821564793586731,0.006943535991013,0.0146268270909786,0.2374138832092285
1631018783721,0.5902925729751587,-0.1341921836137771,0.0005827490822412,0.2374138832092285
1631018783846,0.5941981077194214,-0.1499312818050384,-0.0131147494539618,0.2374138832092285
1631018783955,0.5928276181221008,-0.1499312818050384,-0.0429987646639347,0.2374138832092285
1631018784018,0.5901332497596741,-0.1499312818050384,-0.0825608819723129,0.2374138832092285
1631018784096,0.5938652753829956,-0.1499312818050384,-0.0825608819723129,0.2374138832092285
1631018784252,0.6089604496955872,-0.1499312818050384,-0.0825608819723129,0.2374138832092285
1631018784330,0.633341908454895,-0.1499312818050384,-0.0825608819723129,0.2374138832092285
1631018784455,0.6620392799377441,-0.1499312818050384,-0.0825608819723129,0.2374138832092285
1631018784533,0.6945998668670654,-0.1499312818050384,-0.0985144451260566,0.2374138832092285
1631018784643,0.7323840260505676,-0.1499312818050384,-0.1356873512268066,0.2374138832092285
1631018784737,0.7323840260505676,-0.1499312818050384,-0.1888628304004669,0.2374138832092285
1631018784878,0.7323840260505676,-0.1499312818050384,-0.2421267926692962,0.2374138832092285
1631018784955,0.7323840260505676,-0.2219951003789901,-0.2464116960763931,0.2374138832092285
1631018785033,0.7323840260505676,-0.287094235420227,-0.2161822617053985,0.2374138832092285
1631018785127,0.7323840260505676,-0.3488782942295074,-0.1799938827753067,0.2374138832092285
1631018785221,0.7323840260505676,-0.4041990041732788,-0.161530464887619,0.2374138832092285
1631018785330,0.5564411282539368,-0.4505327045917511,-0.1392050832509994,0.1989112198352813
1631018785486,0.5351583957672119,-0.4165589809417724,-0.1116663888096809,0.2352004796266555
1631018785580,0.5114001631736755,-0.3660010397434234,-0.0852640196681022,0.2627162337303161
1631018785643,0.4918743669986725,-0.310232549905777,-0.0649715512990951,0.2875564098358154
1631018785752,0.4805438816547394,-0.2619372010231018,-0.0505929440259933,0.3098367154598236
1631018785846,0.4770042300224304,-0.2284301668405532,-0.0401756092905998,0.3263208866119385
1631018785939,0.476667195558548,-0.2101766765117645,-0.0330447815358638,0.3345464468002319
1631018786064,0.4738453924655914,-0.2023462355136871,-0.0306276194751262,0.3339957594871521
1631018786158,0.4672883152961731,-0.1990718245506286,-0.0340280085802078,0.3266960978507995
1631018786299,0.4635038375854492,-0.1960697770118713,-0.0422688983380794,0.3166512548923492
1631018786361,0.4718156158924103,-0.1918465048074722,-0.0519733279943466,0.3086837232112884
1631018786470,0.4924058020114898,-0.1729102730751037,-0.0507103502750396,0.3048899471759796
1631018786570,0.5102621912956238,-0.1541812866926193,-0.0428710728883743,0.3183601498603821
1631018786695,0.5228227376937866,-0.1384539902210235,-0.029912257567048,0.332517921924591
1631018786789,0.5258914828300476,-0.1269139051437378,-0.0178335662931203,0.3460767269134521
1631018786883,0.5262433290481567,-0.1182810068130493,-0.0123090706765651,0.358172059059143
1631018786992,0.5331072211265564,-0.1093440875411033,-0.0138848591595888,0.36690354347229
1631018787101,0.5492405891418457,-0.0991397276520729,-0.018881881609559,0.369854211807251
1631018787179,0.5693372488021851,-0.0910048261284828,-0.0238342564553022,0.3666640818119049
1631018787304,0.585871160030365,-0.0887387916445732,-0.0290684178471565,0.3589869737625122
1631018787414,0.595138430595398,-0.0911014676094055,-0.0370179153978824,0.3493925333023071
1631018787495,0.599348247051239,-0.0931302830576896,-0.048410452902317,0.3404371440410614
1631018787589,0.6045349836349487,-0.09268419444561,-0.0599666573107242,0.3344904482364654
1631018787682,0.6140734553337097,-0.0921189412474632,-0.0673558712005615,0.3327772915363312
1631018787776,0.623842716217041,-0.0949909761548042,-0.0705308020114898,0.334560215473175
1631018787901,0.6253155469894409,-0.1002575457096099,-0.0728779509663581,0.3376365005970001
1631018788010,0.6151858568191528,-0.1039870381355285,-0.0785062760114669,0.3405540287494659
1631018788120,0.5984200835227966,-0.1026826426386833,-0.0882026329636573,0.3416543304920196
1631018788198,0.5832905769348145,-0.0943527519702911,-0.101195327937603,0.3377605974674225
1631018788292,0.5745550990104675,-0.0789093673229217,-0.1154325455427169,0.3268179893493652
1631018788385,0.5688720941543579,-0.0610029064118862,-0.1294804215431213,0.3100990951061249
1631018788514,0.5595831274986267,-0.049421414732933,-0.1435307562351226,0.292303591966629
1631018788623,0.5434292554855347,-0.0498283207416534,-0.1592772603034973,0.2767710387706756
1631018788717,0.5223411917686462,-0.0590747743844985,-0.1769324690103531,0.2625198662281036
1631018788842,0.5008753538131714,-0.0670210048556327,-0.1938107460737228,0.2476059943437576
1631018788920,0.484985738992691,-0.0673997178673744,-0.2052593380212783,0.2324700802564621
1631018788998,0.4779735207557678,-0.0625149682164192,-0.2090402990579605,0.2194570302963256
1631018789148,0.4783250987529754,-0.0562223941087722,-0.2090088129043579,0.2093152105808258
1631018789220,0.4799317121505737,-0.0487229116261005,-0.2112749814987182,0.2001426517963409
1631018789314,0.4768311679363251,-0.039003450423479,-0.2167789489030838,0.1895951628684997
1631018789408,0.4683373570442199,-0.0294162482023239,-0.2216050028800964,0.1759835481643676
1631018789521,0.4574753940105438,-0.0238288920372724,-0.2230789810419082,0.1588087081909179
1631018789599,0.4519595801830292,-0.0224522873759269,-0.2226394116878509,0.1405637115240097
1631018789739,0.4602157771587372,-0.0232079215347766,-0.2207839637994766,0.126371294260025
1631018789895,0.4820125699043274,-0.0257342029362916,-0.2165584117174148,0.1180091574788093
1631018789927,0.5097731947898865,-0.0305140074342489,-0.2094986885786056,0.1138336583971977
1631018790005,0.5348275303840637,-0.0356080457568168,-0.2003311514854431,0.1107571199536323
1631018790145,0.5532416105270386,-0.0386011786758899,-0.188300222158432,0.1076804101467132
1631018790208,0.565184473991394,-0.0404685698449611,-0.1722997277975082,0.1055123656988143
1631018790380,0.5746504664421082,-0.0456817224621772,-0.1541318148374557,0.1053736880421638
1631018790460,0.5841886401176453,-0.0556387677788734,-0.1381759494543075,0.1081757321953773
1631018790570,0.5936394333839417,-0.0657563656568527,-0.1265376210212707,0.1131223887205123
1631018790632,0.5986135005950928,-0.0710849687457084,-0.1166648790240287,0.1174907237291336
1631018790726,0.5964756608009338,-0.0723134204745292,-0.1053362190723419,0.1191567853093147
1631018790835,0.5898488759994507,-0.0741674453020095,-0.0931749269366264,0.1186713650822639
1631018790960,0.5835444927215576,-0.0804724842309951,-0.0846252962946891,0.1200638189911842
1631018791054,0.5798701643943787,-0.0917319133877754,-0.0836173444986343,0.1263573169708252
1631018791163,0.575185239315033,-0.1072222143411636,-0.0910199359059333,0.1371176391839981
1631018791241,0.5639732480049133,-0.1246674954891204,-0.1046290323138237,0.1475938260555267
1631018791335,0.5433534383773804,-0.1384529918432235,-0.1201519519090652,0.1540812253952026
1631018791429,0.5148198008537292,-0.1421287059783935,-0.1331746280193328,0.154655247926712
1631018791588,0.4838516116142273,-0.1352721899747848,-0.1432807594537735,0.1490173935890197
1631018791681,0.4560833275318146,-0.124200239777565,-0.1548198908567428,0.138896644115448
1631018791775,0.4341492056846618,-0.1156223118305206,-0.1709519326686859,0.1289078891277313
1631018791869,0.4154907464981079,-0.1107271686196327,-0.1892329007387161,0.1245953366160392
1631018791963,0.3961969017982483,-0.1068955287337303,-0.2037374526262283,0.129963681101799
1631018792025,0.3737135827541351,-0.1038776263594627,-0.2123793363571167,0.1461586505174636
1631018792181,0.3525089025497436,-0.1054920777678489,-0.2193586379289627,0.1730956435203552
1631018792259,0.340430200099945,-0.1150797381997108,-0.2288296520709991,0.209833487868309
1631018792384,0.3400517702102661,-0.1311279535293579,-0.237552672624588,0.2536893188953399
1631018792559,0.3461048901081085,-0.1476683318614959,-0.2393684983253479,0.2975044846534729
1631018792653,0.3506161570549011,-0.1596836447715759,-0.233551949262619,0.3326476216316223
1631018792699,0.3490167260169983,-0.1674107164144516,-0.2264105826616287,0.3519243597984314
1631018792778,0.3413582146167755,-0.175327867269516,-0.2249858975410461,0.3544115722179413
1631018792887,0.3334551155567169,-0.1898097097873687,-0.231266438961029,0.3455408215522766
1631018792965,0.3303512632846832,-0.2159614413976669,-0.2426302284002304,0.3340097963809967
1631018793074,0.3322440385818481,-0.2534975409507751,-0.2540611326694488,0.3261113166809082
1631018793168,0.3345146179199219,-0.2949576675891876,-0.2619305253028869,0.3232928812503814
1631018793262,0.334288090467453,-0.3298486173152923,-0.2673535943031311,0.3236529231071472
1631018793434,0.3331764936447143,-0.3539305329322815,-0.2748057544231415,0.3251968026161194
1631018793515,0.3325504660606384,-0.3726784288883209,-0.2878302931785583,0.3249661326408386
1631018793640,0.3315025269985199,-0.3907157480716705,-0.3060863018035888,0.3186321854591369
1631018793718,0.3291641175746918,-0.4012171924114227,-0.3259570598602295,0.3027874231338501
1631018793765,0.3255671858787536,-0.3909196853637695,-0.3435626626014709,0.2762889266014099
1631018793889,0.3196784555912018,-0.3582017719745636,-0.3590405881404876,0.239176332950592
1631018794030,0.3095979690551758,-0.3158444464206695,-0.3755465149879455,0.1932886838912964
1631018794093,0.2958232760429382,-0.2739090323448181,-0.3952057659626007,0.1435006558895111
1631018794186,0.2831942439079284,-0.234497532248497,-0.4140049815177917,0.1019410863518714
1631018794280,0.2757043540477752,-0.1986961811780929,-0.4257522523403168,0.080578863620758
1631018794374,0.2741078734397888,-0.1702306270599365,-0.4279805719852447,0.0800664648413658
1631018794470,0.2796193659305572,-0.1520602703094482,-0.4220087826251983,0.0903272256255149
1631018794611,0.2930158376693725,-0.1438267827033996,-0.406013548374176,0.1023884639143943
1631018794751,0.3120923042297363,-0.1424406915903091,-0.3770771324634552,0.1153265759348869
1631018794814,0.3317933976650238,-0.1438666135072708,-0.3370604515075683,0.1317230314016342
1631018794892,0.3470921814441681,-0.1444881558418274,-0.2968720495700836,0.1492542326450348
1631018795001,0.3546583950519562,-0.1417144834995269,-0.2666890919208526,0.1607426255941391
1631018795064,0.3529097735881805,-0.1362172216176986,-0.2488994002342224,0.1639794707298278
1631018795235,0.3419167399406433,-0.1293176263570785,-0.2408808320760727,0.1627527922391891
1631018795313,0.3251556754112243,-0.123634286224842,-0.230586290359497,0.162285029888153
1631018795423,0.3102674186229706,-0.1213600635528564,-0.2186642438173294,0.1629965901374817
1631018795504,0.3038273155689239,-0.1244921162724495,-0.2053146362304687,0.1608989536762237
1631018795614,0.3071547150611877,-0.1346789747476577,-0.1879706382751464,0.1560397744178772
1631018795707,0.3147851228713989,-0.1504100114107132,-0.1640578955411911,0.151051789522171
1631018795832,0.3202444016933441,-0.1653269380331039,-0.1269095987081527,0.1485516279935836
1631018795942,0.321874052286148,-0.1703654527664184,-0.0824671983718872,0.1496146470308303
1631018796020,0.3218827545642853,-0.1634184271097183,-0.0460933372378349,0.1550136506557464
1631018796113,0.3232574164867401,-0.1508839428424835,-0.0271590556949377,0.1639445573091507
1631018796254,0.3256205320358276,-0.1402310878038406,-0.0245867539197206,0.1704112440347671
1631018796348,0.3257745802402496,-0.1335082352161407,-0.032766968011856,0.1663188189268112
1631018796426,0.3195059597492218,-0.1295793354511261,-0.0447943359613418,0.1485626697540283
1631018796538,0.3073776364326477,-0.1278738379478454,-0.0550354346632957,0.1245386749505996
1631018796632,0.2968829572200775,-0.1277267932891845,-0.0637384578585624,0.1032455042004585
1631018796726,0.296165257692337,-0.1294052004814148,-0.0856970995664596,0.0881758704781532
1631018796804,0.3051844835281372,-0.1314956247806549,-0.1085432544350624,0.0759214535355568
1631018796913,0.316283255815506,-0.1303648203611374,-0.1275236010551452,0.0633744746446609
1631018797054,0.3222381174564361,-0.1203111708164215,-0.1418404281139373,0.0524464324116706
1631018797147,0.3202811777591705,-0.0981264263391494,-0.1534903943538665,0.0463408641517162
1631018797226,0.3116692006587982,-0.0674171894788742,-0.1640137135982513,0.046456228941679
1631018797319,0.2993409037590027,-0.0371172986924648,-0.1801952719688415,0.0514665618538856
1631018797456,0.2852143943309784,-0.0148993367329239,-0.2047716826200485,0.0560961477458477
1631018797560,0.2700799405574798,-0.0017271762480959,-0.2310451418161392,0.0540712848305702
1631018797664,0.2559884488582611,0.0062294551171362,-0.2523936033248901,0.0454875491559505
1631018797778,0.2475494146347046,0.0128363501280546,-0.2640401124954223,0.0383316688239574
1631018797852,0.2490351647138595,0.0190088879317045,-0.2615289092063904,0.038774374872446
1631018797946,0.26144739985466,0.0241863541305065,-0.244524598121643,0.0462459735572338
1631018798040,0.2796489298343658,0.0283318981528282,-0.2225062847137451,0.053855650126934
1631018798134,0.2948989570140838,0.0320304632186889,-0.2053242474794387,0.0577075071632862
1631018798290,0.3011265993118286,0.0343891531229019,-0.1949885636568069,0.0582078322768211
1631018798383,0.300903707742691,0.0331679359078407,-0.186622679233551,0.0561633966863155
1631018798475,0.3041532337665558,0.0269702039659023,-0.1752962470054626,0.0527396090328693
1631018798573,0.3188749551773071,0.0162448175251483,-0.1616253405809402,0.0505465976893901
1631018798651,0.3427820205688476,0.0025098619516938,-0.1504646837711334,0.0505702458322048
1631018798761,0.3667879998683929,-0.0139705687761306,-0.1454743444919586,0.0501456223428249
1631018798886,0.3851180672645569,-0.0341109000146389,-0.1463220119476318,0.0461477078497409
1631018798979,0.3967796266078949,-0.0576287731528282,-0.1478719413280487,0.0425586774945259
1631018799073,0.4022295773029327,-0.0802659392356872,-0.1446856558322906,0.0502916313707828
1631018799151,0.4008243083953857,-0.0960466563701629,-0.1372265964746475,0.0731780678033828
1631018799245,0.3942189812660217,-0.1018875837326049,-0.1338901966810226,0.1014451757073402
1631018799339,0.3859641253948211,-0.0984745323657989,-0.1438417434692382,0.1240712702274322
1631018799475,0.3778511881828308,-0.0890481546521186,-0.1680199056863784,0.1369834393262863
1631018799576,0.3701111972332001,-0.0779060646891594,-0.197118803858757,0.1422844976186752
1631018799669,0.363872766494751,-0.070825271308422,-0.2178951501846313,0.1449206173419952
1631018799763,0.3607845604419708,-0.0707848891615867,-0.2262879610061645,0.1491586863994598
1631018799872,0.3597038388252258,-0.0754534602165222,-0.2305890619754791,0.158385157585144
1631018799950,0.3581806719303131,-0.0780686736106872,-0.2402209937572479,0.1718636006116867
1631018800091,0.356858342885971,-0.0761746689677238,-0.2564812898635864,0.1852369755506515
1631018800185,0.3594445586204529,-0.0753060430288314,-0.2719970345497131,0.1944962590932846
1631018800294,0.3669861257076263,-0.0813134014606475,-0.2798005640506744,0.200239360332489
1631018800419,0.3745907545089721,-0.0926730409264564,-0.2803358137607574,0.2049727141857147
1631018800482,0.3765608072280884,-0.1021140813827514,-0.281316727399826,0.2075030207633972
1631018800575,0.3729576468467712,-0.1069748327136039,-0.2874937653541565,0.2035358250141143
1631018800700,0.3680271208286285,-0.1116345152258873,-0.2955417037010193,0.1911230534315109
1631018800794,0.364123523235321,-0.1198320016264915,-0.2967641055583954,0.1762762516736984
1631018800888,0.3627857565879822,-0.1319170594215393,-0.2851996421813965,0.1689483672380447
1631018800997,0.3658304810523987,-0.1471516191959381,-0.2625235319137573,0.175827294588089
1631018801075,0.373498797416687,-0.1656527817249298,-0.2355961948633194,0.1958334743976593
1631018801169,0.3838140964508056,-0.1840844601392746,-0.2102532237768173,0.2226025760173797
1631018801325,0.3963702023029327,-0.196407064795494,-0.1901848167181015,0.2495654225349426
1631018801419,0.4117941856384277,-0.1998212337493896,-0.1778232008218765,0.2714980840682983
1631018801530,0.4264186024665832,-0.1996361911296844,-0.1732347160577774,0.2856005430221557
1631018801608,0.4326713979244232,-0.1987727582454681,-0.1732747852802276,0.2913568913936615
1631018801687,0.4268338680267334,-0.18979412317276,-0.1736360192298889,0.2912105321884155
1631018801796,0.4144595563411712,-0.1657089591026306,-0.1725042015314102,0.2883621752262115
1631018801921,0.4068958163261413,-0.1319924741983413,-0.1696373075246811,0.2851477563381195
1631018802062,0.411026656627655,-0.1019937619566917,-0.1638077497482299,0.2825028896331787
1631018802108,0.4242643713951111,-0.0831037387251854,-0.1554659307003021,0.2797659933567047
1631018802218,0.4422369301319122,-0.0730853900313377,-0.1476361602544784,0.2768283486366272
1631018802296,0.4642033576965332,-0.0663773417472839,-0.1446202844381332,0.2750643193721771
1631018802421,0.4889876544475555,-0.0588214471936225,-0.1488465666770935,0.2783294916152954
1631018802548,0.5127812027931213,-0.0466454066336154,-0.1577163487672805,0.2878649532794952
1631018802626,0.5310071706771851,-0.0265763942152261,-0.1651368737220764,0.2992536723613739
1631018802751,0.5416691899299622,-0.0015243376838043,-0.1673426777124405,0.3051661849021911
1631018802829,0.544232964515686,0.0202408526092767,-0.1656305193901062,0.3019464910030365
1631018802907,0.5395204424858093,0.0316741578280925,-0.162524327635765,0.2926719188690185
1631018802985,0.5297135710716248,0.0319874957203865,-0.1596553474664688,0.2854665517807007
1631018803142,0.5198724865913391,0.0242780484259128,-0.1579736173152923,0.2863029241561889
1631018803267,0.5148628950119019,0.0100093204528093,-0.1593413650989532,0.294226586818695
1631018803345,0.516350269317627,-0.0107163731008768,-0.1633633375167846,0.3027313351631164
1631018803423,0.5231459736824036,-0.0349296182394027,-0.1673898845911026,0.3071766495704651
1631018803532,0.5353135466575623,-0.0551450438797473,-0.1705972552299499,0.3085771799087524
1631018803626,0.5512654781341553,-0.0646341443061828,-0.1747415363788604,0.3098129332065582
1631018803782,0.5664529800415039,-0.0632549822330474,-0.1795014142990112,0.3105019629001617
1631018803860,0.5753004550933838,-0.055923406034708,-0.180892139673233,0.3060789704322815
1631018803938,0.5758211016654968,-0.0466516315937042,-0.1761733740568161,0.2925409376621246
1631018804032,0.5698368549346924,-0.0392049103975296,-0.1702896356582641,0.2703956663608551
1631018804126,0.5630189776420593,-0.0387973487377166,-0.1706897914409637,0.2443792074918747
1631018804219,0.5603790879249573,-0.0480323024094104,-0.1796908676624298,0.2197714895009994
1631018804344,0.5636488795280457,-0.0633173808455467,-0.1909508407115936,0.2000157535076141
1631018804475,0.5704126358032227,-0.0758239403367042,-0.1956736594438552,0.1855150610208511
1631018804553,0.5776380896568298,-0.0815089866518974,-0.1910845190286636,0.1739522516727447
1631018804631,0.5832264423370361,-0.0833392739295959,-0.181260660290718,0.1652980297803878
1631018804725,0.586027204990387,-0.0851220190525055,-0.1698986589908599,0.1627605855464935
1631018804866,0.5847405791282654,-0.0871333181858062,-0.1573256105184555,0.1703660041093826
1631018804990,0.5785217881202698,-0.0882462710142135,-0.1427076905965805,0.1865439563989639
1631018805084,0.5659215450286865,-0.0885860472917556,-0.1276310831308365,0.2028259187936782
1631018805178,0.5465217232704163,-0.0894694030284881,-0.1158730238676071,0.211042046546936
1631018805241,0.5214494466781616,-0.0932697728276252,-0.1114083603024482,0.2103174775838852
1631018805350,0.4949995279312134,-0.1030457913875579,-0.1168629750609397,0.2059528678655624
1631018805444,0.4710833430290222,-0.1213338896632194,-0.1312164813280105,0.2017558813095092
1631018805571,0.4545739591121673,-0.1461906880140304,-0.1410709917545318,0.2037340402603149
1631018805681,0.4413355588912964,-0.1704809814691543,-0.1502638012170791,0.2029686719179153
1631018805806,0.4307160973548889,-0.1897697001695633,-0.1548773944377899,0.203885406255722
1631018805868,0.41991126537323,-0.2008103132247924,-0.1555934399366378,0.210733413696289
1631018805993,0.4072328507900238,-0.2032721042633056,-0.1559804379940033,0.222997635602951
1631018806040,0.3938420712947845,-0.1989679336547851,-0.1574387103319168,0.2362621277570724
1631018806181,0.3815013468265533,-0.1895781010389328,-0.1573646366596222,0.244919016957283
1631018806274,0.3711416125297546,-0.1778575778007507,-0.153485357761383,0.2436562031507492
1631018806384,0.3646673858165741,-0.1679005175828933,-0.1489739567041397,0.2276327908039093
1631018806477,0.3628119826316833,-0.1633744537830352,-0.15389184653759,0.1933512687683105
1631018806571,0.3638034462928772,-0.1675743609666824,-0.1766737103462219,0.1427671611309051
1631018806680,0.3638034462928772,-0.1836035996675491,-0.1766737103462219,0.1427671611309051
1631018806805,0.3638034462928772,-0.2090888023376464,-0.1766737103462219,0.1427671611309051
1631018806946,0.3638034462928772,-0.2090888023376464,-0.1766737103462219,0.1427671611309051
1631018807008,0.3638034462928772,-0.2090888023376464,-0.1766737103462219,0.1427671611309051
1631018807102,0.3638034462928772,-0.2090888023376464,-0.1766737103462219,0.1427671611309051
1631018807196,0.3638034462928772,-0.2090888023376464,-0.1766737103462219,0.1427671611309051
1631018807290,0.3638034462928772,-0.2090888023376464,-0.1766737103462219,0.1427671611309051
1631018807452,0.3638034462928772,-0.2090888023376464,-0.1766737103462219,0.1427671611309051
1631018807502,0.3638034462928772,-0.2090888023376464,-0.1766737103462219,0.1427671611309051
1631018807627,0.3638034462928772,-0.2090888023376464,-0.1766737103462219,0.1427671611309051
1631018807705,0.3638034462928772,-0.2090888023376464,-0.1766737103462219,0.1427671611309051
1631018807821,0.3638034462928772,-0.2090888023376464,-0.1766737103462219,0.1427671611309051
1631018807887,0.3638034462928772,-0.2090888023376464,-0.1766737103462219,0.1427671611309051
1631018808037,0.3638034462928772,-0.2090888023376464,-0.1766737103462219,0.1427671611309051
1631018808134,0.3638034462928772,-0.2090888023376464,-0.1766737103462219,0.1427671611309051
1631018808229,0.3638034462928772,-0.2090888023376464,-0.1766737103462219,0.1427671611309051
1631018808313,0.3638034462928772,-0.2090888023376464,-0.1766737103462219,0.1427671611309051
1631018808403,0.3638034462928772,-0.2090888023376464,-0.1766737103462219,0.1427671611309051
1631018808520,0.3638034462928772,-0.2090888023376464,-0.1766737103462219,0.1427671611309051
1631018808644,0.4689715802669525,0.0213703699409961,-0.1064921766519546,0.3933606147766113
1631018808736,0.4841649234294891,0.00797132961452,-0.1126263290643692,0.3848819434642792
1631018808827,0.488156110048294,-0.0085620898753404,-0.1230917796492576,0.3749249279499054
1631018808915,0.4819351434707641,-0.0278160981833934,-0.1383269280195236,0.3679885566234588
1631018809028,0.4699618816375732,-0.0491318367421627,-0.1567990928888321,0.3620288670063019
1631018809119,0.4562667906284332,-0.0688155144453048,-0.1755966693162918,0.3525439202785492
1631018809248,0.4433881640434265,-0.0829548314213752,-0.193204715847969,0.3395947813987732
1631018809361,0.4326028823852539,-0.0915919467806816,-0.2088382542133331,0.3395947813987732
1631018809454,0.4236242473125458,-0.0967962741851806,-0.2215916067361831,0.3395947813987732
1631018809545,0.415525883436203,-0.0988363623619079,-0.2312383949756622,0.3395947813987732
1631018809631,0.415525883436203,-0.09747826308012,-0.2375825196504593,0.3395947813987732
1631018809769,0.415525883436203,-0.0950353220105171,-0.2396412342786789,0.3395947813987732
1631018809853,0.4117434322834015,-0.1012827157974243,-0.2456898838281631,0.3316687941551208
1631018809952,0.4109139740467071,-0.113172560930252,-0.2579382359981537,0.3231834173202514
1631018810060,0.4049643874168396,-0.1274697929620742,-0.2724498808383941,0.312254250049591
1631018810174,0.3894833326339721,-0.1402464359998703,-0.2887123823165893,0.299656331539154
1631018810252,0.3663707971572876,-0.1494411528110504,-0.3053992390632629,0.2890295088291168
1631018810377,0.3418530225753784,-0.1544565558433532,-0.3202449977397918,0.2805459797382355
1631018810470,0.3225280940532684,-0.1532274484634399,-0.3297381997108459,0.2805459797382355
1631018810549,0.3111360371112823,-0.1437412351369857,-0.3317085802555084,0.2805459797382355
1631018810673,0.3069025576114654,-0.1283529996871948,-0.3271183669567108,0.2805459797382355
1631018810766,0.3069025576114654,-0.1126816272735595,-0.3166969120502472,0.2805459797382355
1631018810860,0.3069025576114654,-0.0989090576767921,-0.3006711006164551,0.2805459797382355
1631018810938,0.3069025576114654,-0.0851893424987793,-0.2801478505134582,0.2805459797382355
1631018811079,0.3069025576114654,-0.0851893424987793,-0.2801478505134582,0.2805459797382355
1631018811172,0.3069025576114654,-0.0851893424987793,-0.2801478505134582,0.2805459797382355
1631018811286,0.3069025576114654,-0.0851893424987793,-0.2801478505134582,0.2805459797382355
1631018811358,0.3069025576114654,-0.0851893424987793,-0.2801478505134582,0.2805459797382355
1631018811466,0.3069025576114654,-0.0851893424987793,-0.2801478505134582,0.2805459797382355
1631018811555,0.3069025576114654,-0.0851893424987793,-0.2801478505134582,0.2805459797382355
1631018811680,0.3069025576114654,-0.0851893424987793,-0.2801478505134582,0.2805459797382355
1631018811774,0.3069025576114654,-0.0851893424987793,-0.2801478505134582,0.2805459797382355
1631018811883,0.3069025576114654,-0.0851893424987793,-0.2801478505134582,0.2805459797382355
1631018811977,0.3069025576114654,-0.0851893424987793,-0.2801478505134582,0.2805459797382355
1631018812040,0.3069025576114654,-0.0851893424987793,-0.2801478505134582,0.2805459797382355
1631018812133,0.3069025576114654,-0.0851893424987793,-0.2801478505134582,0.2805459797382355
1631018812290,0.3069025576114654,-0.0851893424987793,-0.2801478505134582,0.2805459797382355
1631018812399,0.3069025576114654,-0.0851893424987793,-0.2801478505134582,0.2805459797382355
1631018812511,0.3069025576114654,-0.0851893424987793,-0.2801478505134582,0.2805459797382355
1631018812589,0.3069025576114654,-0.0851893424987793,-0.2801478505134582,0.2805459797382355
1631018812667,0.3069025576114654,-0.0851893424987793,-0.2801478505134582,0.2805459797382355
1631018812792,0.3069025576114654,-0.0851893424987793,-0.2801478505134582,0.2805459797382355
1631018812932,0.3069025576114654,-0.0851893424987793,-0.2801478505134582,0.2805459797382355
1631018812995,0.3069025576114654,-0.0851893424987793,-0.2801478505134582,0.2805459797382355
1631018813089,0.3069025576114654,-0.0851893424987793,-0.2801478505134582,0.2805459797382355
1631018813182,0.3069025576114654,-0.0851893424987793,-0.2801478505134582,0.2805459797382355
1631018813276,0.3069025576114654,-0.0851893424987793,-0.2801478505134582,0.2805459797382355
1631018813385,0.3069025576114654,-0.0851893424987793,-0.2801478505134582,0.2805459797382355
1631018813510,0.3069025576114654,-0.0851893424987793,-0.2801478505134582,0.2805459797382355
1631018813604,0.3069025576114654,-0.0851893424987793,-0.2801478505134582,0.2805459797382355
1631018813698,0.3069025576114654,-0.0851893424987793,-0.2801478505134582,0.2805459797382355
1631018813788,0.3069025576114654,-0.0851893424987793,-0.2801478505134582,0.2805459797382355
1631018813881,0.3069025576114654,-0.0851893424987793,-0.2801478505134582,0.2805459797382355
1631018814006,0.3069025576114654,-0.0851893424987793,-0.2801478505134582,0.2805459797382355
1631018814147,0.3069025576114654,0.1568062007427215,-0.2801478505134582,0.2805459797382355
1631018814225,0.3069025576114654,0.2377810627222061,-0.2801478505134582,0.2805459797382355
1631018814303,0.3069025576114654,0.2853280901908874,-0.2801478505134582,0.2805459797382355
1631018814413,0.3069025576114654,0.2997339963912964,-0.2801478505134582,0.2805459797382355
1631018814509,0.3069025576114654,0.2997339963912964,-0.2801478505134582,0.2805459797382355
1631018814618,0.3069025576114654,0.2997339963912964,-0.2801478505134582,0.2805459797382355
1631018814728,0.3069025576114654,0.2997339963912964,-0.2801478505134582,0.2805459797382355
1631018814841,0.3069025576114654,0.2997339963912964,-0.2801478505134582,0.2805459797382355
1631018814919,0.3069025576114654,0.2997339963912964,-0.2801478505134582,0.2805459797382355
1631018815013,0.3069025576114654,0.2997339963912964,-0.2801478505134582,0.2805459797382355
1631018815138,0.3069025576114654,0.2997339963912964,-0.2801478505134582,0.2805459797382355
1631018815201,0.3069025576114654,0.2997339963912964,-0.2801478505134582,0.2805459797382355
1631018815342,0.3069025576114654,0.3395691514015198,-0.2801478505134582,0.2805459797382355
1631018815435,0.3069025576114654,0.38276007771492,-0.2801478505134582,0.2805459797382355
1631018815547,0.3069025576114654,0.4200706779956817,-0.3967370688915252,0.2805459797382355
1631018815656,0.3069025576114654,0.3708133995532989,-0.3536874949932098,0.2805459797382355
1631018815735,0.3069025576114654,0.2915204167366028,-0.3184235692024231,0.2805459797382355
1631018815813,0.3069025576114654,0.1903735399246215,-0.2959648668766022,0.2805459797382355
1631018815953,0.3069025576114654,0.0923248007893562,-0.2843082547187805,0.1152705252170562
1631018816063,0.3860347867012024,0.0737935230135917,-0.2755498886108398,0.114000953733921
1631018816125,0.365527868270874,0.0585670694708824,-0.2604500353336334,0.1252740025520324
1631018816250,0.3600342273712158,0.048311211168766,-0.2359791398048401,0.1441956013441085
1631018816312,0.3646611273288727,0.0390274785459041,-0.2060403376817703,0.1615059226751327
1631018816438,0.3739562332630157,0.0262415762990713,-0.1759795844554901,0.170210912823677
1631018816550,0.3833991885185241,0.0089237065985798,-0.1522862613201141,0.1688006967306137
1631018816643,0.3885034620761871,-0.0084573403000831,-0.1393158286809921,0.1633625775575637
1631018816753,0.3862685561180115,-0.0211227908730506,-0.1205757930874824,0.1635024100542068
1631018816846,0.3772406578063965,-0.0286975055932998,-0.1114379093050956,0.1740486323833465
1631018816940,0.3687523901462555,-0.0346381813287735,-0.106316439807415,0.1929479539394378
1631018817034,0.3714319467544555,-0.0418821312487125,-0.1015278175473213,0.2141807675361633
1631018817190,0.3897687494754791,-0.0601566731929779,-0.0986906737089157,0.235782042145729
1631018817268,0.4123477339744568,-0.0845233276486396,-0.0992710292339325,0.2612458169460296
1631018817346,0.4488192200660705,-0.0983089655637741,-0.0993162170052528,0.293894350528717
1631018817440,0.4567651748657226,-0.111494705080986,-0.0956369638442993,0.3064098954200744
1631018817553,0.4687575101852417,-0.1204372718930244,-0.0886875241994857,0.3184497058391571
1631018817663,0.4817368984222412,-0.1292362660169601,-0.0842855423688888,0.3283583521842956
1631018817788,0.4931337237358093,-0.1408091187477111,-0.0879572480916976,0.3353382050991058
1631018817873,0.5021074414253235,-0.1533286124467849,-0.1009539738297462,0.3416569232940674
1631018817966,0.5090569853782654,-0.1606593132019043,-0.1206975355744361,0.3521071672439575
1631018818076,0.515651524066925,-0.1572341322898864,-0.1414880901575088,0.3714057803153991
1631018818154,0.526395857334137,-0.1470193415880203,-0.155323252081871,0.3989688456058502
1631018818247,0.5484901070594788,-0.1399328112602234,-0.1616674661636352,0.4281132817268371
1631018818419,0.5884292721748352,-0.1415995657444,-0.1594815850257873,0.4519836604595184
1631018818489,0.6434072256088257,-0.1470863968133926,-0.1540380716323852,0.4673790335655212
1631018818609,0.6434072256088257,-0.1470863968133926,-0.1513703316450119,0.4673790335655212
1631018818687,0.6434072256088257,-0.1470863968133926,-0.150458425283432,0.4673790335655212
1631018818781,0.6434072256088257,-0.1470863968133926,-0.1473726630210876,0.4673790335655212
1631018818859,0.6434072256088257,-0.1470863968133926,-0.1440531909465789,0.4673790335655212
1631018818999,0.6434072256088257,-0.1470863968133926,-0.1440384089946746,0.4673790335655212
1631018819093,0.6434072256088257,-0.1470863968133926,-0.1509995311498642,0.4673790335655212
1631018819202,0.6434072256088257,0.1725718826055526,-0.1631193608045578,0.4673790335655212
1631018819265,0.6434072256088257,0.1338407844305038,-0.1746643334627151,0.4673790335655212
1631018819390,0.6434072256088257,0.0979554206132888,-0.1809655129909515,0.4673790335655212
1631018819468,0.6434072256088257,0.0766483843326568,-0.1833407133817672,0.4673790335655212
1631018819627,0.6434072256088257,0.0766483843326568,-0.1833407133817672,0.4673790335655212
1631018819690,0.6434072256088257,0.0766483843326568,-0.1833407133817672,0.4673790335655212
1631018819783,0.6434072256088257,0.0766483843326568,-0.1833407133817672,0.4673790335655212
1631018819908,0.6434072256088257,0.0766483843326568,-0.1833407133817672,0.4673790335655212
1631018819986,0.6434072256088257,0.0766483843326568,-0.1833407133817672,0.4673790335655212
1631018820064,0.6434072256088257,0.0766483843326568,-0.1833407133817672,0.4673790335655212
1631018820205,0.6434072256088257,0.0766483843326568,-0.1833407133817672,0.4673790335655212
1631018820299,0.6434072256088257,0.0766483843326568,-0.1833407133817672,0.4673790335655212
1631018820408,0.6434072256088257,0.0540672950446605,-0.1833407133817672,0.4673790335655212
1631018820520,0.6434072256088257,0.0113773951306939,-0.1833407133817672,0.4673790335655212
1631018820583,0.6434072256088257,-0.0434800684452056,-0.1833407133817672,0.4673790335655212
1631018820677,0.6434072256088257,-0.0434800684452056,-0.1833407133817672,0.4673790335655212
1631018820833,0.6434072256088257,-0.0434800684452056,-0.1833407133817672,0.4673790335655212
1631018820911,0.6434072256088257,-0.0434800684452056,-0.1833407133817672,0.4673790335655212
1631018821036,0.6434072256088257,-0.0434800684452056,-0.1833407133817672,0.4673790335655212
1631018821098,0.6434072256088257,-0.0434800684452056,-0.1833407133817672,0.4673790335655212
1631018821192,0.6434072256088257,-0.0434800684452056,-0.1833407133817672,0.4673790335655212
1631018821301,0.6434072256088257,-0.0434800684452056,-0.1833407133817672,0.4673790335655212
1631018821411,0.6434072256088257,-0.0434800684452056,-0.1833407133817672,0.4673790335655212
1631018821539,0.6434072256088257,-0.0434800684452056,-0.0620940700173378,0.4673790335655212
1631018821617,0.6434072256088257,-0.0434800684452056,-0.0954026654362678,0.4673790335655212
1631018821711,0.6434072256088257,-0.0434800684452056,-0.0954026654362678,0.4673790335655212
1631018821789,0.6434072256088257,-0.0434800684452056,-0.0954026654362678,0.4673790335655212
1631018821898,0.6434072256088257,-0.0434800684452056,-0.0954026654362678,0.4673790335655212
1631018822039,0.6434072256088257,-0.0434800684452056,-0.0954026654362678,0.4673790335655212
1631018822133,0.6434072256088257,-0.0434800684452056,-0.0954026654362678,0.4673790335655212
1631018822226,0.6434072256088257,-0.0434800684452056,-0.0954026654362678,0.4673790335655212
1631018822351,0.6434072256088257,-0.0434800684452056,-0.0954026654362678,0.4673790335655212
1631018822461,0.6434072256088257,-0.0434800684452056,-0.0954026654362678,0.4673790335655212
1631018822542,0.6434072256088257,-0.0434800684452056,-0.0954026654362678,0.4673790335655212
1631018822667,0.6434072256088257,-0.0434800684452056,-0.0954026654362678,0.4673790335655212
1631018822761,0.6434072256088257,-0.0434800684452056,-0.1266209185123443,0.4673790335655212
1631018822870,0.6434072256088257,-0.0434800684452056,-0.1266209185123443,0.4673790335655212
1631018822933,0.6434072256088257,-0.0434800684452056,-0.1266209185123443,0.4673790335655212
1631018823027,0.6434072256088257,-0.0434800684452056,-0.1266209185123443,0.4673790335655212
1631018823120,0.6434072256088257,-0.0434800684452056,-0.1266209185123443,0.4673790335655212
1631018823261,0.6434072256088257,-0.0378958955407142,-0.1091195121407508,0.4673790335655212
1631018823339,0.763105034828186,-0.0577561259269714,-0.1303632110357284,0.5539824962615967
1631018823449,0.7307866811752319,-0.0615431144833564,-0.1455142349004745,0.5303446650505066
1631018823545,0.6957284212112427,-0.0598174929618835,-0.1470226496458053,0.5043447613716125
1631018823623,0.6634582281112671,-0.0622558519244194,-0.1363604217767715,0.4774878025054931
1631018823733,0.6357895731925964,-0.0707475319504737,-0.121937982738018,0.4493043422698974
1631018823873,0.6131938695907593,-0.0813066884875297,-0.1120596453547477,0.4197660386562347
1631018823967,0.5956782698631287,-0.0888725072145462,-0.1081190556287765,0.3892453908920288
1631018824045,0.5833196043968201,-0.0925238206982612,-0.105427362024784,0.3594806492328644
1631018824139,0.5743345618247986,-0.0930965691804885,-0.0998877435922622,0.3330788910388946
1631018824295,0.5653286576271057,-0.0898999124765396,-0.0930668339133262,0.3117787837982178
1631018824342,0.5543933510780334,-0.0806937590241432,-0.0898693725466728,0.2955292463302612
1631018824483,0.5543933510780334,-0.0937177240848541,-0.0935923159122467,0.2955292463302612
1631018824564,0.5330445170402527,-0.1026384532451629,-0.0994245409965515,0.2673628330230713
1631018824658,0.4996155202388763,-0.1031467318534851,-0.0991458967328071,0.2255723178386688
1631018824751,0.4622388780117035,-0.0973652005195617,-0.0883485674858093,0.1757077425718307
1631018824845,0.4313023090362549,-0.0926334783434867,-0.0732771381735801,0.124644748866558
1631018824939,0.4127154350280761,-0.0939467027783393,-0.0646434649825096,0.0748136639595031
1631018825126,0.4065831899642944,-0.0998217687010765,-0.0587875992059707,0.0254673939198255
1631018825189,0.4084086418151855,-0.1027711182832717,-0.0580672286450862,-0.0235937964171171
1631018825267,0.4148225784301758,-0.096053697168827,-0.061293177306652,-0.0674742832779884
1631018825360,0.423051655292511,-0.0794705003499984,-0.064055822789669,-0.0982227995991706
1631018825470,0.4298497438430786,-0.0589653886854648,-0.0640064552426338,-0.1046995967626571
1631018825551,0.4298497438430786,-0.0589653886854648,-0.0653537213802337,-0.1046995967626571
1631018825712,0.4298497438430786,-0.0589653886854648,-0.0730172768235206,-0.1046995967626571
1631018825803,0.4298497438430786,-0.0589653886854648,-0.087121732532978,-0.1046995967626571
1631018825891,0.4298497438430786,-0.0589653886854648,-0.1037269681692123,-0.1046995967626571
1631018825980,0.4342358410358429,-0.4868568480014801,-0.1181440651416778,0.120060458779335
1631018826076,0.4342358410358429,-0.4856236577033996,-0.1333584189414978,0.1148834526538848
1631018826179,0.4342358410358429,-0.4718591868877411,-0.1587277054786682,0.1148834526538848
1631018826316,0.4342358410358429,-0.4545910358428955,-0.2012057453393936,0.1148834526538848
1631018826394,0.4342358410358429,-0.4305889904499054,-0.2293732911348343,0.1148834526538848
1631018826521,0.4342358410358429,-0.3968393504619598,-0.2505902647972107,0.1148834526538848
1631018826639,0.4342358410358429,-0.3546304702758789,-0.2505902647972107,0.1148834526538848
1631018826709,0.4342358410358429,-0.3546304702758789,-0.2505902647972107,0.1148834526538848
1631018826819,0.4342358410358429,-0.3546304702758789,-0.2505902647972107,0.1148834526538848
1631018826913,0.4342358410358429,-0.3546304702758789,-0.2514155805110931,0.1148834526538848
1631018827022,0.4342358410358429,-0.2660113573074341,-0.2813596725463867,0.1148834526538848
1631018827133,0.4342358410358429,-0.2166475355625152,-0.3130060136318207,0.1148834526538848
1631018827188,0.4342358410358429,-0.1798188239336013,-0.3365158140659332,0.1221689283847808
1631018827297,0.4342358410358429,-0.1440901011228561,-0.343267560005188,0.155235081911087
1631018827393,0.4342358410358429,-0.1041097044944763,-0.3337248563766479,0.1845851391553878
1631018827519,0.4342358410358429,-0.0646392926573753,-0.3148908317089081,0.1946302056312561
1631018827628,0.5273476839065552,-0.0318061746656894,-0.2910364866256714,0.1849765926599502
1631018827739,0.5325794219970703,-0.0079743657261133,-0.2617161273956299,0.1557434499263763
1631018827836,0.5207746028900146,0.0077802129089832,-0.2291121929883957,0.1381016671657562
1631018827921,0.5006829500198364,0.0152667947113513,-0.2256412655115127,0.1329623460769653
1631018828042,0.4814171195030212,0.0139791807159781,-0.2283388674259185,0.1360363662242889
1631018828136,0.4691499769687652,0.0050367177464067,-0.2330059707164764,0.1409613788127899
1631018828229,0.4650948643684387,-0.0092797605320811,-0.2334762215614318,0.1429488956928253
1631018828323,0.4656081795692444,-0.0210612416267395,-0.2267840057611465,0.1403247416019439
1631018828417,0.4645137190818786,-0.0313705839216709,-0.2112163752317428,0.1335145682096481
1631018828507,0.4583348035812378,-0.0592540092766284,-0.1877562701702118,0.1239087879657745
1631018828600,0.4484419822692871,-0.076726458966732,-0.1620463281869888,0.113320380449295
1631018828741,0.4395891427993774,-0.0814940854907035,-0.1413139402866363,0.0915326029062271
1631018828866,0.4369754791259765,-0.0823661759495735,-0.1296562105417251,0.0703534930944442
1631018828928,0.4394839406013489,-0.0869007632136344,-0.1262476593255996,0.0564860440790653
1631018829032,0.4428524374961853,-0.0941182821989059,-0.1281847953796386,0.0539331100881099
1631018829134,0.4445586204528808,-0.1000278666615486,-0.1325999051332473,0.0605526901781559
1631018829228,0.4445005059242248,-0.1019809022545814,-0.1380828022956848,0.069892294704914
1631018829353,0.4442051351070404,-0.0994089394807815,-0.1429331302642822,0.0754013136029243
1631018829446,0.4434370696544647,-0.0919520631432533,-0.1450722515583038,0.0761881545186042
1631018829558,0.4410456717014313,-0.0812497287988662,-0.1419179588556289,0.0767968744039535
1631018829652,0.4359550476074219,-0.071511372923851,-0.1324919313192367,0.0850035473704338
1631018829761,0.4268914461135864,-0.0657371580600738,-0.1208691447973251,0.1040526926517486
1631018829808,0.4140124917030334,-0.0624826252460479,-0.1135232970118522,0.1290283650159835
1631018829964,0.4009082317352295,-0.0581795200705528,-0.1138307601213455,0.1524957418441772
1631018830074,0.3965351581573486,-0.0498608574271202,-0.1194529458880424,0.1716780066490173
1631018830136,0.4088487029075622,-0.0375113673508167,-0.1257153004407882,0.1885944455862045
1631018830277,0.4343401193618774,-0.0254785548895597,-0.1304449290037155,0.2055281847715377
1631018830372,0.4594459533691406,-0.0267153214663267,-0.1347714364528656,0.2207032740116119
1631018830435,0.4715805649757385,-0.0278153549879789,-0.138459026813507,0.2310120016336441
1631018830546,0.4685567021369934,-0.0292350891977548,-0.1406991630792617,0.2390044927597046
1631018830687,0.4570985436439514,-0.0311190150678157,-0.1418119221925735,0.2467333525419235
1631018830796,0.4473425149917602,-0.0327462553977966,-0.1426815241575241,0.2560060620307922
1631018830858,0.4456565380096435,-0.033345878124237,-0.1363741159439087,0.2677923142910003
1631018830968,0.4586807787418365,-0.0335592925548553,-0.1299548000097274,0.2810724973678589
1631018831062,0.4873837530612945,-0.0323060937225818,-0.1244970560073852,0.2920497953891754
1631018831202,0.5223311185836792,-0.0254647880792617,-0.1242645680904388,0.336920291185379
1631018831296,0.5513092279434204,-0.0085231401026248,-0.1315311342477798,0.3752613067626953
1631018831374,0.5686084628105164,0.0205429308116436,-0.1431312263011932,0.3954211175441742
1631018831487,0.5769264698028564,0.0205429308116436,-0.1358304619789123,0.3969509601593017
1631018831564,0.5782336592674255,0.0205429308116436,-0.1300599128007888,0.3880921304225921
1631018831658,0.5708853006362915,0.0205429308116436,-0.1335968226194381,0.3776813745498657
1631018831786,0.5538033843040466,0.0205429308116436,-0.143620565533638,0.3679570853710174
1631018831864,0.531566858291626,0.0205429308116436,-0.1551554054021835,0.3589041829109192
1631018832005,0.5139836668968201,0.0205429308116436,-0.164597749710083,0.3525113463401794
1631018832067,0.5079004764556885,0.0205429308116436,-0.1700501143932342,0.3384153842926025
1631018832176,0.5111663937568665,0.0106011545285582,-0.1707490235567093,0.3292488157749176
1631018832254,0.5162957906723022,0.0228314977139234,-0.1708671450614929,0.3225259184837341
1631018832410,0.5170713663101196,0.0168858952820301,-0.1830682903528213,0.3225259184837341
1631018832523,0.5069993138313293,0.0053403587080538,-0.1960630714893341,0.3225259184837341
1631018832601,0.4835448563098907,-0.0027448667678982,-0.2071737051010131,0.3225259184837341
1631018832679,0.4508737921714782,-0.0086401319131255,-0.2131046950817108,0.2896976768970489
1631018832773,0.4193137586116791,-0.0167385451495647,-0.211943507194519,0.2394908517599105
1631018832867,0.3981472551822662,-0.0286721289157867,-0.2042474150657653,0.233484148979187
1631018833039,0.389220118522644,-0.0414522141218185,-0.2076385021209716,0.2312311828136444
1631018833117,0.3903567194938659,-0.0489537604153156,-0.2043297588825225,0.2330106049776077
1631018833195,0.3988986909389496,-0.0470499023795127,-0.1929082125425338,0.2376516163349151
1631018833313,0.4156596064567566,-0.0371160767972469,-0.1766495257616043,0.2446852773427963
1631018833379,0.4416728019714355,-0.0159276016056537,-0.1570263355970382,0.2536205947399139
1631018833491,0.474286675453186,0.0038022755179554,-0.1359495520591735,0.2643377482891083
1631018833628,0.508120596408844,0.0177200213074684,-0.1164867728948593,0.2818389236927032
1631018833716,0.5398029685020447,0.024073950946331,-0.1027648672461509,0.3173707723617553
1631018833850,0.5422648191452026,0.0253761187195777,-0.0967335030436515,0.3251049518585205
1631018833915,0.5491912364959717,0.0257863458245992,-0.0959790050983429,0.3251049518585205
1631018834003,0.5613298416137695,0.0280668623745441,-0.096386544406414,0.3251049518585205
1631018834098,0.5761464238166809,0.0339523926377296,-0.0953494012355804,0.3251049518585205
1631018834248,0.592313289642334,0.0403374172747135,-0.0946934595704078,0.3251049518585205
1631018834322,0.6117163896560669,0.0500605665147304,-0.098095029592514,0.3251049518585205
1631018834427,0.6376044750213623,0.0675539225339889,-0.1070516183972358,0.2964492738246918
1631018834519,0.6700020432472229,0.0799224004149437,-0.1196585595607757,0.2890410721302032
1631018834604,0.7057768702507019,0.0835472717881202,-0.1343266069889068,0.3045042157173157
1631018834719,0.7427682876586914,0.0773659273982048,-0.1508266776800155,0.3303891718387604
1631018834860,0.7789618968963623,0.0622674934566021,-0.1683116108179092,0.3589859306812286
1631018834937,0.7789618968963623,0.0392179228365421,-0.1845888942480087,0.3589859306812286
1631018835063,0.7789618968963623,0.0087714605033397,-0.198706716299057,0.3589859306812286
1631018835141,0.7789618968963623,-0.0264508854597806,-0.2109231203794479,0.3589859306812286
1631018835205,0.7789618968963623,-0.0567207895219326,-0.2206836193799972,0.3589859306812286
1631018835345,0.7789618968963623,-0.0656093657016754,-0.2250611782073974,0.3589859306812286
1631018835455,0.7789618968963623,-0.0476697161793708,-0.2236272692680359,0.3589859306812286
1631018835544,0.7789618968963623,-0.0187076013535261,-0.2194235622882843,0.3589859306812286
1631018835648,0.7789618968963623,0.0033996675629168,-0.2152241021394729,0.3589859306812286
1631018835754,0.7789618968963623,0.0147712687030434,-0.2072385102510452,0.3589859306812286
1631018835855,0.7789618968963623,0.0219037029892206,-0.1914805620908737,0.3589859306812286
1631018835917,0.7789618968963623,0.0260593835264444,-0.1720559298992157,0.3589859306812286
1631018836073,0.7789618968963623,0.0274148061871528,-0.1590934693813324,0.3589859306812286
1631018836151,0.7789618968963623,0.0348050706088542,-0.1535398066043853,0.3589859306812286
1631018836245,0.7789618968963623,0.046037595719099,-0.1500144749879837,0.3589859306812286
1631018836339,0.7789618968963623,0.059775236994028,-0.1445665657520294,0.3589859306812286
1631018836433,0.7789618968963623,0.0755840465426445,-0.1440403312444687,0.3589859306812286
1631018836539,0.7789618968963623,0.0943928956985473,-0.1443763375282287,0.3589859306812286
1631018836648,0.7789618968963623,0.1179277971386909,-0.144251674413681,0.3589859306812286
1631018836773,0.7789618968963623,0.1443450152873993,-0.1410336941480636,0.3589859306812286
1631018836851,0.7789618968963623,0.1640815883874893,-0.133168026804924,0.3589859306812286
1631018836945,0.7789618968963623,0.1665127575397491,-0.1203949376940727,0.3589859306812286
1631018837073,0.7789618968963623,0.150936871767044,-0.1036267727613449,0.3589859306812286
1631018837151,0.7789618968963623,0.150936871767044,-0.0860802605748176,0.3589859306812286
1631018837260,0.7789618968963623,0.150936871767044,-0.0755119323730468,0.3589859306812286
1631018837354,0.7789618968963623,0.150936871767044,-0.0801436007022857,0.3589859306812286
1631018837463,0.7789618968963623,0.150936871767044,-0.0993924066424369,0.3589859306812286
1631018837560,0.7789618968963623,0.150936871767044,-0.0993924066424369,0.3589859306812286
1631018837638,0.7789618968963623,0.150936871767044,-0.0993924066424369,0.3589859306812286
1631018837747,0.7789618968963623,0.150936871767044,-0.0993924066424369,0.3589859306812286
1631018837888,0.7789618968963623,0.150936871767044,-0.0993924066424369,0.3589859306812286
1631018837997,0.7789618968963623,0.150936871767044,-0.0993924066424369,0.3589859306812286
1631018838095,0.7789618968963623,0.150936871767044,-0.0993924066424369,0.3589859306812286
1631018838155,0.7789618968963623,0.150936871767044,-0.0993924066424369,0.3589859306812286
1631018838264,0.7789618968963623,0.150936871767044,-0.0993924066424369,0.3589859306812286
1631018838358,0.7789618968963623,0.150936871767044,-0.0993924066424369,0.3589859306812286
1631018838517,0.7789618968963623,0.150936871767044,-0.0993924066424369,0.3589859306812286
1631018838610,0.7789618968963623,0.150936871767044,-0.0993924066424369,0.3589859306812286
1631018838688,0.7789618968963623,0.150936871767044,-0.0993924066424369,0.3589859306812286
1631018838782,0.7789618968963623,0.150936871767044,-0.0993924066424369,0.3589859306812286
1631018838892,0.7789618968963623,0.150936871767044,-0.2155024409294128,0.3589859306812286
1631018838985,0.4749307930469513,-0.2717839181423187,-0.236515998840332,0.2076446563005447
1631018839142,0.4519034624099731,-0.24197918176651,-0.241949200630188,0.2281195372343063
1631018839235,0.4414626955986023,-0.2225108593702316,-0.227604866027832,0.2476233690977096
1631018839298,0.4414626955986023,-0.2150928974151611,-0.2026359438896179,0.2476233690977096
1631018839391,0.4414626955986023,-0.2154935747385025,-0.1790008246898651,0.2476233690977096
1631018839522,0.4414626955986023,-0.2154935747385025,-0.1612308472394943,0.2476233690977096
1631018839616,0.4414626955986023,-0.2154935747385025,-0.1468300223350525,0.2476233690977096
1631018839725,0.4414626955986023,-0.2154935747385025,-0.1334521770477295,0.2476233690977096
1631018839819,0.4414626955986023,-0.2154935747385025,-0.1204222217202186,0.2476233690977096
1631018839944,0.4414626955986023,-0.2154935747385025,-0.1204222217202186,0.2508370578289032
1631018840006,0.4414626955986023,-0.2154935747385025,-0.1204222217202186,0.2508370578289032
1631018840116,0.4414626955986023,-0.2154935747385025,-0.1216742545366287,0.2508370578289032
1631018840194,0.3959118127822876,-0.2047228366136551,-0.1148352548480033,0.2320900559425354
1631018840319,0.3615051209926605,-0.1880590915679931,-0.102110281586647,0.2433655709028244
1631018840428,0.3615051209926605,-0.1720765978097915,-0.0840378180146217,0.2750227153301239
1631018840511,0.3615051209926605,-0.1656691581010818,-0.0610082261264324,0.2750227153301239
1631018840620,0.3615051209926605,-0.1656691581010818,-0.0379184707999229,0.2750227153301239
1631018840714,0.3615051209926605,-0.1656691581010818,-0.0217262543737888,0.2750227153301239
1631018840792,0.3615051209926605,-0.1656691581010818,-0.014590511098504,0.2750227153301239
1631018840948,0.3615051209926605,-0.1656691581010818,-0.0118884481489658,0.2750227153301239
1631018841042,0.3615051209926605,-0.1656691581010818,-0.0118884481489658,0.2750227153301239
1631018841136,0.3615051209926605,-0.1656691581010818,-0.0118884481489658,0.2750227153301239
1631018841214,0.3615051209926605,-0.1656691581010818,-0.0118884481489658,0.2750227153301239
1631018841339,0.3615051209926605,-0.1656691581010818,-0.0118884481489658,0.2750227153301239
1631018841417,0.3615051209926605,-0.1656691581010818,-0.0118884481489658,0.2750227153301239
1631018841529,0.3615051209926605,-0.1656691581010818,-0.0118884481489658,0.2750227153301239
1631018841638,0.3615051209926605,-0.1656691581010818,-0.0118884481489658,0.2750227153301239
1631018841732,0.3615051209926605,-0.1656691581010818,-0.0118884481489658,0.2750227153301239
1631018841841,0.3615051209926605,-0.1656691581010818,-0.0118884481489658,0.2750227153301239
1631018841935,0.3615051209926605,-0.1656691581010818,-0.0118884481489658,0.2750227153301239
1631018842029,0.3615051209926605,-0.1656691581010818,-0.0118884481489658,0.2750227153301239
1631018842154,0.3615051209926605,-0.1656691581010818,-0.0118884481489658,0.2750227153301239
1631018842248,0.3615051209926605,-0.1656691581010818,-0.0118884481489658,0.2750227153301239
1631018842341,0.3615051209926605,-0.1656691581010818,-0.0118884481489658,0.2750227153301239
1631018842482,0.3615051209926605,-0.1656691581010818,-0.0118884481489658,0.2750227153301239
1631018842562,0.3615051209926605,-0.1656691581010818,-0.0118884481489658,0.2750227153301239
1631018842625,0.3615051209926605,-0.1656691581010818,-0.0118884481489658,0.2750227153301239
1631018842765,0.3615051209926605,-0.1656691581010818,-0.0118884481489658,0.2750227153301239
1631018842859,0.3615051209926605,-0.1656691581010818,-0.0118884481489658,0.2750227153301239
1631018842969,0.3615051209926605,-0.1656691581010818,-0.0118884481489658,0.2750227153301239
1631018843031,0.3615051209926605,-0.1656691581010818,-0.0118884481489658,0.2750227153301239
1631018843140,0.3615051209926605,-0.1656691581010818,-0.0118884481489658,0.2750227153301239
1631018843265,0.3615051209926605,-0.1656691581010818,-0.0118884481489658,0.2750227153301239
1631018843390,0.3615051209926605,-0.1656691581010818,-0.0118884481489658,0.2750227153301239
1631018843468,0.3615051209926605,-0.1656691581010818,-0.0514438599348068,0.2750227153301239
1631018843596,0.3615051209926605,-0.1656691581010818,-0.0894199535250663,0.2750227153301239
1631018843659,0.3615051209926605,-0.1656691581010818,-0.1153561845421791,0.2750227153301239
1631018843784,0.3615051209926605,-0.1656691581010818,-0.1354311108589172,0.2750227153301239
1631018843893,0.3615051209926605,-0.1656691581010818,-0.1840855926275253,0.2750227153301239
1631018843987,0.3615051209926605,-0.1656691581010818,-0.274980366230011,0.2750227153301239
1631018844096,0.3615051209926605,-0.1656691581010818,-0.2562561333179474,0.2750227153301239
1631018844205,0.3615051209926605,-0.1656691581010818,-0.2367372810840606,0.2750227153301239
1631018844268,0.3615051209926605,-0.1656691581010818,-0.2234875261783599,0.2750227153301239
1631018844393,0.3615051209926605,-0.1656691581010818,-0.2235315442085266,0.2750227153301239
1631018844455,0.3615051209926605,-0.1656691581010818,-0.2352313995361328,0.2750227153301239
1631018844596,0.3615051209926605,0.0755830705165863,-0.2525785863399505,0.2750227153301239
1631018844690,0.3615051209926605,0.0538005754351615,-0.2672648131847381,0.2750227153301239
1631018844799,0.3615051209926605,0.0351598002016544,-0.2758534848690033,0.2750227153301239
1631018844861,0.4084145128726959,0.0300547648221254,-0.2792959809303283,-0.1252513080835342
1631018844971,0.4063454866409302,0.0357476994395256,-0.2781824469566345,-0.0763352885842323
1631018845080,0.4078474044799804,0.052302673459053,-0.2728300988674164,-0.0034720937255769
1631018845205,0.4078474044799804,0.0715546533465385,-0.2621065378189087,-0.0034720937255769
1631018845330,0.4078474044799804,0.0852868854999542,-0.2475356459617614,-0.0034720937255769
1631018845424,0.4078474044799804,0.0852868854999542,-0.2334102690219879,-0.0034720937255769
1631018845486,0.4078474044799804,0.0852868854999542,-0.2253957688808441,-0.0034720937255769
1631018845599,0.4078474044799804,0.0852868854999542,-0.2255628108978271,-0.0034720937255769
1631018845692,0.4078474044799804,0.0852868854999542,-0.2308032214641571,-0.0034720937255769
1631018845817,0.4078474044799804,0.0852868854999542,-0.2367760241031646,-0.0034720937255769
1631018845927,0.4078474044799804,0.0838487073779106,-0.2377116978168487,-0.0034720937255769
1631018845989,0.4078474044799804,0.0811272710561752,-0.2335287481546402,-0.0034720937255769
1631018846099,0.4203002452850342,0.0865718945860862,-0.2193008661270141,0.0134062236174941
1631018846223,0.4218648076057434,0.1052355766296386,-0.2035451084375381,0.0453964099287986
1631018846302,0.4218648076057434,0.1334502398967743,-0.1897013187408447,0.0453964099287986
1631018846505,0.4218648076057434,0.1615915149450302,-0.1781063079833984,0.0453964099287986
1631018846538,0.4218648076057434,0.1615915149450302,-0.1683741211891174,0.0453964099287986
1631018846616,0.4218648076057434,0.1615915149450302,-0.1627538502216339,0.0453964099287986
1631018846714,0.4218648076057434,0.1615915149450302,-0.1654777079820633,0.0453964099287986
1631018846792,0.4218648076057434,0.1615915149450302,-0.1786580681800842,0.0453964099287986
1631018846920,0.4218648076057434,0.1615915149450302,-0.199123814702034,0.0453964099287986
1631018847079,0.4218648076057434,0.1615915149450302,-0.2193775922060012,0.0453964099287986
1631018847180,0.4218648076057434,0.1615915149450302,-0.2193775922060012,0.0453964099287986
1631018847269,0.4218648076057434,0.1615915149450302,-0.2193775922060012,0.0453964099287986
1631018847345,0.4218648076057434,0.1615915149450302,-0.2193775922060012,0.0453964099287986
1631018847425,0.4218648076057434,0.1007037237286567,-0.2193775922060012,0.0453964099287986
1631018847519,0.4218648076057434,0.0815069302916526,-0.2193775922060012,0.0453964099287986
1631018847637,0.5910688638687134,0.0628723725676536,-0.2162346094846725,0.3689333498477936
1631018847741,0.606542706489563,0.0525643751025199,-0.2105673849582672,0.3882750868797302
1631018847819,0.614974319934845,0.0534904561936855,-0.2166779190301895,0.3880909085273742
1631018847963,0.6180598735809326,0.0599032677710056,-0.223588690161705,0.3751664459705353
1631018848021,0.6168197393417358,0.0637262687087059,-0.2252510339021682,0.3614677488803863
1631018848131,0.6122648119926453,0.0619924888014793,-0.222184345126152,0.352169394493103
1631018848240,0.6080502867698669,0.0560875833034515,-0.2169729471206665,0.3445859849452972
1631018848349,0.6076312065124512,0.0475169867277145,-0.2112577110528946,0.3330342173576355
1631018848443,0.6107577681541443,0.0375205315649509,-0.2049283534288406,0.3169908821582794
1631018848540,0.6140960454940796,0.0280967131257057,-0.1976584941148758,0.3006159365177154
1631018848649,0.6146224141120911,0.0093722473829984,-0.1898828893899917,0.2868770360946655
1631018848728,0.6124209761619568,-0.0039315335452556,-0.1827775835990905,0.2755714058876037
1631018848852,0.6136637330055237,-0.0138630978763103,-0.1692221462726593,0.2662499547004699
1631018848962,0.6153231263160706,-0.023736136034131,-0.1672741323709488,0.2496100217103958
1631018849056,0.6129220128059387,-0.0323060229420661,-0.1771509200334549,0.2231558263301849
1631018849165,0.604769229888916,-0.0385971255600452,-0.1923152655363083,0.1882721781730651
1631018849243,0.5916751027107239,-0.0471065305173397,-0.2041690200567245,0.1511168181896209
1631018849352,0.575215756893158,-0.0625323578715324,-0.2100562304258346,0.1214067563414573
1631018849493,0.5561977624893188,-0.0838785022497177,-0.2134043574333191,0.1024480387568473
1631018849559,0.5355832576751709,-0.1043413057923317,-0.2181276828050613,0.0858251079916954
1631018849652,0.5156440734863281,-0.1183123812079429,-0.2236755937337875,0.0642907544970512
1631018849777,0.4982098639011383,-0.1253752261400222,-0.2276308536529541,0.0416942350566387
1631018849871,0.4845354259014129,-0.1275320649147033,-0.2295760959386825,0.0315767340362072
1631018849965,0.4755101501941681,-0.127009630203247,-0.2331006079912185,0.038303967565298
1631018850074,0.4703794419765472,-0.1264629364013672,-0.2412530034780502,0.0512791015207767
1631018850183,0.4670307338237762,-0.1277787834405899,-0.2554480135440826,0.0608032643795013
1631018850277,0.4625564217567444,-0.1288187652826309,-0.2732768952846527,0.0665531903505325
1631018850371,0.454672247171402,-0.125670701265335,-0.2895489037036896,0.0724880248308181
1631018850480,0.4441828429698944,-0.1187003925442695,-0.2981134057044983,0.0797850042581558
1631018850543,0.4346511363983154,-0.1119480654597282,-0.297606885433197,0.0882647708058357
1631018850683,0.4287519156932831,-0.1096188649535179,-0.2938629984855652,0.0990519449114799
1631018850793,0.4252456426620483,-0.11111331731081,-0.2930795550346374,0.112693078815937
1631018850933,0.4205291271209717,-0.1138332337141037,-0.2972311675548553,0.1256500780582428
1631018851011,0.4141803085803985,-0.1164852082729339,-0.3008720576763153,0.1327858716249466
1631018851074,0.4080098271369934,-0.1206343844532966,-0.2980869710445404,0.1362352222204208
1631018851188,0.4036014676094055,-0.1281331032514572,-0.2897611856460571,0.1477405726909637
1631018851327,0.401334285736084,-0.1384867429733276,-0.2840141355991363,0.1774852126836776
1631018851380,0.4005516767501831,-0.1489467024803161,-0.2860383987426758,0.2207287847995758
1631018851495,0.399662047624588,-0.1556840240955352,-0.2928427159786224,0.2655556797981262
1631018851608,0.3976665139198303,-0.1578819304704666,-0.2973136007785797,0.30401811003685
1631018851686,0.3940972685813904,-0.1583415120840072,-0.292399525642395,0.3338274359703064
1631018851815,0.388973593711853,-0.1612044274806976,-0.2807361185550689,0.3544225096702575
1631018851920,0.3832437694072723,-0.1668595373630523,-0.2692879736423492,0.366798460483551
1631018852020,0.3810795545578003,-0.1700744181871414,-0.2647524774074554,0.3736888766288757
1631018852126,0.3865657448768616,-0.1671924740076065,-0.2676939964294433,0.3781938850879669
1631018852217,0.3972227573394775,-0.1601623296737671,-0.2724620401859283,0.3816549777984619
1631018852283,0.4077027440071106,-0.1553273200988769,-0.2745983898639679,0.3844363689422607
1631018852447,0.4159298241138458,-0.1550357937812805,-0.2730784714221954,0.3886651694774627
1631018852539,0.4226259291172027,-0.1557999551296234,-0.2716042399406433,0.3969542682170868
1631018852633,0.4309420585632324,-0.1508355736732483,-0.2727341949939728,0.4072490036487579
1631018852711,0.4429915249347687,-0.1369104385375976,-0.2751109302043915,0.4114950299263
1631018852820,0.4595100581645965,-0.1159579083323478,-0.2734002768993377,0.4009486734867096
1631018852883,0.4786718487739563,-0.0941804274916648,-0.2656279802322387,0.3729892373085022
1631018853017,0.4966426789760589,-0.0784742161631584,-0.2553833723068237,0.3314691483974457
1631018853126,0.5096132159233093,-0.0709390938282013,-0.2486508190631866,0.2846248149871826
1631018853224,0.5171128511428833,-0.0673970282077789,-0.2503915727138519,0.2399796545505523
1631018853318,0.5220662951469421,-0.0621716640889644,-0.2595237493515014,0.2029135823249817
1631018853412,0.5266597867012024,-0.0547618195414543,-0.2699230909347534,0.1764785200357437
1631018853524,0.5281665325164795,-0.049682792276144,-0.2736475169658661,0.1627117395401001
1631018853587,0.5214546322822571,-0.0505279339849948,-0.2699329257011413,0.1608614772558212
1631018853727,0.5065903663635254,-0.0554675385355949,-0.2642801105976105,0.1649697721004486
1631018853821,0.4898547232151031,-0.0589648932218551,-0.2610759735107422,0.1666367352008819
1631018853946,0.478192538022995,-0.0577246993780136,-0.2599545121192932,0.1613739430904388
1631018854055,0.4729748666286468,-0.0542044565081596,-0.2589035630226135,0.152485504746437
1631018854133,0.4693227112293243,-0.053223256021738,-0.257331520318985,0.1478975117206573
1631018854212,0.4617434442043304,-0.0564810410141944,-0.2549166977405548,0.151515707373619
1631018854337,0.4457597434520721,-0.0626666471362114,-0.2511821687221527,0.1606862992048263
1631018854430,0.4196823239326477,-0.0687532275915145,-0.2470409870147705,0.17178875207901
1631018854542,0.3852239847183227,-0.0725565925240516,-0.2451156079769134,0.1844472289085388
1631018854635,0.3486273884773254,-0.0723911747336387,-0.2475064247846603,0.1981781125068664
1631018854713,0.3166909515857696,-0.0690394267439842,-0.2508342266082763,0.2115031033754348
1631018854838,0.2914620339870453,-0.0643566772341728,-0.2481859922409057,0.2232222557067871
1631018854948,0.2718433141708374,-0.0599746704101562,-0.2350323945283889,0.2323106527328491
1631018855057,0.2586258351802826,-0.0571820810437202,-0.2137648314237594,0.236826479434967
1631018855120,0.2574758529663086,-0.0573501139879226,-0.1904919296503067,0.2350975722074508
1631018855276,0.2683364450931549,-0.0614150129258632,-0.1714411228895187,0.2275025099515915
1631018855338,0.2835463881492615,-0.0689211785793304,-0.1588864922523498,0.2204185128211975
1631018855417,0.2938608527183532,-0.0783836841583252,-0.1512665003538131,0.2207322120666504
1631018855576,0.2967219650745392,-0.0878824442625045,-0.1466403305530548,0.2299718856811523
1631018855654,0.2957608103752136,-0.0957363322377204,-0.1445156186819076,0.242404818534851
1631018855779,0.3043179214000702,-0.0950932726264,-0.1465896219015121,0.2364588677883148
1631018855842,0.3109824359416961,-0.0980344787240028,-0.1502182483673095,0.231101855635643
1631018855939,0.3119833171367645,-0.1046885699033737,-0.1567141711711883,0.229802593588829
1631018856050,0.3074578642845154,-0.1126537397503852,-0.1601465344429016,0.2318365424871444
1631018856206,0.3021796941757202,-0.1213435009121894,-0.155101016163826,0.2350087910890579
1631018856269,0.3021483719348907,-0.1341590881347656,-0.1432134062051773,0.2393402755260467
1631018856378,0.309554249048233,-0.1579985916614532,-0.1323365122079849,0.2458290010690689
1631018856487,0.3198131024837494,-0.1990632265806198,-0.1320472806692123,0.2549723386764526
1631018856537,0.3248960375785827,-0.2578320801258087,-0.1477768123149871,0.2666907012462616
1631018856615,0.3133693337440491,-0.320997953414917,-0.1775798946619033,0.281415581703186
1631018856803,0.2795146703720093,-0.3640004098415375,-0.2089695632457733,0.3057956993579864
1631018856896,0.2795146703720093,-0.3817916512489319,-0.2272031605243683,0.3057956993579864
1631018856990,0.2795146703720093,-0.3690357208251953,-0.2272031605243683,0.3057956993579864
1631018857068,0.2795146703720093,-0.3381125926971435,-0.2272031605243683,0.3057956993579864
1631018857178,0.2795146703720093,-0.2899155020713806,-0.2272031605243683,0.3057956993579864
1631018857273,0.3166331052780151,-0.2263524532318115,-0.2272031605243683,0.2871091365814209
1631018857383,0.3514570295810699,-0.1804447919130325,-0.2272031605243683,0.2685082554817199
1631018857492,0.3884874880313873,-0.1551494747400283,-0.2272031605243683,0.2551472187042236
1631018857589,0.4149442017078399,-0.1405750960111618,-0.2272031605243683,0.2498190551996231
1631018857683,0.4257180392742157,-0.1255899220705032,-0.2272031605243683,0.2497667670249939
1631018857777,0.4246791005134582,-0.1061752513051033,-0.2272031605243683,0.2507582008838653
1631018857871,0.4225449562072754,-0.0879104658961296,-0.1418936848640442,0.2524724304676056
1631018858011,0.4269890487194061,-0.0774986743927002,-0.1176660731434822,0.2558036148548126
1631018858120,0.4369075894355774,-0.0780408978462219,-0.0937679335474968,0.2585563063621521
1631018858199,0.4456116259098053,-0.0879264622926712,-0.0819562822580337,0.2585508823394775
1631018858277,0.4480547606945038,-0.1028195545077323,-0.0751829296350479,0.2577235400676727
1631018858402,0.4446419179439544,-0.1040478497743606,-0.0600939579308033,0.2617170512676239
1631018858480,0.4481978118419647,-0.1073575168848037,-0.032754935324192,0.2681204378604889
1631018858654,0.4483100771903991,-0.114051841199398,-0.0032828822731971,0.2766402065753937
1631018858732,0.4489050805568695,-0.1243196576833725,0.0083252415060997,0.281362920999527
1631018858810,0.4519297480583191,-0.1355403214693069,0.0130625208839774,0.2802628576755523
1631018858904,0.4577434360980987,-0.1425770670175552,0.0048639941960573,0.2786478698253631
1631018858982,0.4647609889507293,-0.144674614071846,-0.0097867837175726,0.2810601890087127
1631018859138,0.4713526368141174,-0.1485159546136856,-0.0267732385545969,0.2882629334926605
1631018859216,0.4764639437198639,-0.1625281572341919,-0.0302821174263954,0.3000929951667785
1631018859357,0.4808071851730346,-0.1908285319805145,-0.0343261957168579,0.3164247870445251
1631018859419,0.4843097031116485,-0.2291777580976486,-0.0414723269641399,0.3331723213195801
1631018859528,0.4865509271621704,-0.2676561176776886,-0.0508134141564369,0.3443630337715149
1631018859579,0.4884523451328277,-0.2937577366828918,-0.0562067069113254,0.3492701649665832
1631018859689,0.4934484958648681,-0.3010319769382477,-0.0548644512891769,0.3522152602672577
1631018859814,0.5037804841995239,-0.2932946979999542,-0.0531974136829376,0.355705976486206
1631018859986,0.5163608193397522,-0.2801651656627655,-0.062613695859909,0.3552031815052032
1631018860017,0.5262528657913208,-0.2672968208789825,-0.089581973850727,0.3470624685287475
1631018860142,0.5313559770584106,-0.2562265694141388,-0.1297294050455093,0.336960107088089
1631018860235,0.5324174165725708,-0.2492993623018264,-0.1698604673147201,0.3343830406665802
1631018860329,0.5303680896759033,-0.2481324821710586,-0.1975746154785156,0.3415169715881347
1631018860439,0.5256203413009644,-0.2492116093635559,-0.2094728052616119,0.3495285511016845
1631018860530,0.5209347009658813,-0.2455545514822006,-0.2085609287023544,0.3497062623500824
1631018860629,0.5194527506828308,-0.2329908013343811,-0.1980707943439483,0.3391453921794891
1631018860707,0.5212135910987854,-0.2146309167146682,-0.179496556520462,0.3201282322406769
1631018860816,0.5223007798194885,-0.1968358904123306,-0.153345301747322,0.2972379028797149
1631018860941,0.5190708637237549,-0.1817052811384201,-0.1242596805095672,0.2768058180809021
1631018861035,0.5107342004776001,-0.1672603189945221,-0.1022946238517761,0.263613611459732
1631018861175,0.4982028603553772,-0.1528773456811905,-0.0969263985753059,0.2559040784835815
1631018861238,0.4811871349811554,-0.1398608982563018,-0.1083924546837806,0.2484224140644073
1631018861332,0.4601260721683502,-0.1289179921150207,-0.1277730017900467,0.2381107211112976
1631018861457,0.4388121664524078,-0.1174124032258987,-0.1446774005889892,0.2258787602186203
1631018861525,0.4239228367805481,-0.1032378375530242,-0.156206339597702,0.2122673094272613
1631018861709,0.419426828622818,-0.088400974869728,-0.1635112017393112,0.194617748260498
1631018861741,0.4212163984775543,-0.0771881565451622,-0.1657100319862365,0.1705865859985351
1631018861866,0.4219729304313659,-0.073296457529068,-0.1599976271390915,0.1410245299339294
1631018861944,0.4184758961200714,-0.0787854865193367,-0.1464876532554626,0.1105678081512451
1631018862037,0.4131672084331512,-0.0939224734902381,-0.1296232044696808,0.0839990451931953
1631018862162,0.4092903733253479,-0.1158884838223457,-0.1133569180965423,0.0650312528014183
1631018862240,0.4070922434329986,-0.1380498260259628,-0.0980194136500358,0.0523076429963111
1631018862365,0.4034973680973053,-0.1532283425331115,-0.084521509706974,0.0403201021254062
1631018862444,0.3964666724205017,-0.16074039041996,-0.0753859207034111,0.0264144446700811
1631018862569,0.3862632811069488,-0.1657089740037918,-0.0716220960021019,0.017855729907751
1631018862647,0.3750941455364227,-0.1732923090457916,-0.0713254958391189,0.0246274154633283
1631018862740,0.3667745888233185,-0.1849412620067596,-0.0700907558202743,0.0453664176166057
1631018862881,0.3652373552322387,-0.1994595527648925,-0.0641505867242813,0.0706218406558036
1631018862959,0.3703966736793518,-0.2168377190828323,-0.053020242601633,0.0972504764795303
1631018863100,0.3770629167556762,-0.2367943376302719,-0.0391554273664951,0.1262381821870803
1631018863193,0.3787780702114105,-0.256227433681488,-0.0264278128743171,0.1541700065135955
1631018863287,0.3739233016967773,-0.2708804309368133,-0.0178731773048639,0.1737043261528015
1631018863350,0.3656516075134277,-0.2783157527446747,-0.0149673903360962,0.1841091364622116
1631018863475,0.3570257425308227,-0.2779900431632995,-0.0180946644395589,0.1938233524560928
1631018863571,0.34794881939888,-0.2692068517208099,-0.0273032709956169,0.2120178937911987
1631018863680,0.3392914235591888,-0.2531642913818359,-0.041807971894741,0.2377175390720367
1631018863758,0.3355977237224579,-0.2364229410886764,-0.0614938624203205,0.2619070708751678
1631018863852,0.3416583836078644,-0.2267879843711853,-0.0872010216116905,0.2772119641304016
1631018863977,0.3579261600971222,-0.2262262850999832,-0.1176910027861595,0.282431036233902
1631018864086,0.3822538554668426,-0.2297083884477615,-0.1472652107477188,0.2790659964084625
1631018864164,0.4130588471889496,-0.2299637645483017,-0.169079303741455,0.2698899507522583
1631018864289,0.4482227563858032,-0.2237740755081176,-0.1822801977396011,0.2574612498283386
1631018864368,0.4827617406845093,-0.2115945219993591,-0.1933454424142837,0.2439872920513153
1631018864461,0.5112147331237793,-0.1946967244148254,-0.2062582820653915,0.2293552458286285
1631018864574,0.5299453139305115,-0.1757805347442627,-0.2166647315025329,0.213166281580925
1631018864699,0.5388872623443604,-0.1588218361139297,-0.2183292061090469,0.1983337998390197
1631018864824,0.5406866073608398,-0.1454245746135711,-0.2120802402496338,0.1910932213068008
1631018864887,0.5387864112854004,-0.1346514374017715,-0.2046675682067871,0.1931149512529373
1631018864980,0.5347688794136047,-0.1257854104042053,-0.200948417186737,0.198855847120285
1631018865074,0.5286540389060974,-0.1195312738418579,-0.198863074183464,0.2010840326547622
1631018865152,0.5201822519302368,-0.1170341596007347,-0.1954952478408813,0.1973888874053955
1631018865339,0.5098042488098145,-0.1155601888895034,-0.1917012184858322,0.1904179155826568
1631018865418,0.4999841153621673,-0.1101685985922813,-0.1894489824771881,0.1836521923542022
1631018865511,0.4938090145587921,-0.0991800054907798,-0.1871349066495895,0.177938237786293
1631018865609,0.4926762580871582,-0.0858518481254577,-0.1816699206829071,0.174239695072174
1631018865718,0.495783656835556,-0.0744659677147865,-0.1714780628681183,0.1763738840818405
1631018865812,0.47921022772789,-0.0655049532651901,-0.1579973548650741,0.1749796122312545
1631018865921,0.452560156583786,-0.0615059994161129,-0.1427850276231765,0.1730552464723587
1631018866015,0.4197215437889099,-0.0616405680775642,-0.1223770529031753,0.1716992706060409
1631018866124,0.3896878063678741,-0.0658602640032768,-0.1153788641095161,0.172049731016159
1631018866234,0.3729265928268432,-0.0720036998391151,-0.1152707412838935,0.1750995963811874
1631018866296,0.3745481669902801,-0.0774042680859565,-0.1216282844543457,0.1804513931274414
1631018866405,0.3911154568195343,-0.0809916108846664,-0.1301396936178207,0.1864699125289917
1631018866528,0.4152231514453888,-0.0834451243281364,-0.1084983348846435,0.189458891749382
1631018866643,0.4394795298576355,-0.0854948386549949,-0.1056991070508956,0.1837871074676513
1631018866705,0.4614432752132416,-0.0853363499045372,-0.0992238819599151,0.1662448495626449
1631018866830,0.4865649938583374,-0.0819185078144073,-0.0904354676604271,0.142146036028862
1631018866908,0.4865649938583374,-0.0765695795416832,-0.079275757074356,0.142146036028862
1631018867002,0.4865649938583374,-0.0765695795416832,-0.0660079345107078,0.142146036028862
1631018867143,0.4865649938583374,-0.0765695795416832,-0.0504905022680759,0.142146036028862
1631018867252,0.4865649938583374,-0.0765695795416832,-0.0306584853678941,0.142146036028862
1631018867330,0.4865649938583374,-0.0765695795416832,-0.0306584853678941,0.142146036028862
1631018867439,0.4865649938583374,-0.0765695795416832,-0.0306584853678941,0.142146036028862
1631018867533,0.4865649938583374,-0.0765695795416832,-0.0306584853678941,0.142146036028862
1631018867630,0.4865649938583374,-0.0765695795416832,-0.0306584853678941,0.142146036028862
1631018867755,0.4865649938583374,-0.0765695795416832,-0.0306584853678941,0.142146036028862
1631018867880,0.4865649938583374,-0.0765695795416832,-0.0306584853678941,0.142146036028862
1631018867927,0.4865649938583374,-0.0765695795416832,-0.0306584853678941,0.142146036028862
1631018868036,0.4865649938583374,-0.0765695795416832,-0.0306584853678941,0.142146036028862
1631018868130,0.4865649938583374,-0.0765695795416832,-0.0306584853678941,0.142146036028862
1631018868223,0.4865649938583374,-0.0765695795416832,-0.0306584853678941,0.142146036028862
1631018868380,0.4865649938583374,-0.0765695795416832,-0.0306584853678941,0.142146036028862
1631018868442,0.4865649938583374,-0.0765695795416832,-0.0306584853678941,0.142146036028862
1631018868555,0.4865649938583374,-0.0765695795416832,-0.0306584853678941,0.142146036028862
1631018868679,0.4865649938583374,-0.0765695795416832,-0.0306584853678941,0.142146036028862
1631018868757,0.4865649938583374,-0.0765695795416832,-0.0306584853678941,0.142146036028862
1631018868851,0.4865649938583374,-0.0765695795416832,-0.0306584853678941,0.142146036028862
1631018868999,0.4865649938583374,-0.0765695795416832,-0.0306584853678941,0.142146036028862
1631018869061,0.4865649938583374,-0.0765695795416832,-0.0306584853678941,0.142146036028862
1631018869168,0.4865649938583374,-0.0765695795416832,-0.0306584853678941,0.142146036028862
1631018869270,0.4865649938583374,-0.0765695795416832,-0.0587729252874851,0.142146036028862
1631018869372,0.4865649938583374,-0.0765695795416832,-0.0838872790336608,0.142146036028862
1631018869489,0.4865649938583374,-0.0765695795416832,-0.0782889947295188,0.142146036028862
1631018869611,0.4865649938583374,-0.0765695795416832,-0.0598148144781589,0.142146036028862
1631018869711,0.4865649938583374,-0.0765695795416832,-0.0434121079742908,0.142146036028862
1631018869776,0.4865649938583374,-0.0765695795416832,-0.0361083708703517,0.142146036028862
1631018869870,0.4865649938583374,-0.0765695795416832,-0.037366397678852,0.142146036028862
1631018870024,0.4865649938583374,-0.0765695795416832,-0.0432624444365501,0.142146036028862
1631018870078,0.4865649938583374,0.0526087954640388,-0.0525125786662101,0.142146036028862
1631018870182,0.4865649938583374,0.0526087954640388,-0.0636933669447898,0.142146036028862
1631018870294,0.4865649938583374,0.0526087954640388,-0.0636933669447898,0.142146036028862
1631018870375,0.4865649938583374,0.0526087954640388,-0.0636933669447898,0.142146036028862
1631018870470,0.4865649938583374,0.0526087954640388,-0.0780471712350845,0.142146036028862
1631018870584,0.4865649938583374,0.0526087954640388,-0.0874390080571174,0.142146036028862
1631018870693,0.4865649938583374,0.0526087954640388,-0.0823382213711738,0.142146036028862
1631018870787,0.4865649938583374,0.0526087954640388,-0.0658982545137405,0.142146036028862
1631018870912,0.4865649938583374,0.0526087954640388,-0.0515329614281654,0.142146036028862
1631018870989,0.4865649938583374,0.0526087954640388,-0.0515617579221725,0.142146036028862
1631018871089,0.4865649938583374,0.0526087954640388,-0.0682625696063041,0.142146036028862
1631018871205,0.4865649938583374,0.0526087954640388,-0.0982522740960121,0.142146036028862
1631018871267,0.4865649938583374,0.0526087954640388,-0.1330240219831466,0.142146036028862
1631018871439,0.4865649938583374,0.0526087954640388,-0.1330240219831466,0.142146036028862
1631018871521,0.4865649938583374,0.0526087954640388,-0.1330240219831466,0.142146036028862
1631018871633,0.4865649938583374,0.0526087954640388,-0.1330240219831466,0.142146036028862
1631018871752,0.4865649938583374,0.0526087954640388,-0.1330240219831466,0.142146036028862
1631018871805,0.4865649938583374,0.0526087954640388,-0.1330240219831466,0.142146036028862
1631018871899,0.4865649938583374,0.0526087954640388,-0.1330240219831466,0.142146036028862
1631018872024,0.4865649938583374,0.0526087954640388,-0.1330240219831466,0.142146036028862
1631018872119,0.4865649938583374,0.0526087954640388,-0.1330240219831466,0.142146036028862
1631018872276,0.4865649938583374,0.0526087954640388,-0.1330240219831466,0.142146036028862
1631018872338,0.4865649938583374,0.0526087954640388,-0.1330240219831466,0.142146036028862
1631018872401,0.4865649938583374,0.0526087954640388,-0.1330240219831466,0.142146036028862
1631018872479,0.4865649938583374,0.0526087954640388,-0.1330240219831466,0.142146036028862
1631018872654,0.4865649938583374,0.0526087954640388,-0.1330240219831466,0.142146036028862
1631018872716,0.4865649938583374,0.0526087954640388,-0.1330240219831466,0.142146036028862
1631018872857,0.4865649938583374,0.0526087954640388,-0.1330240219831466,0.142146036028862
1631018872919,0.4865649938583374,0.0526087954640388,-0.1330240219831466,0.142146036028862
1631018872982,0.4865649938583374,0.0526087954640388,-0.1330240219831466,0.142146036028862
1631018873107,0.4865649938583374,0.0526087954640388,-0.1330240219831466,0.142146036028862
1631018873247,0.4865649938583374,0.0526087954640388,-0.1330240219831466,0.142146036028862
1631018873325,0.4865649938583374,0.0526087954640388,-0.1330240219831466,0.142146036028862
1631018873404,0.4865649938583374,0.0526087954640388,-0.1330240219831466,0.142146036028862
1631018873533,0.4865649938583374,0.0526087954640388,-0.1330240219831466,0.142146036028862
1631018873667,0.4865649938583374,0.0526087954640388,-0.1330240219831466,0.142146036028862
1631018873698,0.4865649938583374,0.0526087954640388,-0.1330240219831466,0.142146036028862
1631018873839,0.4865649938583374,0.0526087954640388,-0.1251351535320282,0.142146036028862
1631018873948,0.4865649938583374,0.0526087954640388,-0.1451857984066009,0.142146036028862
1631018874042,0.4865649938583374,0.0526087954640388,-0.1632660329341888,0.142146036028862
1631018874120,0.4865649938583374,0.0526087954640388,-0.146116018295288,0.142146036028862
1631018874214,0.8143876194953918,-0.0089511480182409,-0.1323796808719635,0.5346370935440063
1631018874307,0.8030460476875305,-0.0022043806966394,-0.1167643070220947,0.5031920075416565
1631018874464,0.7749584317207336,0.0017508695600554,-0.106755681335926,0.4678873121738434
1631018874545,0.7749584317207336,0.0046450588852167,-0.1004512533545494,0.4678873121738434
1631018874639,0.7749584317207336,0.0012862536823377,-0.100486896932125,0.4678873121738434
1631018874780,0.7749584317207336,-0.0097074462100863,-0.1077140420675277,0.4678873121738434
1631018874842,0.7749584317207336,-0.0097074462100863,-0.1213051155209541,0.4678873121738434
1631018874936,0.7749584317207336,-0.0097074462100863,-0.1389874517917633,0.4678873121738434
1631018875061,0.7749584317207336,-0.0097074462100863,-0.1571524888277053,0.4678873121738434
1631018875155,0.7749584317207336,-0.0097074462100863,-0.1694932579994201,0.4678873121738434
1631018875236,0.7749584317207336,-0.0097074462100863,-0.1717629581689834,0.4678873121738434
1631018875363,0.7749584317207336,-0.0097074462100863,-0.1606103479862213,0.4678873121738434
1631018875453,0.792873740196228,-0.0011539246188476,-0.1509728878736496,0.4507467448711395
1631018875566,0.787092387676239,0.0016142750391736,-0.1525332778692245,0.4173182845115661
1631018875660,0.787092387676239,-0.0162923075258731,-0.165274903178215,0.4173182845115661
1631018875769,0.787092387676239,-0.0368008613586425,-0.1790186315774917,0.4173182845115661
1631018875878,0.787092387676239,-0.0604728385806083,-0.1865789294242859,0.4173182845115661
1631018875957,0.787092387676239,-0.0893459171056747,-0.189127430319786,0.4173182845115661
1631018876066,0.787092387676239,-0.1203842237591743,-0.1907844543457031,0.4173182845115661
1631018876160,0.787092387676239,-0.1486291736364364,-0.1948151886463165,0.4173182845115661
1631018876285,0.787092387676239,-0.1603213846683502,-0.2004730254411697,0.4173182845115661
1631018876425,0.4390594959259033,-0.1564143002033233,-0.2028599977493286,0.4173182845115661
1631018876503,0.4083886444568634,-0.1451305001974105,-0.1977812647819519,0.4173182845115661
1631018876553,0.3781638145446777,-0.133083313703537,-0.1862660944461822,0.4173182845115661
1631018876647,0.3555202484130859,-0.133083313703537,-0.175557255744934,0.4173182845115661
1631018876741,0.3429407775402069,-0.133083313703537,-0.1718282997608184,0.4173182845115661
1631018876881,0.3412021398544311,-0.133083313703537,-0.1746260076761245,0.4173182845115661
1631018876975,0.3515577316284179,-0.133083313703537,-0.179237961769104,0.4173182845115661
1631018877067,0.3690545856952667,-0.133083313703537,-0.1814256608486175,0.4173182845115661
1631018877169,0.3857883512973785,-0.1358738839626312,-0.179606094956398,0.3580285608768463
1631018877302,0.3959197700023651,-0.1045594662427902,-0.1766209006309509,0.3926581740379333
1631018877379,0.399204820394516,-0.0832273364067077,-0.1741534918546676,0.4314265549182892
1631018877521,0.3978999853134155,-0.0797197297215461,-0.1718122214078903,0.4332126975059509
1631018877587,0.3921604454517364,-0.0942375287413597,-0.1672717183828354,0.420671671628952
1631018877679,0.3796960115432739,-0.1144431456923484,-0.1569391787052154,0.4001714289188385
1631018877815,0.3680054545402527,-0.134858101606369,-0.1418244391679763,0.3771409392356872
1631018877881,0.363475352525711,-0.1548559814691543,-0.1283212602138519,0.3557803928852081
1631018877973,0.367512434720993,-0.1774454712867736,-0.1219172924757003,0.3380373418331146
1631018878116,0.3791259229183197,-0.2016494572162628,-0.1221273764967918,0.3229921460151672
1631018878209,0.3972319662570953,-0.2036253064870834,-0.1244706958532333,0.3095107078552246
1631018878303,0.4170136153697967,-0.204561248421669,-0.127209722995758,0.2997978627681732
1631018878397,0.4300414621829986,-0.2045355439186096,-0.1325535327196121,0.2971884906291961
1631018878494,0.4301260113716125,-0.2046758532524109,-0.1404061168432235,0.3045536875724792
1631018878575,0.4205639064311981,-0.2046758532524109,-0.1460592299699783,0.3075482547283172
1631018878700,0.4133332371711731,-0.2046758532524109,-0.1450907438993454,0.2940078377723694
1631018878808,0.4180268943309784,-0.2433412224054336,-0.1381968110799789,0.2720912098884582
1631018878949,0.4324721395969391,-0.2793836891651153,-0.1294790208339691,0.2460684478282928
1631018878996,0.4360379874706268,-0.2955926060676574,-0.1227958798408508,0.2229500263929367
1631018879121,0.4434401094913482,-0.2866713106632232,-0.1210236698389053,0.209746167063713
1631018879230,0.4534273147583008,-0.2629866302013397,-0.1254760473966598,0.2085002660751342
1631018879324,0.4651426970958709,-0.2388827353715896,-0.13397216796875,0.2175222188234329
1631018879418,0.4781824052333832,-0.2225652039051056,-0.140010192990303,0.2326993942260742
1631018879511,0.4919620156288147,-0.2145859152078628,-0.1381528973579406,0.250912994146347
1631018879639,0.50282222032547,-0.2115633636713028,-0.1313643455505371,0.2884657084941864
1631018879701,0.5050559043884277,-0.2115633636713028,-0.1276686787605285,0.3119021654129028
1631018879795,0.5211102366447449,-0.2115633636713028,-0.1312050372362136,0.315254271030426
1631018879951,0.5398520231246948,-0.2115633636713028,-0.1386643797159195,0.2931371033191681
1631018880045,0.567482054233551,-0.2115633636713028,-0.1449746638536453,0.2461275905370712
1631018880139,0.5929996967315674,-0.1229599863290786,-0.149965152144432,0.1824961304664611
1631018880232,0.5999893546104431,-0.1064065620303154,-0.1572668999433517,0.1726820617914199
1631018880310,0.5857951045036316,-0.095980979502201,-0.1699679940938949,0.172813206911087
1631018880420,0.5604663491249084,-0.099094845354557,-0.1887678205966949,0.176893800497055
1631018880549,0.5604663491249084,-0.1094414889812469,-0.2111642658710479,0.176893800497055
1631018880674,0.5604663491249084,-0.1094414889812469,-0.2258042693138122,0.176893800497055
1631018880768,0.5604663491249084,-0.1094414889812469,-0.2129686325788498,0.176893800497055
1631018880846,0.5604663491249084,-0.1094414889812469,-0.1637073755264282,0.176893800497055
1631018880924,0.5604663491249084,-0.1094414889812469,-0.094923086464405,0.176893800497055
1631018881002,0.5604663491249084,-0.1094414889812469,-0.0326859168708324,0.176893800497055
1631018881158,0.5604663491249084,-0.1094414889812469,0.0089075770229101,0.1488829553127288
1631018881268,0.5604663491249084,-0.1094414889812469,0.0324790626764297,0.1260413974523544
1631018881361,0.5462377071380615,-0.1120072230696678,0.0481483191251754,0.1169260889291763
1631018881424,0.5254005193710327,-0.1076370850205421,0.062801606953144,0.1241308748722076
1631018881590,0.4927197098731994,-0.0980734825134277,0.0760206580162048,0.1416048854589462
1631018881668,0.4927197098731994,-0.0963311195373535,0.0839860364794731,0.1416048854589462
1631018881778,0.4927197098731994,-0.0448900088667869,0.0869936943054199,0.1416048854589462
1631018881903,0.4927197098731994,0.0033795414492487,0.0886652395129203,0.1416048854589462
1631018881965,0.4927197098731994,0.0617206506431102,0.0913888216018676,0.1416048854589462
1631018882028,0.4927197098731994,0.1158262342214584,0.0942291691899299,0.1416048854589462
1631018882168,0.3924647867679596,0.10059205442667,0.094257928431034,0.4480303823947906
1631018882262,0.3999851942062378,0.078430138528347,0.0856785327196121,0.4285001754760742
1631018882387,0.4167055785655975,0.0537320151925087,0.0615407302975654,0.4163716733455658
1631018882496,0.4363138675689697,0.0330293476581573,0.0188116934150457,0.4100672006607055
1631018882561,0.4533068239688873,0.02168501727283,-0.0369835905730724,0.4057041704654693
1631018882702,0.4645703136920929,0.0210928302258253,-0.0906223505735397,0.4000341296195984
1631018882764,0.4698725938796997,0.0276885461062192,-0.1306932419538498,0.3904965817928314
1631018882870,0.4696193933486938,0.0276885461062192,-0.1586987972259521,0.3904965817928314
1631018882980,0.4667382836341858,0.0276885461062192,-0.1814427226781845,0.3904965817928314
1631018883105,0.4659416973590851,0.0276885461062192,-0.1991523206233978,0.3904965817928314
1631018883199,0.4700035452842712,0.0276885461062192,-0.2054787576198578,0.3904965817928314
1631018883277,0.4762792289257049,0.0179274678230285,-0.2008515149354934,0.3904965817928314
1631018883370,0.4841263890266418,0.0048269140534102,-0.1934079229831695,0.3793276846408844
1631018883448,0.4894083440303802,-0.0132635356858372,-0.1903097480535507,0.3637857139110565
1631018883592,0.4937531650066376,-0.0320809446275234,-0.1923445761203766,0.3512946367263794
1631018883686,0.4990727007389068,-0.0440772734582424,-0.199196308851242,0.347416341304779
1631018883795,0.5057135820388794,-0.0422406755387783,-0.2095721960067749,0.3488457202911377
1631018883889,0.5137292146682739,-0.0220211986452341,-0.2202053219079971,0.3485416173934936
1631018883983,0.5209847092628479,-0.0220211986452341,-0.2259548157453537,0.3485416173934936
1631018884092,0.5252659320831299,-0.0220211986452341,-0.2228196859359741,0.3485416173934936
1631018884201,0.5278530716896057,-0.0220211986452341,-0.211680069565773,0.3485416173934936
1631018884342,0.533743679523468,-0.0220211986452341,-0.1947638988494873,0.3485416173934936
1631018884404,0.5493097305297852,-0.0220211986452341,-0.1712121367454528,0.5477833151817322
1631018884483,0.5746204853057861,-0.0220211986452341,-0.1382659524679184,0.5383661389350891
1631018884597,0.6020599007606506,-0.0220211986452341,-0.100805714726448,0.5234537720680237
1631018884706,0.6238789558410645,-0.0220211986452341,-0.0688432529568672,0.5108515024185181
1631018884815,0.637755811214447,-0.0220211986452341,-0.0515394322574138,0.5003414154052734
1631018884893,0.6442316174507141,-0.0220211986452341,-0.0494501776993274,0.5003414154052734
1631018885003,0.6543359160423279,-0.0220211986452341,-0.0558280833065509,0.5003414154052734
1631018885081,0.6675866842269897,-0.0220211986452341,-0.061587668955326,0.5003414154052734
1631018885163,0.6816114187240601,-0.0220211986452341,-0.0634806081652641,0.5003414154052734
1631018885315,0.6940029263496399,-0.0220211986452341,-0.0640471428632736,0.5003414154052734
1631018885464,0.7031264901161194,-0.0220211986452341,-0.0669499412178993,0.5003414154052734
1631018885561,0.7113184928894043,-0.0220211986452341,-0.0744058936834335,0.5003414154052734
1631018885625,0.7237809300422668,-0.0220211986452341,-0.0847315564751625,0.5081971883773804
1631018885717,0.743586540222168,-0.0220211986452341,-0.0835969299077987,0.4986588358879089
1631018885834,0.7676404118537903,-0.0220211986452341,-0.0845226943492889,0.474618524312973
1631018885914,0.7867582440376282,-0.0220211986452341,-0.0916172862052917,0.4470742046833038
1631018886028,0.7867582440376282,-0.0220211986452341,-0.1134149059653282,0.4470742046833038
1631018886135,0.7867582440376282,-0.0220211986452341,-0.1551372110843658,0.4470742046833038
1631018886230,0.7867582440376282,-0.0220211986452341,-0.2138512730598449,0.4470742046833038
1631018886337,0.7867582440376282,-0.0220211986452341,-0.2723110616207123,0.4470742046833038
1631018886405,0.7867582440376282,-0.0220211986452341,-0.3105583488941192,0.4470742046833038
1631018886514,0.7867582440376282,-0.0220211986452341,-0.3220324218273163,0.4470742046833038
1631018886624,0.7867582440376282,-0.0220211986452341,-0.3214306235313415,0.4470742046833038
1631018886718,0.7867582440376282,-0.0220211986452341,-0.3214279115200043,0.4470742046833038
1631018886858,0.7867582440376282,-0.0220211986452341,-0.3214279115200043,0.4470742046833038
1631018886936,0.7867582440376282,-0.0220211986452341,-0.3214279115200043,0.4470742046833038
1631018887030,0.7867582440376282,-0.0220211986452341,-0.3214279115200043,0.4470742046833038
1631018887139,0.7867582440376282,-0.0220211986452341,-0.3214279115200043,0.4470742046833038
1631018887249,0.7867582440376282,-0.0220211986452341,-0.3214279115200043,0.4470742046833038
