timestamp,TP9,AF7,AF8,TP10
1631018753893,0.6276223659515381,0.5099359750747681,0.3619362115859985,-0.1753744930028915
1631018753971,0.6276223659515381,0.5099359750747681,0.3619362115859985,-0.1753744930028915
1631018754065,0.6276223659515381,0.5099359750747681,0.3619362115859985,-0.1753744930028915
1631018754159,0.6276223659515381,0.5099359750747681,0.3619362115859985,-0.1753744930028915
1631018754237,0.6276223659515381,0.5099359750747681,0.3619362115859985,-0.1753744930028915
1631018754395,0.6276223659515381,0.5099359750747681,0.3619362115859985,-0.1753744930028915
1631018754505,0.6276223659515381,0.5099359750747681,0.3619362115859985,-0.1753744930028915
1631018754614,0.6276223659515381,0.5099359750747681,0.3619362115859985,-0.1753744930028915
1631018754661,0.6276223659515381,0.4961467981338501,0.0423015989363193,-0.1753744930028915
1631018754754,0.6276223659515381,0.4961467981338501,0.0423015989363193,-0.1753744930028915
1631018754895,0.6276223659515381,0.4961467981338501,0.0423015989363193,-0.1753744930028915
1631018754989,0.6276223659515381,0.4961467981338501,0.0423015989363193,-0.1753744930028915
1631018755083,0.6276223659515381,0.5045329332351685,0.0434521213173866,-0.1753744930028915
1631018755176,0.6276223659515381,0.5068438649177551,0.0548622868955135,-0.1753744930028915
1631018755317,0.6276223659515381,0.5086281299591064,0.0749721005558967,-0.1753744930028915
1631018755364,0.6276223659515381,0.5125225186347961,0.09904046356678,-0.1753744930028915
1631018755506,0.6276223659515381,0.5125225186347961,0.1301421225070953,-0.1753744930028915
1631018755600,0.6276223659515381,0.5125225186347961,0.139711782336235,-0.1753744930028915
1631018755709,0.6276223659515381,0.5125225186347961,0.140649527311325,-0.1753744930028915
1631018755834,0.6276223659515381,0.5125225186347961,0.140649527311325,-0.1753744930028915
1631018755912,1.204697847366333,0.4995240867137909,0.1114853844046592,-0.1753744930028915
1631018755991,1.231335997581482,0.4262105822563171,0.1152435839176178,1.0079673528671265
1631018756069,1.235215663909912,0.278029203414917,0.1205825358629226,1.0079673528671265
1631018756225,1.235215663909912,0.2482664585113525,0.1205825358629226,1.0079673528671265
1631018756334,1.235215663909912,0.2572982013225555,0.1205825358629226,1.0079673528671265
1631018756397,1.235215663909912,0.2572982013225555,0.1205825358629226,1.0079673528671265
1631018756490,1.235215663909912,0.2556829750537872,0.1205825358629226,1.022566318511963
1631018756584,1.235215663909912,0.2441848218441009,0.1237871572375297,1.0442148447036743
1631018756697,1.2395830154418943,0.2345277220010757,0.157800868153572,0.7925105094909668
1631018756869,1.242102026939392,0.2344921827316284,0.1665766537189483,0.8197196125984192
1631018756932,1.242102026939392,0.2331373244524002,0.1547146588563919,0.8746802806854248
1631018757010,1.242102026939392,0.2247801274061203,0.1339525431394577,1.010041356086731
1631018757103,1.213919758796692,0.2209824323654174,0.1109499186277389,1.010041356086731
1631018757307,1.1900392770767212,0.2420227378606796,0.1092698872089386,1.010041356086731
1631018757322,1.1628103256225586,0.2604179978370666,0.1117775440216064,1.005764722824097
1631018757432,1.1327515840530396,0.2697438895702362,0.1165092512965202,0.9991624355316162
1631018757541,1.0785664319992063,0.2865674495697021,0.1165092512965202,0.9986115097999572
1631018757624,0.9723262190818788,0.2882210314273834,0.1118158251047134,0.9986115097999572
1631018757715,0.889125645160675,0.2882210314273834,0.1051810756325721,0.9986115097999572
1631018757825,0.8577541708946228,0.2452180087566375,0.0924592241644859,0.9986115097999572
1631018757934,0.8577541708946228,0.3423580229282379,0.0891467779874801,0.9986115097999572
1631018758043,0.8577541708946228,0.3423580229282379,0.088191270828247,0.9986115097999572
1631018758137,0.8577541708946228,0.3423580229282379,0.0803658366203308,0.9978418946266174
1631018758215,0.8535875678062439,0.3423580229282379,0.0656453743577003,0.9978418946266174
1631018758356,0.8479924201965332,0.3423580229282379,0.0208757165819406,0.9978418946266174
1631018758418,0.8462808728218079,0.3423580229282379,-0.0511703751981258,0.9978418946266174
1631018758512,0.8462808728218079,0.3423580229282379,-0.0618100836873054,0.9978418946266174
1631018758670,0.8462808728218079,0.3423580229282379,-0.0679819509387016,0.9978418946266174
1631018758764,0.8462808728218079,0.3375576436519623,-0.0876836702227592,0.9978418946266174
1631018758842,0.8462808728218079,0.3200662136077881,-0.1451018303632736,0.9978418946266174
1631018758936,0.8462808728218079,0.2997143566608429,-0.1451018303632736,0.9978418946266174
1631018759045,0.8462808728218079,0.2948108315467834,-0.1451018303632736,0.9978418946266174
1631018759139,0.8462808728218079,0.2948108315467834,-0.1451018303632736,0.9978418946266174
1631018759248,0.8462808728218079,0.2948108315467834,-0.1451018303632736,0.9978418946266174
1631018759373,0.8462808728218079,0.2948108315467834,-0.1451018303632736,0.9978418946266174
1631018759467,0.8462808728218079,0.2948108315467834,-0.1451018303632736,0.9978418946266174
1631018759561,0.8462808728218079,0.2948108315467834,-0.1451018303632736,0.9978418946266174
1631018759657,0.8462808728218079,0.2948108315467834,-0.1451018303632736,0.9978418946266174
1631018759735,0.8462808728218079,0.2948108315467834,-0.1451018303632736,0.9978418946266174
1631018759891,0.8462808728218079,0.2948108315467834,-0.1451018303632736,0.9978418946266174
1631018759953,0.8462808728218079,0.2948108315467834,-0.1451018303632736,0.9978418946266174
1631018760063,0.8462808728218079,0.2948108315467834,-0.1451018303632736,0.9978418946266174
1631018760203,0.8462808728218079,0.2948108315467834,-0.1451018303632736,0.9978418946266174
1631018760250,0.8462808728218079,0.2948108315467834,-0.1451018303632736,0.9978418946266174
1631018760328,0.8462808728218079,0.2948108315467834,-0.1451018303632736,0.9978418946266174
1631018760471,0.8462808728218079,0.2948108315467834,-0.1451018303632736,0.9978418946266174
1631018760565,0.8462808728218079,0.2948108315467834,-0.1451018303632736,0.9978418946266174
1631018760658,0.8462808728218079,0.2948108315467834,-0.1451018303632736,0.9978418946266174
1631018760752,0.8462808728218079,0.2948108315467834,-0.1451018303632736,0.9978418946266174
1631018760862,0.8462808728218079,0.2948108315467834,-0.1451018303632736,0.9978418946266174
1631018760977,0.8462808728218079,0.2948108315467834,-0.1451018303632736,0.9978418946266174
1631018761109,0.8462808728218079,0.2948108315467834,-0.1451018303632736,0.9978418946266174
1631018761187,0.8462808728218079,0.2948108315467834,-0.1451018303632736,0.9978418946266174
1631018761377,0.8462808728218079,0.2948108315467834,-0.1451018303632736,0.9978418946266174
1631018761575,0.8462808728218079,0.2948108315467834,-0.1451018303632736,0.9978418946266174
1631018761713,0.8462808728218079,0.2948108315467834,-0.1451018303632736,0.9978418946266174
1631018761825,0.8462808728218079,0.2948108315467834,-0.1451018303632736,0.9978418946266174
1631018761930,0.8462808728218079,0.2948108315467834,-0.1451018303632736,0.9978418946266174
1631018761985,0.8462808728218079,0.2948108315467834,-0.1451018303632736,0.9978418946266174
1631018762048,0.8462808728218079,0.2948108315467834,-0.1451018303632736,0.9978418946266174
1631018762188,0.8462808728218079,0.2948108315467834,-0.1451018303632736,0.9978418946266174
1631018762298,0.8462808728218079,-0.0886234119534492,-0.1451018303632736,0.9978418946266174
1631018762475,0.8462808728218079,-0.0105592161417007,-0.1451018303632736,0.9978418946266174
1631018762600,0.8462808728218079,0.0679758265614509,-0.0073447106406092,0.9978418946266174
1631018762686,0.8462808728218079,0.0679758265614509,-0.0073447106406092,0.9978418946266174
1631018762764,0.8462808728218079,0.0679758265614509,-0.0073447106406092,0.9978418946266174
1631018762827,0.8462808728218079,0.0679758265614509,-0.0073447106406092,0.9978418946266174
1631018762936,0.8462808728218079,0.0679758265614509,-0.0073447106406092,0.9978418946266174
1631018763124,0.8462808728218079,0.0679758265614509,-0.0073447106406092,0.9978418946266174
1631018763217,0.8462808728218079,0.0679758265614509,-0.0073447106406092,0.9978418946266174
1631018763264,0.8462808728218079,0.0679758265614509,-0.0073447106406092,0.9978418946266174
1631018763327,0.8462808728218079,0.0679758265614509,-0.0073447106406092,0.9978418946266174
1631018763393,0.8462808728218079,0.0679758265614509,-0.0073447106406092,0.9978418946266174
1631018763471,0.8462808728218079,0.0679758265614509,-0.0073447106406092,0.9978418946266174
1631018763596,0.8462808728218079,0.0679758265614509,-0.0073447106406092,0.9978418946266174
1631018763695,0.8462808728218079,0.0679758265614509,-0.0073447106406092,0.9978418946266174
1631018763788,0.8462808728218079,0.0679758265614509,-0.0073447106406092,0.9978418946266174
1631018763866,0.8462808728218079,0.0679758265614509,-0.0073447106406092,0.9978418946266174
1631018763945,0.8462808728218079,0.0679758265614509,-0.0073447106406092,0.9978418946266174
1631018764007,0.8462808728218079,0.0679758265614509,-0.0073447106406092,0.9978418946266174
1631018764054,0.8462808728218079,0.0679758265614509,-0.0073447106406092,0.9978418946266174
1631018764148,0.8462808728218079,0.0679758265614509,-0.0073447106406092,0.9978418946266174
1631018764241,0.8462808728218079,0.0679758265614509,-0.0073447106406092,0.9978418946266174
1631018764319,0.8462808728218079,0.0679758265614509,-0.0073447106406092,0.9978418946266174
1631018764416,0.8462808728218079,0.0679758265614509,-0.0073447106406092,0.9978418946266174
1631018764509,0.8462808728218079,0.0679758265614509,-0.2616347968578338,0.9978418946266174
1631018764619,0.4015093445777893,0.0782237723469734,-0.2597880959510803,0.3653989434242248
1631018764744,0.4044231176376343,0.1297954469919204,-0.259583979845047,0.4123225212097168
1631018764853,0.4455561935901642,0.1744142770767212,-0.259583979845047,0.4804103374481201
1631018764947,0.5003949999809265,0.2125568091869354,-0.259583979845047,0.566695511341095
1631018765041,0.5594421029090881,0.2749455571174621,-0.2552781701087951,0.6279306411743164
1631018765103,0.6341801881790161,0.3863665759563446,-0.2423943728208542,0.6968992352485657
1631018765212,0.6508009433746338,0.4294190108776092,-0.2229786664247512,0.7232559323310852
1631018765355,0.6515358686447144,0.4294190108776092,-0.2179805189371109,0.7232559323310852
1631018765475,0.6515358686447144,0.4294190108776092,-0.2034083902835846,0.7232559323310852
1631018765541,0.6515358686447144,0.4294190108776092,-0.1516030132770538,0.7232559323310852
1631018765644,0.6590532064437866,0.4294190108776092,-0.1051592752337455,0.7232559323310852
1631018765751,0.6865924000740051,0.4355538785457611,-0.1257237046957016,0.7301115989685059
1631018765845,0.6975184679031372,0.4216163158416748,-0.1211604326963424,0.7322007417678833
1631018766003,0.7395442724227905,0.4216163158416748,-0.0889379382133483,0.7574065923690796
1631018766066,0.8766412734985352,0.4234572649002075,-0.0113794496282935,0.7574065923690796
1631018766160,1.0122218132019043,0.4370936155319214,-0.0113794496282935,0.7574065923690796
1631018766269,1.125665545463562,0.4726447761058807,-0.0113794496282935,0.7574065923690796
1631018766331,1.125665545463562,0.5425237417221069,-0.0113794496282935,0.7574065923690796
1631018766443,1.125665545463562,0.6268848776817322,-0.0113794496282935,0.7574065923690796
1631018766553,1.1244072914123535,0.6832692623138428,-0.0113794496282935,0.738618016242981
1631018766678,1.1216095685958862,0.6973935961723328,-0.0113794496282935,0.7018136382102966
1631018766740,1.1179558038711548,0.6910011768341064,-0.0113794496282935,0.6205583810806274
1631018766880,1.116985321044922,0.6785460710525513,-0.0113794496282935,0.5060031414031982
1631018766948,1.116985321044922,0.6705958247184753,-0.0113794496282935,0.4338150024414062
1631018767042,1.116985321044922,0.6700873970985413,-0.0113794496282935,0.4070222079753876
1631018767198,1.116985321044922,0.6730172038078308,-0.0215289089828729,0.4070222079753876
1631018767277,1.1157238483428955,0.6811156272888184,-0.0215289089828729,0.4070222079753876
1631018767384,1.1157238483428955,0.6955756545066833,-0.0215289089828729,0.4070222079753876
1631018767464,1.1157238483428955,0.7300024628639221,-0.0215289089828729,0.4070222079753876
1631018767565,1.1157238483428955,0.7603929042816162,-0.0215289089828729,0.4070222079753876
1631018767696,1.1157238483428955,0.7603929042816162,0.4236690104007721,0.4070222079753876
1631018767815,1.1157238483428955,0.7603929042816162,0.4268800318241119,0.4070222079753876
1631018767877,1.1157238483428955,0.7603929042816162,0.4290352463722229,0.4070222079753876
1631018767971,1.1157238483428955,0.7585838437080383,0.4306359887123108,0.4070222079753876
1631018768090,1.1157238483428955,0.736205518245697,0.4485150873661041,0.4070222079753876
1631018768180,1.1157238483428955,0.7356114983558655,0.4796629548072815,0.4070222079753876
1631018768246,1.1157238483428955,0.7356114983558655,0.5032572746276855,0.4070222079753876
1631018768446,1.1157238483428955,0.7356114983558655,0.5103247761726379,0.4070222079753876
1631018768513,1.1157238483428955,0.7344284057617188,0.5103247761726379,0.4070222079753876
1631018768588,0.7312119603157043,0.7327861785888672,0.5103247761726379,0.5469525456428528
1631018768715,0.749821126461029,0.7235122919082642,0.5103247761726379,0.5470513701438904
1631018768793,0.7627049684524536,0.7073462009429932,0.5103247761726379,0.5470513701438904
1631018768887,0.7720801830291748,0.6933587789535522,0.5103247761726379,0.5470513701438904
1631018769028,0.7774273753166199,0.6610342860221863,0.5103247761726379,0.5470513701438904
1631018769117,0.7774273753166199,-0.0119836116209626,0.441709965467453,0.590704619884491
1631018769249,0.7774273753166199,-0.0119836116209626,0.2765549719333648,0.6463967561721802
1631018769343,0.778571605682373,-0.0118383690714836,0.2015639841556549,0.6787277460098267
1631018769391,0.784933865070343,-0.0037674440536648,0.1986054480075836,0.6916657090187073
1631018769489,0.784933865070343,0.0194121487438678,0.1999706178903579,0.6935777068138123
1631018769629,0.784933865070343,0.0235983692109584,0.2045003473758697,0.6961095929145813
1631018769786,0.784933865070343,-0.0008702276973053,0.2003121823072433,0.6995311379432678
1631018769832,0.6512777805328369,0.0014301462797448,0.122147187590599,0.670304000377655
1631018769926,0.6101185083389282,0.0466983243823051,0.0379022993147373,0.6397613883018494
1631018770004,0.6106060743331909,0.1036186590790748,0.0162258315831422,0.6375099420547485
1631018770098,0.632382333278656,0.1469937860965728,0.0162258315831422,0.6379413604736328
1631018770223,0.6574888229370117,0.1449226886034011,0.0162258315831422,0.6379413604736328
1631018770348,0.6801444292068481,0.1434731781482696,0.0162258315831422,0.6383698582649231
1631018770413,0.6870178580284119,0.1434731781482696,0.0155143300071358,0.6424519419670105
1631018770507,0.6882307529449463,0.1434731781482696,0.0077133807353675,0.649852454662323
1631018770621,0.6661954522132874,0.1434731781482696,0.0036396887153387,0.6149109601974487
1631018770708,0.6413388252258301,0.198108896613121,-0.0065333317033946,0.5525661706924438
1631018770847,0.6361345648765564,0.198108896613121,0.0548174604773521,0.5249378085136414
1631018770920,0.6303554177284241,0.198108896613121,0.0548174604773521,0.5164536833763123
1631018771029,0.619831919670105,0.198108896613121,0.0548174604773521,0.4884184598922729
1631018771179,0.6063253283500671,0.1795468926429748,0.0387898124754428,0.4135651588439941
1631018771220,0.5953023433685303,0.1749716699123382,-0.0219081137329339,0.2848288416862488
1631018771308,0.5843619108200073,0.1749716699123382,-0.03742216527462,0.1464333832263946
1631018771466,0.5735546946525574,0.1749716699123382,-0.0389069467782974,0.058993887156248
1631018771575,0.5641596913337708,0.1749716699123382,-0.056732352823019,0.0140862390398979
1631018771638,0.556450605392456,0.1689220815896988,-0.0784477591514587,0.0093477722257375
1631018771747,0.556450605392456,0.1291541159152984,-0.0784477591514587,0.0093477722257375
1631018771856,0.556450605392456,0.2486268728971481,-0.0784477591514587,0.0093477722257375
1631018771919,0.556450605392456,0.3223477900028229,-0.0784477591514587,0.0093477722257375
1631018772044,0.556450605392456,0.3788664042949676,-0.0784477591514587,0.0093477722257375
1631018772169,0.556450605392456,0.3898407816886902,-0.0784477591514587,0.0093477722257375
1631018772231,0.556450605392456,0.3004626929759979,-0.0784477591514587,0.0093477722257375
1631018772325,0.556450605392456,0.5477523803710938,-0.0784477591514587,0.0093477722257375
1631018772437,0.556450605392456,0.7185873985290527,-0.0784477591514587,0.0093477722257375
1631018772546,0.556450605392456,0.7676556706428528,-0.0784477591514587,0.0093477722257375
1631018772703,0.556450605392456,0.7712740302085876,-0.0784477591514587,0.0093477722257375
1631018772765,0.556450605392456,0.7712740302085876,-0.0784477591514587,0.0093477722257375
1631018772859,0.556450605392456,0.7712740302085876,-0.0784477591514587,0.0093477722257375
1631018772956,0.556450605392456,0.7712740302085876,-0.0784477591514587,0.0093477722257375
1631018773067,0.556450605392456,0.7712740302085876,-0.0784477591514587,0.0093477722257375
1631018773181,0.556450605392456,0.7712740302085876,-0.0784477591514587,0.0093477722257375
1631018773310,0.556450605392456,0.7712740302085876,-0.0784477591514587,0.0093477722257375
1631018773379,0.556450605392456,0.7712740302085876,-0.0784477591514587,0.0093477722257375
1631018773469,0.556450605392456,0.7712740302085876,-0.0784477591514587,0.0093477722257375
1631018773559,0.556450605392456,0.7712740302085876,-0.0784477591514587,0.0093477722257375
1631018773660,0.556450605392456,0.7712740302085876,-0.0784477591514587,0.0093477722257375
1631018773751,0.556450605392456,0.7712740302085876,-0.0784477591514587,0.0093477722257375
1631018773893,0.556450605392456,0.7712740302085876,-0.0784477591514587,0.0093477722257375
1631018773981,0.556450605392456,0.7712740302085876,-0.0784477591514587,0.0093477722257375
1631018774118,0.556450605392456,0.7712740302085876,-0.0784477591514587,0.0093477722257375
1631018774185,0.556450605392456,0.7712740302085876,-0.0784477591514587,0.0093477722257375
1631018774297,0.556450605392456,0.7712740302085876,-0.0784477591514587,0.0093477722257375
1631018774374,0.556450605392456,0.7712740302085876,-0.0784477591514587,0.0093477722257375
1631018774496,0.556450605392456,0.7712740302085876,-0.0784477591514587,0.0093477722257375
1631018774586,0.556450605392456,0.7712740302085876,-0.0784477591514587,0.0093477722257375
1631018774664,0.556450605392456,0.1964963972568512,-0.0784477591514587,0.0093477722257375
1631018774790,0.556450605392456,0.2486509978771209,-0.0784477591514587,0.0093477722257375
1631018774946,0.556450605392456,0.2640577852725982,-0.1659572124481201,0.0093477722257375
1631018774999,0.556450605392456,0.2666378021240234,-0.0981823354959487,0.0093477722257375
1631018775107,0.5760315656661987,0.2666378021240234,-0.068206213414669,0.4715856611728668
1631018775211,0.6713008284568787,0.2666378021240234,-0.049748744815588,0.4751046299934387
1631018775303,0.7488061785697937,0.2686701416969299,-0.0405435934662818,0.4797488152980804
1631018775404,0.7959073185920715,0.2758737206459045,-0.0340735465288162,0.493160992860794
1631018775509,0.8285844922065735,0.2867285907268524,-0.0324642658233642,0.5323616862297058
1631018775594,0.8523570895195007,0.2906459271907806,-0.0324642658233642,0.5614713430404663
1631018775705,0.8625938892364502,0.2906459271907806,-0.0324642658233642,0.5640019178390503
1631018775822,0.8718506693840027,0.2906459271907806,-0.0324642658233642,0.5640019178390503
1631018775907,0.8725541830062866,0.2858069837093353,-0.0324642658233642,0.5640019178390503
1631018776005,0.8725541830062866,0.2791561782360077,-0.0324642658233642,0.5640019178390503
1631018776173,0.8732953667640686,0.2611519396305084,-0.0419346652925014,0.5640019178390503
1631018776238,0.8800894021987915,0.251129686832428,-0.0550980865955352,0.5640019178390503
1631018776331,0.8818711638450623,0.2482494711875915,-0.0640041306614875,0.5167892575263977
1631018776441,0.8840727806091309,0.2314559370279312,-0.055705476552248,0.4484489262104034
1631018776503,0.8849968910217285,0.1938935816287994,-0.0637495815753936,0.3634485006332397
1631018776597,0.8750344514846802,0.1587331295013427,-0.1189670115709304,0.2991200089454651
1631018776704,0.8751506209373474,0.1407166272401809,-0.1965835988521576,0.2851847112178802
1631018776829,0.8642069101333618,0.0764302834868431,-0.2763228118419647,0.2846814393997192
1631018776923,0.8578001856803894,0.0709730982780456,-0.3271191716194153,0.2846814393997192
1631018777032,1.013407826423645,0.0709730982780456,-0.3750585913658142,0.2750228345394134
1631018777111,1.0172373056411743,0.057970181107521,-0.4123168885707855,0.2188530713319778
1631018777235,0.9858292937278748,0.0497481115162372,-0.4332498610019684,0.0657278969883918
1631018777313,0.9741816520690918,0.0497481115162372,-0.4460185766220093,-0.0548940859735012
1631018777407,0.9637498259544371,0.0497481115162372,-0.4536158442497253,-0.0746482610702514
1631018777550,0.9518678784370422,0.0497481115162372,-0.4536158442497253,-0.0814778506755828
1631018777669,0.949302852153778,0.0494621209800243,-0.4536158442497253,-0.0814778506755828
1631018777732,0.9479185938835144,0.0494621209800243,-0.4536158442497253,-0.0814778506755828
1631018777833,0.9479185938835144,0.0438187420368194,-0.4661284983158111,-0.0814778506755828
1631018777947,0.9479185938835144,0.0438187420368194,-0.2086102217435836,-0.0814778506755828
1631018778038,0.9479185938835144,0.0438187420368194,-0.1266877502202987,-0.0814778506755828
1631018778155,0.9479185938835144,0.0438187420368194,-0.0789405554533004,-0.0814778506755828
1631018778248,0.9350833892822266,0.0438187420368194,-0.0349758975207805,-0.0814778506755828
1631018778358,0.9402499794960022,0.14021597802639,0.0041831242851912,0.3733384609222412
1631018778434,0.9508435726165771,0.1759942173957824,0.0432259440422058,0.3736701607704162
1631018778577,0.9476919174194336,0.2165151983499527,0.0806662440299987,0.3736701607704162
1631018778639,0.8833237290382385,0.2247850000858307,0.1087676286697387,0.3807462155818939
1631018778796,0.4982757270336151,0.2415476441383361,0.1144241467118263,0.4002457559108734
1631018778895,0.4997103214263916,0.30515056848526,0.1208685189485549,0.4228616952896118
1631018778960,0.5405229926109314,0.3853914439678192,0.1413611620664596,0.4693252444267273
1631018779066,0.6556458473205566,0.4682071208953857,0.18909253180027,0.5430360436439514
1631018779151,0.7488870620727539,0.4682071208953857,0.2206004858016967,0.5862287878990173
1631018779248,0.7488870620727539,0.4682071208953857,0.2726644873619079,0.5862287878990173
1631018779386,0.7488870620727539,0.4682071208953857,0.4018858671188354,0.5862287878990173
1631018779467,0.7488870620727539,0.4682071208953857,0.4018858671188354,0.5862287878990173
1631018779545,0.7488870620727539,0.4323352575302124,0.4018858671188354,0.5642914175987244
1631018779670,0.7488870620727539,0.4323352575302124,0.4018858671188354,0.5637842416763306
1631018779779,0.7488870620727539,0.4323352575302124,0.4018858671188354,0.5637842416763306
1631018779836,0.7474299073219299,0.4323352575302124,0.4018858671188354,0.5625948905944824
1631018780023,0.746258556842804,0.4323352575302124,0.4018858671188354,0.5625948905944824
1631018780086,0.7400381565093994,0.4323352575302124,0.4007891118526459,0.5625948905944824
1631018780164,0.7354400157928467,0.4144086837768554,0.4007891118526459,0.5625948905944824
1631018780242,0.7337302565574646,0.4144086837768554,0.4003456532955169,0.5625948905944824
1631018780382,0.7337302565574646,0.4144086837768554,0.3975771963596344,0.5625948905944824
1631018780463,0.7337302565574646,0.4144086837768554,0.3907504677772522,0.5625948905944824
1631018780588,0.7337302565574646,0.4144086837768554,0.3907504677772522,0.5625948905944824
1631018780709,0.7337302565574646,0.4144086837768554,0.3907504677772522,0.5625948905944824
1631018780772,0.7337302565574646,0.4144086837768554,0.3907504677772522,0.5625948905944824
1631018780881,0.7337302565574646,0.4144086837768554,0.3907504677772522,0.5625948905944824
1631018780943,0.7337302565574646,0.4144086837768554,0.3907504677772522,0.5625948905944824
1631018781053,0.7337302565574646,0.4144086837768554,0.3961268365383148,0.5684871673583984
1631018781209,1.0745282173156738,0.4144086837768554,0.3961268365383148,0.6089630126953125
1631018781303,1.0747085809707642,0.4144086837768554,0.3961268365383148,0.6388079524040222
1631018781396,1.0747085809707642,0.4144086837768554,0.4004138708114624,0.658046543598175
1631018781478,1.0770424604415894,0.4144086837768554,0.4089444577693939,0.6671969890594482
1631018781571,1.085590362548828,0.4144086837768554,0.413683146238327,0.6671969890594482
1631018781696,1.09246826171875,-0.0920867919921875,0.4147733151912689,0.6671969890594482
1631018781821,1.09246826171875,-0.0480784922838211,0.4149394035339355,0.684914767742157
1631018781899,1.09246826171875,-0.0287095066159963,0.4154298603534698,0.6956914067268372
1631018781993,1.09246826171875,-0.0241372641175985,0.4187211692333221,0.7030274271965027
1631018782118,1.09246826171875,-0.0241372641175985,0.4247647225856781,0.7030274271965027
1631018782181,1.09246826171875,-0.0241372641175985,0.4259273707866668,0.7030274271965027
1631018782274,1.10206937789917,-0.0241372641175985,0.3435049951076507,0.6942430138587952
1631018782399,1.041083812713623,-0.0241372641175985,0.2759290039539337,0.654200553894043
1631018782511,0.988340437412262,-0.0241372641175985,0.2338180691003799,0.6137171387672424
1631018782604,0.9677244424819946,-0.0241372641175985,0.2338180691003799,0.5722039937973022
1631018782698,0.9632716178894044,-0.0241372641175985,0.2338180691003799,0.5425029397010803
1631018782807,0.961776077747345,-0.0241372641175985,0.2338180691003799,0.5189502835273743
1631018782870,0.961776077747345,-0.0286391973495483,0.2338180691003799,0.5170503854751587
1631018783027,0.9635357856750488,-0.0294034350663423,0.2338180691003799,0.4943258762359619
1631018783124,0.9642595648765564,-0.0488447770476341,0.2358801364898681,0.4538490772247314
1631018783218,0.9642595648765564,-0.0488447770476341,0.2482242584228515,0.4538490772247314
1631018783311,0.9654967188835144,-0.0488447770476341,0.2589434683322906,0.4538490772247314
1631018783415,0.973245084285736,-0.0488447770476341,0.2680566012859344,0.4538490772247314
1631018783534,1.0021450519561768,-0.0488447770476341,0.2642061412334442,0.4538490772247314
1631018783627,1.0021450519561768,-0.0488447770476341,0.235552966594696,0.4538490772247314
1631018783721,1.0021450519561768,0.0213696472346782,0.2062550485134124,0.4538490772247314
1631018783831,1.0021450519561768,0.0374708361923694,0.1570317298173904,0.4538490772247314
1631018783955,1.0021450519561768,0.0374708361923694,0.1147414818406105,0.4538490772247314
1631018784018,0.9673531651496888,0.0374708361923694,-0.0270884092897176,0.4538490772247314
1631018784096,0.8752497434616089,0.0374708361923694,-0.0270884092897176,0.4538490772247314
1631018784252,0.762889564037323,0.0374708361923694,-0.0270884092897176,0.4538490772247314
1631018784330,0.6940558552742004,0.0374708361923694,-0.0270884092897176,0.4538490772247314
1631018784455,0.6580946445465088,0.0374708361923694,-0.0270884092897176,0.4538490772247314
1631018784533,0.6275481581687927,0.0374708361923694,-0.0574785955250263,0.4538490772247314
1631018784643,0.5720036625862122,0.0374708361923694,-0.0577036850154399,0.4538490772247314
1631018784721,0.5720036625862122,0.0374708361923694,-0.0732690915465354,0.4538490772247314
1631018784878,0.5720036625862122,0.0374708361923694,-0.122636079788208,0.4538490772247314
1631018784940,0.5720036625862122,0.0137643441557884,0.2265834212303161,0.4538490772247314
1631018785033,0.5720036625862122,-0.0179320685565471,0.2642222642898559,0.4538490772247314
1631018785127,0.5720036625862122,-0.1284742802381515,0.2734513878822326,0.4538490772247314
1631018785221,0.5720036625862122,-0.2587133646011352,0.2734513878822326,0.4538490772247314
1631018785330,0.5799368023872375,-0.4493609070777893,0.2734513878822326,0.5863040685653687
1631018785486,0.7243125438690186,-0.3053201735019684,0.2734513878822326,0.6241180300712585
1631018785580,0.820176362991333,-0.1979690790176391,0.2734513878822326,0.6585251092910767
1631018785643,0.8468387126922607,-0.1319516450166702,0.2734513878822326,0.6842336058616638
1631018785752,0.8504712581634521,-0.1025314629077911,0.2734513878822326,0.6842336058616638
1631018785846,0.8504712581634521,-0.1025314629077911,0.2734513878822326,0.6842336058616638
1631018785939,0.8504712581634521,-0.1025314629077911,0.2734513878822326,0.6842336058616638
1631018786064,0.8504712581634521,-0.1025314629077911,0.2734513878822326,0.6842336058616638
1631018786158,0.8504712581634521,-0.0957229509949684,0.2734513878822326,0.6915077567100525
1631018786299,0.8504712581634521,-0.0945529416203498,0.2734513878822326,0.7187926769256592
1631018786361,0.8504712581634521,-0.0942075476050376,0.2734513878822326,0.7478066682815552
1631018786470,0.8523561954498291,-0.0776242688298225,0.2505094707012176,0.7718371748924255
1631018786570,0.8420578837394714,-0.0647928342223167,0.1881854832172393,0.7819704413414001
1631018786695,0.8333640694618225,-0.0522802807390689,0.0500819385051727,0.7793276309967041
1631018786789,0.8270213007926941,-0.024716529995203,-0.0103250779211521,0.7674985527992249
1631018786883,0.8270213007926941,-0.002205348573625,-0.0103250779211521,0.7373279333114624
1631018786992,0.8270213007926941,0.0277879405766725,-0.0103250779211521,0.7010791897773743
1631018787101,0.8135356903076172,0.0434614084661006,-0.0103250779211521,0.6771095991134644
1631018787179,0.7279012203216553,0.0183472633361816,0.0023437431082129,0.6497734785079956
1631018787304,0.6223620176315308,0.0160082038491964,0.0503528229892253,0.6038008332252502
1631018787414,0.5808658003807068,0.017205411568284,0.1324675679206848,0.5628073811531067
1631018787495,0.575219988822937,0.0270877424627542,0.2003040760755539,0.5653654336929321
1631018787589,0.6168557405471802,0.0397844687104225,0.2328174114227295,0.5694682002067566
1631018787682,0.6615838408470154,0.1075259745121002,0.2405245900154113,0.571194589138031
1631018787776,0.6807887554168701,0.176737979054451,0.2357867807149887,0.5713045001029968
1631018787901,0.6807887554168701,0.2062280476093292,0.2277688086032867,0.573386549949646
1631018788010,0.6749972701072693,0.2099543660879135,0.2264626175165176,0.5778486728668213
1631018788120,0.6749972701072693,0.2137602269649505,0.2240898460149765,0.5514376163482666
1631018788198,0.6886481642723083,0.2127427160739898,0.2056171000003814,0.5038694739341736
1631018788292,0.716864287853241,0.2127427160739898,0.1844441443681717,0.4510426819324493
1631018788385,0.7337302565574646,0.2031945288181305,0.1844441443681717,0.4020024836063385
1631018788498,0.7364963889122009,0.1867502331733703,0.1845511049032211,0.4089648425579071
1631018788607,0.7371731996536255,0.168748065829277,0.1898279190063476,0.4178740680217743
1631018788717,0.744814932346344,0.1459574699401855,0.1903884559869766,0.4418818354606628
1631018788842,0.7596398591995239,0.1306912899017334,0.1903884559869766,0.4474330246448517
1631018788920,0.7752845287322998,0.1228299066424369,0.1924554407596588,0.4474330246448517
1631018788998,0.789017915725708,0.1172183603048324,0.1742498576641082,0.4474330246448517
1631018789143,0.7896661758422852,0.1118925437331199,0.1544351279735565,0.4398298859596252
1631018789220,0.793759822845459,0.1102013438940048,0.1263210177421569,0.446977823972702
1631018789314,0.7816322445869446,0.1102013438940048,0.0891187191009521,0.4438990354537964
1631018789408,0.7520137429237366,0.0789136663079261,0.0675966888666153,0.4185127019882202
1631018789521,0.739081859588623,0.0278024282306432,0.0750110298395156,0.4056891500949859
1631018789599,0.7592483758926392,0.0657264068722724,0.0986587181687355,0.4194533824920654
1631018789739,0.8390073180198669,0.1371010243892669,0.1193434074521064,0.4343286752700805
1631018789895,0.9126813411712646,0.1662751734256744,0.124028168618679,0.4453926980495453
1631018789927,0.9408593773841858,0.1686208397150039,0.124028168618679,0.4819798171520233
1631018790005,0.9376856684684752,0.1663970500230789,0.1139574572443962,0.5373529195785522
1631018790145,0.9297224283218384,0.1661345213651657,0.0769732967019081,0.549228310585022
1631018790208,0.9195966720581056,0.1639931201934814,0.0644520819187164,0.5508027672767639
1631018790380,0.9195966720581056,0.155360147356987,0.0507136583328247,0.5555047392845154
1631018790459,0.9195966720581056,0.1455326825380325,0.0432718582451343,0.6112820506095886
1631018790570,0.9446353912353516,0.1420509368181228,0.0432718582451343,0.712984561920166
1631018790632,1.0029996633529663,0.1411801874637603,0.038552239537239,0.7794367671012878
1631018790726,1.033647060394287,0.1423298418521881,0.0249895993620157,0.804977297782898
1631018790835,1.0468767881393433,0.1425787061452865,0.0141673302277922,0.804977297782898
1631018790960,1.0494933128356934,0.1432951837778091,-0.0126374382525682,0.804977297782898
1631018791054,1.0494933128356934,0.1432951837778091,-0.051374927163124,0.804977297782898
1631018791163,1.0494933128356934,0.1441781669855117,-0.071106918156147,0.804977297782898
1631018791241,1.0494933128356934,0.1531179547309875,-0.077706903219223,0.804977297782898
1631018791335,1.0494933128356934,0.1188838332891464,-0.0820254981517791,0.804977297782898
1631018791413,1.0413808822631836,0.0230608843266963,-0.0844414606690406,0.804977297782898
1631018791588,1.0106468200683594,-0.0665506273508071,-0.0495813079178333,0.804792046546936
1631018791681,0.9763832688331604,-0.0680745467543602,-0.0353082120418548,0.802758514881134
1631018791775,0.9725573062896729,8.322794747073203e-05,-0.0353082120418548,0.8054336905479431
1631018791869,0.9725573062896729,0.0793051496148109,-0.0353082120418548,0.8091295957565308
1631018791963,0.9725573062896729,0.1295492351055145,-0.0320082791149616,0.7961535453796387
1631018792025,0.9722258448600768,0.1449953764677047,0.0039668343961238,0.7580432891845703
1631018792181,0.94261372089386,0.2055020630359649,0.0481608286499977,0.7031369209289551
1631018792259,0.8526893258094788,0.2497763782739639,0.0662664398550987,0.6640859246253967
1631018792384,0.7571961283683777,0.2501254677772522,0.0662664398550987,0.5848206877708435
1631018792559,0.7381940484046936,0.2501254677772522,0.0632522106170654,0.5308965444564819
1631018792637,0.7452477812767029,0.2501254677772522,0.0572526194155216,0.5440568923950195
1631018792699,0.7506321668624878,0.2501254677772522,0.0495378151535987,0.575927197933197
1631018792778,0.7537540197372437,0.2501254677772522,0.0757084935903549,0.6194102764129639
1631018792887,0.7537540197372437,0.2501254677772522,0.1076972782611846,0.6927696466445923
1631018792965,0.7527960538864136,0.2501254677772522,0.1072525382041931,0.7163640260696411
1631018793074,0.7527960538864136,0.2473779618740081,0.1005949303507804,0.7163640260696411
1631018793168,0.7527960538864136,0.240590214729309,0.0823266953229904,0.7163640260696411
1631018793262,0.7527960538864136,0.2272827327251434,0.0757250785827636,0.7212857007980347
1631018793418,0.7450962662696838,0.2120788097381591,0.0757250785827636,0.7333926558494568
1631018793515,0.7273924350738525,0.2103357315063476,0.0757250785827636,0.7354921102523804
1631018793640,0.7104777693748474,0.1725994497537613,0.0757250785827636,0.7363635301589966
1631018793718,0.6879341006278992,0.1146783977746963,0.0517687909305095,0.7381246089935303
1631018793765,0.674993097782135,0.0977279469370842,0.0249975975602865,0.7409619688987732
1631018793889,0.671331524848938,0.0261509418487548,0.0331736728549003,0.7435949444770813
1631018794030,0.6525275111198425,-0.009357308037579,0.0479637719690799,0.74704509973526
1631018794093,0.6028940081596375,-0.0056027946993708,0.0964397862553596,0.7506572008132935
1631018794186,0.5309815406799316,-0.0070207472890615,0.1349101364612579,0.7626091241836548
1631018794280,0.4942348003387451,-0.0376641377806663,0.1555531769990921,0.7581669688224792
1631018794374,0.5044978857040405,-0.07228285074234,0.1427606791257858,0.7418996095657349
1631018794470,0.5542986989021301,-0.1049434691667556,0.1133571416139602,0.6527746915817261
1631018794611,0.5896579623222351,-0.1161499843001365,0.1284614950418472,0.4984565377235412
1631018794751,0.6089963316917419,-0.0886765718460083,0.1733525693416595,0.4563317894935608
1631018794814,0.6334057450294495,-0.0237670075148344,0.2146001160144806,0.4848896861076355
1631018794892,0.6361103057861328,0.0388623028993606,0.235198900103569,0.5185542702674866
1631018795001,0.6405330300331116,0.1046258881688118,0.2398405075073242,0.5230793356895447
1631018795064,0.6723286509513855,0.1905554383993148,0.2406521886587143,0.5219708681106567
1631018795235,0.8528705835342407,0.2316583096981048,0.2406521886587143,0.5374363660812378
1631018795313,0.9937538504600524,0.2360801994800567,0.2406521886587143,0.5778952240943909
1631018795423,1.0537699460983276,0.2391636669635772,0.2406521886587143,0.5836966633796692
1631018795504,1.0719863176345823,0.2440644055604934,0.2406521886587143,0.6108148694038391
1631018795614,1.0938289165496826,0.2523350119590759,0.2406521886587143,0.653364896774292
1631018795707,1.104562520980835,0.2488667964935302,0.2363803535699844,0.718250036239624
1631018795832,1.104562520980835,0.2488667964935302,0.2269546389579773,0.811531662940979
1631018795942,1.1039707660675049,0.2488667964935302,0.2142520546913147,0.8582632541656494
1631018796020,1.1029990911483765,0.2488667964935302,0.2065679132938385,0.8582632541656494
1631018796113,1.1006957292556765,0.2488667964935302,0.2065679132938385,0.8582632541656494
1631018796238,1.1035003662109375,0.2488667964935302,0.1971953213214874,0.8582632541656494
1631018796348,1.107874870300293,0.2488667964935302,0.1497929096221923,0.8582632541656494
1631018796426,1.1105353832244873,0.2480373084545135,0.0493927858769893,0.8582632541656494
1631018796538,1.1105353832244873,0.245896577835083,-0.0121454857289791,0.8566719889640808
1631018796632,1.1105353832244873,0.229375883936882,-0.0917840152978897,0.8539255261421204
1631018796710,1.1105353832244873,0.2003360837697982,-0.0917840152978897,0.8539255261421204
1631018796804,1.1097087860107422,0.1379176080226898,-0.0917840152978897,0.8502882719039917
1631018796898,1.0696218013763428,0.0240953341126441,-0.0917840152978897,0.8402267098426819
1631018797054,1.002190351486206,-0.1122805029153823,-0.0917840152978897,0.8402267098426819
1631018797147,0.9476895332336426,-0.1672092527151107,-0.0917840152978897,0.8288490176200867
1631018797226,0.8565598130226135,-0.1778094470500946,-0.0893440842628479,0.8011153340339661
1631018797319,0.7376614809036255,-0.1530004292726516,-0.0949060320854187,0.7787021994590759
1631018797453,0.7019992470741272,-0.1329770386219024,-0.1307234019041061,0.747435986995697
1631018797556,0.6745547652244568,-0.0871783420443534,-0.2039819806814193,0.6555968523025513
1631018797663,0.6514325737953186,-0.0440701320767402,-0.258389949798584,0.506064236164093
1631018797777,0.6290425658226013,0.0041967625729739,-0.3029434382915497,0.4230362176895141
1631018797852,0.6040273308753967,0.0737336874008178,-0.3100336492061615,0.4789620339870453
1631018797946,0.5807374715805054,0.1461988389492035,-0.2906059324741363,0.5702550411224365
1631018798040,0.5494245886802673,0.1903845518827438,-0.2559739947319031,0.6549029350280762
1631018798134,0.5259847044944763,0.2082512080669403,-0.213050365447998,0.7027722597122192
1631018798290,0.5390511155128479,0.234497994184494,-0.1675833314657211,0.716803789138794
1631018798383,0.5356370210647583,0.2519792020320892,-0.1488832980394363,0.7159205079078674
1631018798470,0.5985752940177917,0.25089031457901,-0.1216012760996818,0.7158385515213013
1631018798573,0.6324417591094971,0.246477723121643,-0.0424818657338619,0.7159765362739563
1631018798651,0.6468123197555542,0.2390981912612915,0.0287756603211164,0.7153268456459045
1631018798761,0.6493390202522278,0.2335005551576614,0.0471076779067516,0.7153268456459045
1631018798886,0.6493390202522278,0.2330859005451202,0.0488285161554813,0.7153268456459045
1631018798979,0.6493390202522278,0.2330859005451202,0.0903315246105194,0.7153268456459045
1631018799073,0.6493390202522278,0.2330859005451202,0.1493794620037078,0.7154049277305603
1631018799151,0.6493390202522278,0.2325288355350494,0.1919789612293243,0.7188916802406311
1631018799245,0.6493390202522278,0.2325288355350494,0.2134101390838623,0.7169294357299805
1631018799339,0.6493390202522278,0.2325288355350494,0.2303441166877746,0.7154271602630615
1631018799475,0.6493390202522278,0.2325288355350494,0.2303441166877746,0.7182320952415466
1631018799576,0.6449859738349915,0.2213706821203231,0.2303441166877746,0.7128735184669495
1631018799669,0.631304919719696,0.1634874492883682,0.2283180505037307,0.6806075572967529
1631018799763,0.6123901605606079,0.0693721175193786,0.2290066927671432,0.6192973852157593
1631018799872,0.6088553667068481,0.0089136650785803,0.2290066927671432,0.5485994219779968
1631018799935,0.6111295819282532,0.0730981826782226,0.2290066927671432,0.5046641826629639
1631018800091,0.5800355076789856,0.1022401675581932,0.2290066927671432,0.4935609698295593
1631018800185,0.4967431426048279,0.1233863532543182,0.2280531823635101,0.5252104997634888
1631018800294,0.3947115838527679,0.1485383212566375,0.2098117470741272,0.5709854364395142
1631018800419,0.3830344080924988,0.1691635996103286,0.1993741691112518,0.5982339978218079
1631018800482,0.4273490011692047,0.168331578373909,0.2010947316884994,0.6255785822868347
1631018800575,0.5249359607696533,0.168331578373909,0.1852540820837021,0.6563640832901001
1631018800700,0.7197601199150085,0.172115072607994,0.1417114436626434,0.672991156578064
1631018800794,0.9167741537094116,0.1770737767219543,0.1519937813282013,0.6777029633522034
1631018800888,1.0596755743026731,0.1832868754863739,0.1670185029506683,0.7033035755157471
1631018800997,1.1141749620437622,0.1833475679159164,0.1996121406555175,0.7524893283843994
1631018801075,1.1177650690078735,0.176654502749443,0.235942929983139,0.7758035063743591
1631018801169,1.1180615425109863,0.1657842099666595,0.2402770072221756,0.7724083662033081
1631018801325,1.1293342113494873,0.160199835896492,0.2402770072221756,0.7724083662033081
1631018801419,1.134448766708374,0.1590980142354965,0.2407082021236419,0.7724083662033081
1631018801530,1.1355334520339966,0.1435272395610809,0.2515333294868469,0.7724083662033081
1631018801608,1.1355334520339966,0.0833160132169723,0.2723238468170166,0.7724083662033081
1631018801687,1.1355334520339966,0.0490654818713665,0.2847648561000824,0.7724083662033081
1631018801796,1.1350547075271606,0.0347752422094345,0.2850112318992615,0.7724083662033081
1631018801921,1.1347745656967163,0.027631040662527,0.2850112318992615,0.7643967270851135
1631018802062,1.1347745656967163,-0.0112669747322797,0.2850112318992615,0.7583427429199219
1631018802108,1.1347745656967163,-0.0279553011059761,0.2850112318992615,0.753829300403595
1631018802218,1.1344465017318726,-0.0279553011059761,0.2850112318992615,0.7285996675491333
1631018802296,1.1298576593399048,-0.0279553011059761,0.2850112318992615,0.7131587266921997
1631018802421,1.1262940168380735,-0.0306661091744899,0.2743778526782989,0.7749632000923157
1631018802548,1.0903791189193726,-0.0478233955800533,0.2426120787858963,0.8479346632957458
1631018802626,1.019373893737793,-0.0722766667604446,0.1990657597780227,0.8403370976448059
1631018802751,0.9596704244613647,-0.1245820000767707,0.1118121743202209,0.8289657235145569
1631018802829,0.8842670321464539,-0.1416855454444885,0.0288198962807655,0.8303191661834717
1631018802907,0.7726045250892639,-0.1460584104061126,0.0271719638258218,0.8303191661834717
1631018802985,0.6048896312713623,-0.2063198834657669,0.0271719638258218,0.8303191661834717
1631018803142,0.5992262363433838,-0.2853150069713592,0.0397736020386219,0.8303191661834717
1631018803251,0.6669322848320007,-0.1760856509208679,0.059777446091175,0.8334338068962097
1631018803345,0.6881439089775085,-0.0905153825879097,0.0629968792200088,0.8489192724227905
1631018803423,0.7197979688644409,-0.0287095848470926,0.0629968792200088,0.873813807964325
1631018803532,0.7478135824203491,-0.0052001811563968,0.0645376369357109,0.896252453327179
1631018803626,0.779716432094574,0.0003351456543896,0.0826769694685936,0.9177306294441224
1631018803782,0.8435439467430115,0.015092097222805,0.1044063717126846,0.946054995059967
1631018803860,0.902201235294342,0.0493694953620433,0.1183725968003273,0.9548107385635376
1631018803938,0.945615530014038,0.072975255548954,0.1008899062871933,0.9604048132896424
1631018804032,0.9679397344589232,0.0909180492162704,0.1309000700712204,0.9628775715827942
1631018804126,0.9679397344589232,0.1148111894726753,0.1692674160003662,0.9237692952156068
1631018804204,0.9679397344589232,0.1210177987813949,0.2342623025178909,0.946427047252655
1631018804344,0.9679397344589232,0.1227262318134307,0.2645659148693084,0.9575411677360536
1631018804454,0.9679397344589232,0.1258778423070907,0.2670590877532959,0.9525294899940492
1631018804553,0.9679397344589232,0.1258778423070907,0.2670590877532959,0.951248288154602
1631018804631,0.9679397344589232,0.1258778423070907,0.2670590877532959,0.951248288154602
1631018804725,0.9775166511535645,0.1258778423070907,0.2670590877532959,0.9680803418159484
1631018804866,0.9758538007736206,0.1314219385385513,0.2859605252742767,0.9897915124893188
1631018804990,0.9758538007736206,0.1557816416025161,0.302119642496109,0.9948555827140808
1631018805084,0.9758538007736206,0.1644141376018524,0.302119642496109,0.9948555827140808
1631018805178,0.9705587029457092,0.1702268421649933,0.302119642496109,0.9948555827140808
1631018805241,0.9518625736236572,0.1739216446876526,0.302119642496109,0.9948555827140808
1631018805350,0.9122915267944336,0.1724907457828521,0.2993973195552826,0.9894323945045472
1631018805444,0.8806695938110352,0.1676415652036667,0.2947972118854522,0.9815664887428284
1631018805571,0.8655215501785278,0.1576733142137527,0.2706477046012878,0.9728352427482604
1631018805681,0.8370605707168579,0.1325889825820922,0.2253752499818802,0.9564765691757202
1631018805806,0.8015344738960266,0.0858457013964653,0.1764739155769348,0.9143505692481996
1631018805868,0.7465641498565674,0.0738107785582542,0.1009750291705131,0.8590677976608276
1631018805993,0.6856064200401306,0.0708149373531341,0.0195966083556413,0.7763445377349854
1631018806040,0.6622080206871033,0.0659577697515487,0.0016558353090658,0.6839438080787659
1631018806181,0.6406009793281555,0.0612261742353439,-0.0060332622379064,0.651015043258667
1631018806274,0.5994654893875122,0.0510512106120586,-0.0075452825985848,0.6362862586975098
1631018806384,0.5149073600769043,0.0225662477314472,-0.0077043352648615,0.6052477359771729
1631018806477,0.3945372402667999,0.0060530346818268,-0.0590238533914089,0.531433641910553
1631018806571,0.2604078948497772,-0.011888769455254,-0.2035050690174102,0.4348896443843841
1631018806680,0.2604078948497772,-0.0390338264405727,-0.2035050690174102,0.4348896443843841
1631018806805,0.2604078948497772,-0.1241355761885643,-0.2035050690174102,0.4348896443843841
1631018806946,0.2604078948497772,-0.1241355761885643,-0.2035050690174102,0.4348896443843841
1631018807008,0.2604078948497772,-0.1241355761885643,-0.2035050690174102,0.4348896443843841
1631018807102,0.2604078948497772,-0.1241355761885643,-0.2035050690174102,0.4348896443843841
1631018807196,0.2604078948497772,-0.1241355761885643,-0.2035050690174102,0.4348896443843841
1631018807274,0.2604078948497772,-0.1241355761885643,-0.2035050690174102,0.4348896443843841
1631018807452,0.2604078948497772,-0.1241355761885643,-0.2035050690174102,0.4348896443843841
1631018807502,0.2604078948497772,-0.1241355761885643,-0.2035050690174102,0.4348896443843841
1631018807627,0.2604078948497772,-0.1241355761885643,-0.2035050690174102,0.4348896443843841
1631018807705,0.2604078948497772,-0.1241355761885643,-0.2035050690174102,0.4348896443843841
1631018807820,0.2604078948497772,-0.1241355761885643,-0.2035050690174102,0.4348896443843841
1631018807887,0.2604078948497772,-0.1241355761885643,-0.2035050690174102,0.4348896443843841
1631018808035,0.2604078948497772,-0.1241355761885643,-0.2035050690174102,0.4348896443843841
1631018808133,0.2604078948497772,-0.1241355761885643,-0.2035050690174102,0.4348896443843841
1631018808224,0.2604078948497772,-0.1241355761885643,-0.2035050690174102,0.4348896443843841
1631018808313,0.2604078948497772,-0.1241355761885643,-0.2035050690174102,0.4348896443843841
1631018808402,0.2604078948497772,-0.1241355761885643,-0.2035050690174102,0.4348896443843841
1631018808519,0.2604078948497772,-0.1241355761885643,-0.2035050690174102,0.4348896443843841
1631018808644,0.7292766571044922,-0.215424507856369,-0.1421592086553573,0.9742868542671204
1631018808736,0.7301753163337708,-0.1528731137514114,-0.1344296634197235,0.9819657802581788
1631018808826,0.7356959581375122,-0.0850155502557754,-0.1315257400274276,0.9890490770339966
1631018808914,0.7388384938240051,-0.0536755472421646,-0.1283814311027526,0.9898331761360168
1631018809028,0.7388384938240051,-0.0520281158387661,-0.1130973547697067,0.9898331761360168
1631018809119,0.7414690852165222,-0.0455204024910926,-0.0755142867565155,0.9898331761360168
1631018809247,0.7427147030830383,-0.0365372709929943,-0.0464964993298053,0.9898331761360168
1631018809361,0.7463556528091431,-0.0200924519449472,-0.0353628247976303,0.9898331761360168
1631018809453,0.7483869194984436,0.0206465851515531,-0.0212218910455703,0.9898331761360168
1631018809544,0.7483869194984436,0.1377693116664886,-0.0133892204612493,0.9898331761360168
1631018809630,0.7483869194984436,0.2308554351329803,-0.0060998336412012,0.9898331761360168
1631018809768,0.7483869194984436,0.2514428198337555,0.0142823010683059,0.9898331761360168
1631018809852,0.6880102157592773,0.2553044259548187,0.0220463946461677,0.891243040561676
1631018809951,0.6288599371910095,0.2553044259548187,0.0204176567494869,0.7554412484169006
1631018810060,0.5741142630577087,0.2553044259548187,-0.0173448678106069,0.6013646721839905
1631018810174,0.5198162794113159,0.2541936933994293,-0.086222194135189,0.4659153521060943
1631018810252,0.4437093436717987,0.249022826552391,-0.1415888369083404,0.3356471657752991
1631018810377,0.4239637851715088,0.241290345788002,-0.1718117445707321,0.1988400518894195
1631018810470,0.4239637851715088,0.2325775027275085,-0.1753471046686172,0.1988400518894195
1631018810549,0.4222719669342041,0.2285940796136856,-0.179447203874588,0.1988400518894195
1631018810673,0.4202413558959961,0.2285940796136856,-0.1818565279245376,0.1988400518894195
1631018810766,0.4202413558959961,0.2285940796136856,-0.2073226422071457,0.1988400518894195
1631018810860,0.4202413558959961,0.2285940796136856,-0.2368087172508239,0.1988400518894195
1631018810938,0.4202413558959961,0.2271588742733001,-0.2493522018194198,0.1988400518894195
1631018811079,0.4202413558959961,0.2271588742733001,-0.2493522018194198,0.1988400518894195
1631018811172,0.4202413558959961,0.2271588742733001,-0.2493522018194198,0.1988400518894195
1631018811286,0.4202413558959961,0.2271588742733001,-0.2493522018194198,0.1988400518894195
1631018811357,0.4202413558959961,0.2271588742733001,-0.2493522018194198,0.1988400518894195
1631018811466,0.4202413558959961,0.2271588742733001,-0.2493522018194198,0.1988400518894195
1631018811555,0.4202413558959961,0.2271588742733001,-0.2493522018194198,0.1988400518894195
1631018811680,0.4202413558959961,0.2271588742733001,-0.2493522018194198,0.1988400518894195
1631018811774,0.4202413558959961,0.2271588742733001,-0.2493522018194198,0.1988400518894195
1631018811883,0.4202413558959961,0.2271588742733001,-0.2493522018194198,0.1988400518894195
1631018811977,0.4202413558959961,0.2271588742733001,-0.2493522018194198,0.1988400518894195
1631018812040,0.4202413558959961,0.2271588742733001,-0.2493522018194198,0.1988400518894195
1631018812133,0.4202413558959961,0.2271588742733001,-0.2493522018194198,0.1988400518894195
1631018812290,0.4202413558959961,0.2271588742733001,-0.2493522018194198,0.1988400518894195
1631018812399,0.4202413558959961,0.2271588742733001,-0.2493522018194198,0.1988400518894195
1631018812511,0.4202413558959961,0.2271588742733001,-0.2493522018194198,0.1988400518894195
1631018812589,0.4202413558959961,0.2271588742733001,-0.2493522018194198,0.1988400518894195
1631018812667,0.4202413558959961,0.2271588742733001,-0.2493522018194198,0.1988400518894195
1631018812792,0.4202413558959961,0.2271588742733001,-0.2493522018194198,0.1988400518894195
1631018812932,0.4202413558959961,0.2271588742733001,-0.2493522018194198,0.1988400518894195
1631018812995,0.4202413558959961,0.2271588742733001,-0.2493522018194198,0.1988400518894195
1631018813089,0.4202413558959961,0.2271588742733001,-0.2493522018194198,0.1988400518894195
1631018813182,0.4202413558959961,0.2271588742733001,-0.2493522018194198,0.1988400518894195
1631018813276,0.4202413558959961,0.2271588742733001,-0.2493522018194198,0.1988400518894195
1631018813385,0.4202413558959961,0.2271588742733001,-0.2493522018194198,0.1988400518894195
1631018813510,0.4202413558959961,0.2271588742733001,-0.2493522018194198,0.1988400518894195
1631018813604,0.4202413558959961,0.2271588742733001,-0.2493522018194198,0.1988400518894195
1631018813698,0.4202413558959961,0.2271588742733001,-0.2493522018194198,0.1988400518894195
1631018813788,0.4202413558959961,0.2271588742733001,-0.2493522018194198,0.1988400518894195
1631018813881,0.4202413558959961,0.2271588742733001,-0.2493522018194198,0.1988400518894195
1631018814006,0.4202413558959961,0.2271588742733001,-0.2493522018194198,0.1988400518894195
1631018814131,0.4202413558959961,0.480416476726532,-0.2493522018194198,0.1988400518894195
1631018814209,0.4202413558959961,0.4956271052360534,-0.2493522018194198,0.1988400518894195
1631018814303,0.4202413558959961,0.500412106513977,-0.2493522018194198,0.1988400518894195
1631018814413,0.4202413558959961,0.5157507061958313,-0.2493522018194198,0.1988400518894195
1631018814509,0.4202413558959961,0.5157507061958313,-0.2493522018194198,0.1988400518894195
1631018814618,0.4202413558959961,0.5157507061958313,-0.2493522018194198,0.1988400518894195
1631018814728,0.4202413558959961,0.5157507061958313,-0.2493522018194198,0.1988400518894195
1631018814841,0.4202413558959961,0.5157507061958313,-0.2493522018194198,0.1988400518894195
1631018814919,0.4202413558959961,0.5157507061958313,-0.2493522018194198,0.1988400518894195
1631018815013,0.4202413558959961,0.5157507061958313,-0.2493522018194198,0.1988400518894195
1631018815138,0.4202413558959961,0.5157507061958313,-0.2493522018194198,0.1988400518894195
1631018815201,0.4202413558959961,0.5157507061958313,-0.2493522018194198,0.1988400518894195
1631018815326,0.4202413558959961,0.4680173397064209,-0.2493522018194198,0.1988400518894195
1631018815435,0.4202413558959961,0.4680173397064209,-0.2493522018194198,0.1988400518894195
1631018815547,0.4202413558959961,0.4680173397064209,-0.0204740762710571,0.1988400518894195
1631018815656,0.4202413558959961,0.4645825326442718,-0.0175142604857683,0.1988400518894195
1631018815735,0.4202413558959961,0.4260251820087433,-0.0097362548112869,0.1988400518894195
1631018815813,0.4202413558959961,0.3867449760437011,0.0017829358112066,0.1988400518894195
1631018815953,0.4202413558959961,-0.0818276554346084,0.0146367205306887,0.5520811676979065
1631018816063,0.5030192732810974,-0.0818276554346084,0.0273719783872365,0.5771812200546265
1631018816125,0.513137698173523,-0.0756314918398857,0.0394360348582267,0.5777403116226196
1631018816250,0.513137698173523,-0.0479261204600334,0.0481715835630893,0.5777403116226196
1631018816312,0.513137698173523,0.0136680537834763,0.0526392422616481,0.584210991859436
1631018816438,0.513137698173523,0.0361016727983951,0.0598644949495792,0.6055565476417542
1631018816550,0.5170168876647949,0.0402675867080688,0.0611676387488842,0.6125127077102661
1631018816643,0.5216124653816223,0.0488737560808658,0.0616783946752548,0.6125127077102661
1631018816753,0.5312929749488831,0.0539474710822105,-0.0917302221059799,0.6125127077102661
1631018816846,0.5312929749488831,0.0539474710822105,-0.190157413482666,0.6125127077102661
1631018816940,0.5314657688140869,0.0539474710822105,-0.1911008059978485,0.6125127077102661
1631018817034,0.5328419804573059,0.0539474710822105,-0.1525831967592239,0.6125127077102661
1631018817190,0.5408810377120972,0.0531154870986938,-0.0410150177776813,0.6183152794837952
1631018817268,0.5277514457702637,0.063310332596302,0.0295138601213693,0.6335737109184265
1631018817346,0.5531269311904907,0.254279226064682,0.1039100587368011,0.6526018381118774
1631018817440,0.5208133459091187,0.2471236437559127,0.1636974960565567,0.6244776248931885
1631018817553,0.4648213386535644,0.2434408217668533,0.205616608262062,0.5532753467559814
1631018817663,0.4240162074565887,0.240005686879158,0.2648554742336273,0.4818702638149261
1631018817788,0.4057348370552063,0.2283257097005844,0.3082773089408874,0.4232262372970581
1631018817873,0.4057348370552063,0.2214497178792953,0.3828410804271698,0.4031521081924438
1631018817966,0.4057348370552063,0.216862067580223,0.4273693263530731,0.4031521081924438
1631018818076,0.4055091142654419,0.2113177478313446,0.4338699877262115,0.3934144377708435
1631018818154,0.3967966735363006,0.20457623898983,0.4400368630886078,0.3698716163635254
1631018818247,0.3783760666847229,0.1908857971429824,0.4410012364387512,0.3299139738082886
1631018818404,0.3504055440425873,0.1708883643150329,0.4410012364387512,0.3102625608444214
1631018818488,0.3265807330608368,0.1589787006378173,0.4410012364387512,0.3053187131881714
1631018818609,0.3265807330608368,0.1589787006378173,0.4410012364387512,0.3053187131881714
1631018818687,0.3265807330608368,0.1589787006378173,0.4410012364387512,0.3053187131881714
1631018818781,0.3265807330608368,0.1589787006378173,0.4410012364387512,0.3053187131881714
1631018818859,0.3265807330608368,0.1589787006378173,0.4358502626419067,0.3053187131881714
1631018818999,0.3265807330608368,0.1589787006378173,0.4358502626419067,0.3053187131881714
1631018819093,0.3265807330608368,0.1589787006378173,0.4358502626419067,0.3053187131881714
1631018819202,0.3265807330608368,0.7559751272201538,0.4355374872684479,0.3053187131881714
1631018819265,0.3265807330608368,0.7563662528991699,0.425954133272171,0.3053187131881714
1631018819390,0.3265807330608368,0.7595263123512268,0.3929474949836731,0.3053187131881714
1631018819468,0.3265807330608368,0.7691876292228699,0.3331755399703979,0.3053187131881714
1631018819611,0.3265807330608368,0.7691876292228699,0.3331755399703979,0.3053187131881714
1631018819690,0.3265807330608368,0.7691876292228699,0.3331755399703979,0.3053187131881714
1631018819783,0.3265807330608368,0.7691876292228699,0.3331755399703979,0.3053187131881714
1631018819908,0.3265807330608368,0.7691876292228699,0.3331755399703979,0.3053187131881714
1631018819986,0.3265807330608368,0.7691876292228699,0.3331755399703979,0.3053187131881714
1631018820064,0.3265807330608368,0.7691876292228699,0.3331755399703979,0.3053187131881714
1631018820205,0.3265807330608368,0.7691876292228699,0.3331755399703979,0.3053187131881714
1631018820299,0.3265807330608368,0.7691876292228699,0.3331755399703979,0.3053187131881714
1631018820408,0.3265807330608368,0.5932282209396362,0.3331755399703979,0.3053187131881714
1631018820520,0.3265807330608368,0.4359014928340912,0.3331755399703979,0.3053187131881714
1631018820583,0.3265807330608368,0.3937720656394958,0.3331755399703979,0.3053187131881714
1631018820677,0.3265807330608368,0.3937720656394958,0.3331755399703979,0.3053187131881714
1631018820833,0.3265807330608368,0.3937720656394958,0.3331755399703979,0.3053187131881714
1631018820911,0.3265807330608368,0.3937720656394958,0.3331755399703979,0.3053187131881714
1631018821036,0.3265807330608368,0.3937720656394958,0.3331755399703979,0.3053187131881714
1631018821098,0.3265807330608368,0.3937720656394958,0.3331755399703979,0.3053187131881714
1631018821192,0.3265807330608368,0.3937720656394958,0.3331755399703979,0.3053187131881714
1631018821301,0.3265807330608368,0.3937720656394958,0.3331755399703979,0.3053187131881714
1631018821411,0.3265807330608368,0.3937720656394958,0.3331755399703979,0.3053187131881714
1631018821539,0.3265807330608368,0.3937720656394958,0.4901261031627655,0.3053187131881714
1631018821617,0.3265807330608368,0.3937720656394958,0.4901575148105621,0.3053187131881714
1631018821711,0.3265807330608368,0.3937720656394958,0.4901575148105621,0.3053187131881714
1631018821789,0.3265807330608368,0.3937720656394958,0.4901575148105621,0.3053187131881714
1631018821898,0.3265807330608368,0.3937720656394958,0.4901575148105621,0.3053187131881714
1631018822039,0.3265807330608368,0.3937720656394958,0.4901575148105621,0.3053187131881714
1631018822133,0.3265807330608368,0.3937720656394958,0.4901575148105621,0.3053187131881714
1631018822226,0.3265807330608368,0.3937720656394958,0.4901575148105621,0.3053187131881714
1631018822351,0.3265807330608368,0.3937720656394958,0.4901575148105621,0.3053187131881714
1631018822461,0.3265807330608368,0.3937720656394958,0.4901575148105621,0.3053187131881714
1631018822542,0.3265807330608368,0.3937720656394958,0.4901575148105621,0.3053187131881714
1631018822667,0.3265807330608368,0.3937720656394958,0.4901575148105621,0.3053187131881714
1631018822761,0.3265807330608368,0.3937720656394958,0.4876663982868194,0.3053187131881714
1631018822870,0.3265807330608368,0.3937720656394958,0.4876663982868194,0.3053187131881714
1631018822933,0.3265807330608368,0.3937720656394958,0.4876663982868194,0.3053187131881714
1631018823027,0.3265807330608368,0.3937720656394958,0.4876663982868194,0.3053187131881714
1631018823120,0.3265807330608368,0.3937720656394958,0.4876663982868194,0.3053187131881714
1631018823261,0.3265807330608368,-0.3366799652576446,-0.0751186832785606,0.3053187131881714
1631018823339,0.693816602230072,-0.2506514489650726,-0.0345278866589069,0.6441671848297119
1631018823449,0.6952651143074036,-0.1003305315971374,-0.0188548751175403,0.6448285579681396
1631018823545,0.6981648802757263,0.0128671862185001,-0.0178458001464605,0.647613525390625
1631018823623,0.7066793441772461,0.0531511902809143,-0.0001294713874813,0.665490448474884
1631018823733,0.7149339914321899,0.0531511902809143,0.0050779292359948,0.696234405040741
1631018823873,0.7185582518577576,0.0531511902809143,0.0050779292359948,0.716474175453186
1631018823967,0.7185582518577576,0.0531511902809143,0.0050779292359948,0.7342461943626404
1631018824045,0.7185582518577576,0.0551189109683036,0.0050779292359948,0.7342461943626404
1631018824139,0.7185582518577576,0.0590101107954978,0.0050779292359948,0.7342461943626404
1631018824295,0.7185582518577576,0.0651450753211975,0.0050779292359948,0.7342461943626404
1631018824342,0.7185582518577576,0.099287673830986,0.0050779292359948,0.7342461943626404
1631018824467,0.7185582518577576,0.099287673830986,-0.0095159988850355,0.7342461943626404
1631018824564,0.7185582518577576,0.099287673830986,0.0127793261781334,0.7342461943626404
1631018824658,0.7038341760635376,0.099287673830986,0.081271082162857,0.7312629222869873
1631018824751,0.6045004725456238,0.0985811427235603,0.1391605287790298,0.697441577911377
1631018824845,0.4281242489814758,0.0949897393584251,0.2250144034624099,0.6467151045799255
1631018824939,0.2880944013595581,0.082740306854248,0.3166123926639557,0.6009660363197327
1631018825126,0.2379047572612762,0.0615911334753036,0.3166123926639557,0.5798578858375549
1631018825189,0.1907585561275482,-0.0127447107806801,0.3166123926639557,0.5720514059066772
1631018825267,0.155566394329071,-0.1442296653985977,0.309586763381958,0.5654182434082031
1631018825345,0.117133691906929,-0.2737571001052856,0.294888436794281,0.5401953458786011
1631018825470,0.064097411930561,-0.3363157510757446,0.2884862124919891,0.4727533161640167
1631018825551,0.064097411930561,-0.3363157510757446,0.2865174114704132,0.4727533161640167
1631018825711,0.064097411930561,-0.3363157510757446,0.3060674965381622,0.4727533161640167
1631018825802,0.064097411930561,-0.3363157510757446,0.3490930795669555,0.4727533161640167
1631018825891,0.064097411930561,-0.3363157510757446,0.3629382848739624,0.4727533161640167
1631018825980,0.127748817205429,-0.0551654733717441,0.3846024572849273,0.4056923389434814
1631018826075,0.127748817205429,-0.0530453845858573,0.3980801999568939,0.4569098949432373
1631018826177,0.127748817205429,-0.0530453845858573,0.3992945253849029,0.4569098949432373
1631018826315,0.127748817205429,-0.0530453845858573,0.3992945253849029,0.4569098949432373
1631018826393,0.127748817205429,-0.0530453845858573,0.3811280727386474,0.4569098949432373
1631018826520,0.127748817205429,-0.0530453845858573,0.2417318075895309,0.4569098949432373
1631018826638,0.127748817205429,-0.052721980959177,0.2417318075895309,0.4569098949432373
1631018826707,0.127748817205429,-0.052721980959177,0.2417318075895309,0.4569098949432373
1631018826819,0.127748817205429,-0.052721980959177,0.2417318075895309,0.4569098949432373
1631018826913,0.127748817205429,-0.052721980959177,0.2443824261426925,0.4569098949432373
1631018827022,0.127748817205429,-0.0407028794288635,0.2490730136632919,0.4569098949432373
1631018827133,0.127748817205429,-0.0212647449225187,0.258800745010376,0.4569098949432373
1631018827188,0.127748817205429,-0.0246632564812898,0.278073638677597,0.5656526684761047
1631018827297,0.127748817205429,-0.0259045343846082,0.2977328896522522,0.5439726710319519
1631018827393,0.127748817205429,-0.019876604899764,0.2885031998157501,0.543214738368988
1631018827519,0.127748817205429,-0.0009717404609546,0.2446226179599762,0.5367587208747864
1631018827628,0.5870347619056702,0.0495653264224529,0.2306226193904876,0.3899289667606354
1631018827739,0.6132639050483704,0.0885049328207969,0.2176195085048675,0.4034254550933838
1631018827836,0.6743893623352051,0.1064318343997001,0.1867485791444778,0.4183835387229919
1631018827920,0.7452637553215027,0.1072382777929306,0.1867485791444778,0.4526281654834747
1631018828042,0.7952390313148499,0.1096651330590248,0.1867485791444778,0.5406835675239563
1631018828136,0.836311399936676,0.1219293773174285,0.1867485791444778,0.6196482181549072
1631018828229,0.8695850372314453,0.1255982369184494,0.2085744589567184,0.6621136665344238
1631018828323,0.8946478962898254,0.1263216584920883,0.2437485605478286,0.6839541792869568
1631018828417,0.8976303935050964,0.1398166567087173,0.263111799955368,0.7014853954315186
1631018828507,0.8976303935050964,0.1666692048311233,0.2693526446819305,0.7062260508537292
1631018828600,0.8976303935050964,0.1925287544727325,0.2720478773117065,0.7095670104026794
1631018828741,0.8976303935050964,0.2191640734672546,0.2721059024333954,0.7043395042419434
1631018828866,0.901521384716034,0.2255736142396927,0.2721059024333954,0.6989806890487671
1631018828928,0.9127897024154664,0.229147732257843,0.2582986950874328,0.6787364482879639
1631018829030,0.92606920003891,0.2361958622932434,0.2363761961460113,0.6406906247138977
1631018829134,0.9222701787948608,0.2440038025379181,0.2113257795572281,0.6297411918640137
1631018829228,0.9236225485801696,0.2524145245552063,0.1775931864976883,0.6295840740203857
1631018829353,0.9192814826965332,0.2524145245552063,0.1435058265924453,0.6297130584716797
1631018829446,0.9192814826965332,0.2524145245552063,0.0875109881162643,0.6296596527099609
1631018829558,0.9166616201400756,0.2524145245552063,0.0871888324618339,0.6295199394226074
1631018829652,0.9124651551246644,0.2524145245552063,0.0871888324618339,0.6327269077301025
1631018829761,0.8984136581420898,0.2466342598199844,0.0892853662371635,0.6344997882843018
1631018829808,0.8968552947044373,0.2391508072614669,0.0928933769464492,0.6269658803939819
1631018829964,0.8702744245529175,0.2645443081855774,0.086272232234478,0.627801775932312
1631018830074,0.8514929413795471,0.3802352249622345,0.0741809979081153,0.6425554156303406
1631018830136,0.8709860444068909,0.5723665952682495,0.0616031400859355,0.673600971698761
1631018830277,0.9223187565803528,0.6872951984405518,0.0674159973859787,0.6758119463920593
1631018830372,0.9396719336509703,0.6872951984405518,0.1354225426912307,0.6396826505661011
1631018830435,0.9396719336509703,0.6872951984405518,0.1934850662946701,0.6296359896659851
1631018830546,0.9396719336509703,0.6872951984405518,0.2828965485095978,0.6296359896659851
1631018830687,0.9428987503051758,0.6872951984405518,0.4426117539405823,0.6296359896659851
1631018830796,0.9544137716293336,0.6872951984405518,0.5583106875419617,0.6296359896659851
1631018830858,0.953906238079071,0.6872951984405518,0.5583106875419617,0.618249773979187
1631018830968,0.9709641933441162,0.6872951984405518,0.5583106875419617,0.612533450126648
1631018831062,1.023895502090454,0.6872951984405518,0.5583106875419617,0.612533450126648
1631018831202,1.0990126132965088,0.6872951984405518,0.5583106875419617,0.612533450126648
1631018831280,1.143152117729187,0.6872951984405518,0.5583106875419617,0.612533450126648
1631018831374,1.1456522941589355,0.6872951984405518,0.5557659864425659,0.612533450126648
1631018831486,1.1456522941589355,0.6872951984405518,0.55674809217453,0.612533450126648
1631018831564,1.1456522941589355,0.6872951984405518,0.55674809217453,0.612533450126648
1631018831658,1.1456522941589355,0.6872951984405518,0.5559754371643066,0.6019401550292969
1631018831786,1.1456522941589355,0.6872951984405518,0.555180013179779,0.5538405776023865
1631018831864,1.1402641534805298,0.6872951984405518,0.5522477626800537,0.4852814376354217
1631018832005,1.134329319000244,0.6872951984405518,0.5577077865600586,0.2391917407512664
1631018832067,1.134329319000244,0.6872951984405518,0.5577077865600586,0.3010043501853943
1631018832176,1.134329319000244,0.4305954277515411,0.5577077865600586,0.4184832572937011
1631018832254,1.134329319000244,0.4723162949085235,0.2806877195835113,0.4815025925636291
1631018832410,1.134329319000244,0.4771480560302734,0.2806877195835113,0.4815025925636291
1631018832523,1.134329319000244,0.4771480560302734,0.2806877195835113,0.4815025925636291
1631018832601,1.134329319000244,0.4907052516937256,0.2806877195835113,0.4815025925636291
1631018832679,1.111029863357544,0.515411376953125,0.2806877195835113,0.4815025925636291
1631018832773,1.001362442970276,0.515411376953125,0.2839032113552093,0.4815025925636291
1631018832867,0.7975735664367676,0.5154576301574707,0.3295994400978088,0.5170862078666687
1631018833039,0.6753665208816528,0.5156830549240112,0.3637533187866211,0.5161941051483154
1631018833117,0.6548810005187988,0.5156830549240112,0.3800643682479858,0.5161941051483154
1631018833195,0.6518106460571289,0.516013503074646,0.4021910429000854,0.5161941051483154
1631018833308,0.6600157022476196,0.5401964783668518,0.4263495802879333,0.5263046622276306
1631018833379,0.68220055103302,0.6107423305511475,0.4436909556388855,0.5441205501556396
1631018833491,0.7095177173614502,0.6369116902351379,0.4462460279464721,0.5540919303894043
1631018833627,0.7306309938430786,0.6495630145072937,0.4490354359149933,0.5458972454071045
1631018833715,0.8611926436424255,0.656409502029419,0.4592790901660919,0.5796801447868347
1631018833849,0.8611926436424255,0.6538017988204956,0.4592790901660919,0.565625786781311
1631018833914,0.8611926436424255,0.6458002328872681,0.4592790901660919,0.565625786781311
1631018834002,0.8611926436424255,0.6434905529022217,0.4592790901660919,0.565625786781311
1631018834098,0.8611926436424255,0.6434905529022217,0.4600547850131988,0.565625786781311
1631018834248,0.8530939221382141,0.6393506526947021,0.4620814919471741,0.565625786781311
1631018834321,0.8487349152565002,0.6380332708358765,0.4620814919471741,0.565625786781311
1631018834427,0.8441033363342285,0.6304168701171875,0.4620814919471741,0.565625786781311
1631018834519,0.83676677942276,0.6304168701171875,0.4524045884609222,0.565625786781311
1631018834604,0.8332058787345886,0.6304168701171875,0.4101374447345733,0.565625786781311
1631018834719,0.8332058787345886,0.6276572942733765,0.4470523297786712,0.565625786781311
1631018834860,0.8332058787345886,0.6276572942733765,0.5092551112174988,0.565625786781311
1631018834937,0.8332058787345886,0.6273381114006042,0.5248152613639832,0.565625786781311
1631018835063,0.8332058787345886,0.59011310338974,0.5154302716255188,0.565625786781311
1631018835141,0.8332058787345886,0.5207700729370117,0.4935875833034515,0.565625786781311
1631018835205,0.8332058787345886,0.4326542019844055,0.4650033414363861,0.565625786781311
1631018835330,0.8332058787345886,0.4087480902671814,0.4368018209934234,0.565625786781311
1631018835455,0.8332058787345886,0.4949717223644256,0.4338149428367615,0.565625786781311
1631018835543,0.8332058787345886,0.5652515888214111,0.4338149428367615,0.565625786781311
1631018835647,0.8332058787345886,0.5745468139648438,0.4338149428367615,0.565625786781311
1631018835753,0.8332058787345886,0.5745468139648438,0.4338149428367615,0.565625786781311
1631018835855,0.8332058787345886,0.5745468139648438,0.4338149428367615,0.565625786781311
1631018835917,0.8332058787345886,0.5745468139648438,0.4338149428367615,0.565625786781311
1631018836073,0.8332058787345886,0.5745468139648438,0.4338149428367615,0.565625786781311
1631018836151,0.8332058787345886,0.5745468139648438,0.4338149428367615,0.565625786781311
1631018836245,0.8332058787345886,0.5745468139648438,0.4338149428367615,0.565625786781311
1631018836339,0.8332058787345886,0.5745468139648438,0.4023459255695343,0.565625786781311
1631018836433,0.8332058787345886,0.5745468139648438,0.2995545864105224,0.565625786781311
1631018836539,0.8332058787345886,0.5745468139648438,0.1933412700891494,0.565625786781311
1631018836648,0.8332058787345886,0.5745468139648438,0.1271599978208542,0.565625786781311
1631018836773,0.8332058787345886,0.5745468139648438,0.0695866197347641,0.565625786781311
1631018836851,0.8332058787345886,0.5745468139648438,0.0272230356931686,0.565625786781311
1631018836945,0.8332058787345886,0.5677196979522705,-0.0178531184792518,0.565625786781311
1631018837057,0.8332058787345886,0.523980438709259,-0.0399068556725978,0.565625786781311
1631018837151,0.8332058787345886,0.523980438709259,-0.0399068556725978,0.565625786781311
1631018837260,0.8332058787345886,0.523980438709259,-0.0399068556725978,0.565625786781311
1631018837354,0.8332058787345886,0.523980438709259,-0.0399068556725978,0.565625786781311
1631018837463,0.8332058787345886,0.523980438709259,-0.0408212766051292,0.565625786781311
1631018837560,0.8332058787345886,0.523980438709259,-0.0408212766051292,0.565625786781311
1631018837638,0.8332058787345886,0.523980438709259,-0.0408212766051292,0.565625786781311
1631018837747,0.8332058787345886,0.523980438709259,-0.0408212766051292,0.565625786781311
1631018837888,0.8332058787345886,0.523980438709259,-0.0408212766051292,0.565625786781311
1631018837997,0.8332058787345886,0.523980438709259,-0.0408212766051292,0.565625786781311
1631018838095,0.8332058787345886,0.523980438709259,-0.0408212766051292,0.565625786781311
1631018838155,0.8332058787345886,0.523980438709259,-0.0408212766051292,0.565625786781311
1631018838264,0.8332058787345886,0.523980438709259,-0.0408212766051292,0.565625786781311
1631018838358,0.8332058787345886,0.523980438709259,-0.0408212766051292,0.565625786781311
1631018838517,0.8332058787345886,0.523980438709259,-0.0408212766051292,0.565625786781311
1631018838610,0.8332058787345886,0.523980438709259,-0.0408212766051292,0.565625786781311
1631018838688,0.8332058787345886,0.523980438709259,-0.0408212766051292,0.565625786781311
1631018838782,0.8332058787345886,0.523980438709259,-0.0408212766051292,0.565625786781311
1631018838892,0.8332058787345886,0.523980438709259,0.0831635370850563,0.565625786781311
1631018838985,1.2864443063735962,0.1500424444675445,0.1066135615110397,0.7500845193862915
1631018839142,1.2864443063735962,0.1504953950643539,0.1250323355197906,0.7754557728767395
1631018839235,1.2864443063735962,0.1540297567844391,0.1293421387672424,0.8101587891578674
1631018839298,1.2864443063735962,0.1605055779218673,0.1293421387672424,0.8101587891578674
1631018839391,1.2864443063735962,0.1713253110647201,0.1293421387672424,0.8101587891578674
1631018839522,1.2864443063735962,0.1713253110647201,0.1374656111001968,0.8101587891578674
1631018839600,1.2864443063735962,0.1713253110647201,0.3465279936790466,0.8101587891578674
1631018839725,1.2864443063735962,0.1713253110647201,0.5586661696434021,0.8101587891578674
1631018839819,1.2864443063735962,0.1713253110647201,0.6388944387435913,0.8101587891578674
1631018839944,1.2864443063735962,0.1713253110647201,0.6388944387435913,1.16342294216156
1631018840006,1.2864443063735962,0.1713253110647201,0.6388944387435913,1.16342294216156
1631018840116,1.2864443063735962,0.1713253110647201,0.6388944387435913,1.16342294216156
1631018840194,1.283733606338501,0.147941306233406,0.6388944387435913,1.16342294216156
1631018840319,1.2396734952926636,0.1374972313642501,0.6388944387435913,1.16342294216156
1631018840428,1.2396734952926636,0.1209179982542991,0.6388944387435913,1.16342294216156
1631018840511,1.2396734952926636,0.0632368549704551,0.6388944387435913,1.16342294216156
1631018840620,1.2396734952926636,0.0632368549704551,0.6388944387435913,1.16342294216156
1631018840714,1.2396734952926636,0.0632368549704551,0.6388944387435913,1.16342294216156
1631018840792,1.2396734952926636,0.0632368549704551,0.6388944387435913,1.16342294216156
1631018840948,1.2396734952926636,0.0632368549704551,0.6388944387435913,1.16342294216156
1631018841042,1.2396734952926636,0.0632368549704551,0.6388944387435913,1.16342294216156
1631018841136,1.2396734952926636,0.0632368549704551,0.6388944387435913,1.16342294216156
1631018841214,1.2396734952926636,0.0632368549704551,0.6388944387435913,1.16342294216156
1631018841339,1.2396734952926636,0.0632368549704551,0.6388944387435913,1.16342294216156
1631018841417,1.2396734952926636,0.0632368549704551,0.6388944387435913,1.16342294216156
1631018841529,1.2396734952926636,0.0632368549704551,0.6388944387435913,1.16342294216156
1631018841638,1.2396734952926636,0.0632368549704551,0.6388944387435913,1.16342294216156
1631018841732,1.2396734952926636,0.0632368549704551,0.6388944387435913,1.16342294216156
1631018841841,1.2396734952926636,0.0632368549704551,0.6388944387435913,1.16342294216156
1631018841935,1.2396734952926636,0.0632368549704551,0.6388944387435913,1.16342294216156
1631018842029,1.2396734952926636,0.0632368549704551,0.6388944387435913,1.16342294216156
1631018842154,1.2396734952926636,0.0632368549704551,0.6388944387435913,1.16342294216156
1631018842248,1.2396734952926636,0.0632368549704551,0.6388944387435913,1.16342294216156
1631018842341,1.2396734952926636,0.0632368549704551,0.6388944387435913,1.16342294216156
1631018842482,1.2396734952926636,0.0632368549704551,0.6388944387435913,1.16342294216156
1631018842562,1.2396734952926636,0.0632368549704551,0.6388944387435913,1.16342294216156
1631018842625,1.2396734952926636,0.0632368549704551,0.6388944387435913,1.16342294216156
1631018842765,1.2396734952926636,0.0632368549704551,0.6388944387435913,1.16342294216156
1631018842859,1.2396734952926636,0.0632368549704551,0.6388944387435913,1.16342294216156
1631018842969,1.2396734952926636,0.0632368549704551,0.6388944387435913,1.16342294216156
1631018843031,1.2396734952926636,0.0632368549704551,0.6388944387435913,1.16342294216156
1631018843140,1.2396734952926636,0.0632368549704551,0.6388944387435913,1.16342294216156
1631018843265,1.2396734952926636,0.0632368549704551,0.6388944387435913,1.16342294216156
1631018843390,1.2396734952926636,0.0632368549704551,0.6388944387435913,1.16342294216156
1631018843453,1.2396734952926636,0.0632368549704551,0.0907440185546875,1.16342294216156
1631018843596,1.2396734952926636,0.0632368549704551,0.1089304387569427,1.16342294216156
1631018843659,1.2396734952926636,0.0632368549704551,0.137997567653656,1.16342294216156
1631018843784,1.2396734952926636,0.0632368549704551,0.1992924809455871,1.16342294216156
1631018843893,1.2396734952926636,0.0632368549704551,0.2271644175052642,1.16342294216156
1631018843987,1.2396734952926636,0.0632368549704551,0.2244375646114349,1.16342294216156
1631018844096,1.2396734952926636,0.0632368549704551,0.2316380441188812,1.16342294216156
1631018844205,1.2396734952926636,0.0632368549704551,0.2316380441188812,1.16342294216156
1631018844268,1.2396734952926636,0.0632368549704551,0.2316380441188812,1.16342294216156
1631018844393,1.2396734952926636,0.0632368549704551,0.2316380441188812,1.16342294216156
1631018844440,1.2396734952926636,0.0632368549704551,0.2328492403030395,1.16342294216156
1631018844596,1.2396734952926636,0.338761955499649,0.2328492403030395,1.16342294216156
1631018844690,1.2396734952926636,0.3613123595714569,0.2328492403030395,1.16342294216156
1631018844799,1.2396734952926636,0.364100307226181,0.2328492403030395,1.16342294216156
1631018844861,0.1171327605843544,0.3646307289600372,0.234228104352951,0.329030692577362
1631018844971,0.1551099568605423,0.3449374735355377,0.2349972128868103,0.3582229018211365
1631018845080,0.1723447889089584,0.3528561890125274,0.235193133354187,0.3796611130237579
1631018845205,0.1723447889089584,0.3528561890125274,0.2313648462295532,0.3796611130237579
1631018845330,0.1723447889089584,0.3528561890125274,0.2272353172302246,0.3796611130237579
1631018845424,0.1723447889089584,0.3528561890125274,0.0245865732431411,0.3796611130237579
1631018845486,0.1723447889089584,0.3528561890125274,0.03753612190485,0.3796611130237579
1631018845599,0.1723447889089584,0.3528561890125274,-0.065775066614151,0.3796611130237579
1631018845692,0.1723447889089584,0.3528561890125274,-0.0728031620383262,0.3796611130237579
1631018845817,0.1723447889089584,0.3528561890125274,-0.0728031620383262,0.3796611130237579
1631018845927,0.1723447889089584,0.3328433036804199,-0.0728031620383262,0.3796611130237579
1631018845989,0.1723447889089584,0.314873069524765,-0.0757096335291862,0.3796611130237579
1631018846099,0.1008345857262611,0.3067010641098022,-0.0944303348660469,0.347516268491745
1631018846208,0.0984533354640007,0.284011036157608,-0.1128313541412353,0.2742573618888855
1631018846302,0.0984533354640007,0.1928010880947113,-0.1201477870345115,0.2742573618888855
1631018846505,0.0984533354640007,0.0908842161297798,-0.123203694820404,0.2742573618888855
1631018846538,0.0984533354640007,0.0908842161297798,-0.1291406601667404,0.2742573618888855
1631018846616,0.0984533354640007,0.0908842161297798,-0.1340759396553039,0.2742573618888855
1631018846714,0.0984533354640007,0.0908842161297798,-0.1507754474878311,0.2742573618888855
1631018846792,0.0984533354640007,0.0908842161297798,-0.1744230091571808,0.2742573618888855
1631018846919,0.0984533354640007,0.0908842161297798,-0.1855895221233368,0.2742573618888855
1631018847078,0.0984533354640007,0.0908842161297798,-0.2491543442010879,0.2742573618888855
1631018847180,0.0984533354640007,0.0908842161297798,-0.2491543442010879,0.2742573618888855
1631018847268,0.0984533354640007,0.0908842161297798,-0.2491543442010879,0.2742573618888855
1631018847344,0.0984533354640007,0.0908842161297798,-0.2491543442010879,0.2742573618888855
1631018847425,0.0984533354640007,0.215120792388916,-0.2491543442010879,0.2742573618888855
1631018847518,0.0984533354640007,0.2213214337825775,-0.2491543442010879,0.2742573618888855
1631018847637,1.0159956216812134,0.2292935401201248,-0.1536552309989929,0.5009523630142212
1631018847741,1.056405544281006,0.2426187694072723,-0.1323685199022293,0.509398341178894
1631018847819,1.0748077630996704,0.2440896779298782,-0.1123858466744422,0.509398341178894
1631018847963,1.0855917930603027,0.2440896779298782,-0.1011803224682807,0.509398341178894
1631018848021,1.0855917930603027,0.2440896779298782,-0.0934006497263908,0.509398341178894
1631018848131,1.0855917930603027,0.2440896779298782,-0.0773253664374351,0.509398341178894
1631018848240,1.0855917930603027,0.2440896779298782,-0.0622811131179332,0.509398341178894
1631018848349,1.0855917930603027,0.2440896779298782,-0.0496026612818241,0.509398341178894
1631018848443,1.0855917930603027,0.2440896779298782,-0.0280042644590139,0.509398341178894
1631018848540,1.0855917930603027,0.2470462024211883,-0.0110447946935892,0.5125821828842163
1631018848649,1.0855917930603027,0.2259238064289093,-0.0099986921995878,0.5327396988868713
1631018848728,1.0855917930603027,0.1919910311698913,-0.0099986921995878,0.5497863292694092
1631018848852,1.057098150253296,0.1577798128128051,-0.020015375688672,0.5455960631370544
1631018848962,1.037416934967041,0.1155709326267242,-0.0589226596057415,0.5414012670516968
1631018849056,1.0361517667770386,0.0875995904207229,-0.1161959767341613,0.5164519548416138
1631018849165,1.0308504104614258,0.0613847561180591,-0.1251676827669143,0.5056139826774597
1631018849243,0.9956941604614258,0.0186640713363885,-0.1289010643959045,0.4749560356140136
1631018849352,0.8932457566261292,-0.0261148400604724,-0.1236744299530983,0.4321185946464538
1631018849493,0.7849351167678833,-0.0555172935128212,-0.1037421077489852,0.4015037715435028
1631018849559,0.7014213800430298,-0.0619238466024398,-0.0993823185563087,0.3746013939380646
1631018849652,0.67707759141922,-0.0573764331638813,-0.0993023514747619,0.3386922180652618
1631018849777,0.6534477472305298,-0.0629082322120666,-0.0894061774015426,0.3057751953601837
1631018849871,0.6341692209243774,-0.0960779339075088,-0.0879337340593338,0.2727198004722595
1631018849965,0.6312252879142761,-0.1130315139889717,-0.0725796446204185,0.2325997203588485
1631018850074,0.5628166794776917,-0.0954426079988479,-0.0485196784138679,0.2284553498029709
1631018850183,0.5454872846603394,-0.0542818494141101,-0.0345479138195514,0.337954431772232
1631018850277,0.5454872846603394,-0.0488043613731861,-0.0274507850408554,0.4455402195453644
1631018850371,0.5506457686424255,-0.037977896630764,-0.0322613082826137,0.4952053129673004
1631018850480,0.5995312929153442,-0.0281463060528039,-0.0350304841995239,0.5592429637908936
1631018850543,0.6258541941642761,-0.0199683010578155,-0.0191150717437267,0.5696172118186951
1631018850683,0.638940691947937,-0.0099218236282467,-0.0132925575599074,0.5696172118186951
1631018850793,0.6422832012176514,0.0002370213042013,-0.0132925575599074,0.5696172118186951
1631018850933,0.648013710975647,0.0097767226397991,-0.0132925575599074,0.5696172118186951
1631018851011,0.64837247133255,0.0145411426201462,-0.0132925575599074,0.5696172118186951
1631018851074,0.6515423655509949,0.0145411426201462,-0.0335129350423812,0.5751829147338867
1631018851188,0.6546841263771057,0.0145411426201462,-0.084411472082138,0.6026321649551392
1631018851327,0.6546841263771057,0.0150771550834178,-0.1010082513093948,0.6295480728149414
1631018851380,0.6546841263771057,0.0150771550834178,-0.104978509247303,0.634146511554718
1631018851495,0.6579075455665588,0.0264225769788026,-0.1066772937774658,0.634146511554718
1631018851608,0.6665447950363159,0.0325229130685329,-0.1107013225555419,0.634146511554718
1631018851686,0.6508671045303345,0.0318023972213268,-0.1135567054152488,0.634146511554718
1631018851814,0.6229457259178162,0.0017496823566034,-0.1133469119668006,0.6342266201972961
1631018851918,0.6005251407623291,-0.0556931421160697,-0.1387961655855178,0.597506582736969
1631018852019,0.6066278219223022,-0.1013009473681449,-0.1770038902759552,0.5554862022399902
1631018852124,0.6086012721061707,-0.1056562587618827,-0.2023246437311172,0.5881835222244263
1631018852216,0.6052270531654358,-0.1056562587618827,-0.2243202328681945,0.651509165763855
1631018852282,0.6050678491592407,-0.1067240014672279,-0.2423842847347259,0.6817365884780884
1631018852446,0.623477041721344,-0.1067240014672279,-0.2423842847347259,0.6817365884780884
1631018852539,0.6350523233413696,-0.1081924438476562,-0.2423842847347259,0.6817365884780884
1631018852633,0.6407650709152222,-0.1117060706019401,-0.2204230278730392,0.6817365884780884
1631018852711,0.644810140132904,-0.1183622106909751,-0.1751445680856704,0.6782971620559692
1631018852820,0.6446179151535034,-0.0780159011483192,-0.106425404548645,0.673460841178894
1631018852883,0.6437206864356995,-0.0247881393879652,-0.0710244551301002,0.659238874912262
1631018853017,0.6497982144355774,0.0146318497136235,-0.0543543584644794,0.6341009736061096
1631018853126,0.6690810322761536,0.0636582523584365,-0.043980486690998,0.611025869846344
1631018853224,0.6987646222114563,0.1496712863445282,-0.0423890948295593,0.6062988042831421
1631018853318,0.7076704502105713,0.2118509858846664,-0.0541558526456356,0.6062988042831421
1631018853412,0.706455647945404,0.2361841350793838,-0.0875611677765846,0.6071882843971252
1631018853524,0.6987968683242798,0.2372958064079284,-0.0931266024708747,0.6149493455886841
1631018853587,0.6718581914901733,0.2372958064079284,-0.0882626995444297,0.6326655745506287
1631018853727,0.6432510018348694,0.2387269735336303,-0.0763810947537422,0.659726619720459
1631018853821,0.6334015727043152,0.2374820113182068,-0.070034734904766,0.6626233458518982
1631018853946,0.6337364315986633,0.2360137850046157,-0.070034734904766,0.6781139373779297
1631018854055,0.6389797925949097,0.2337150573730468,-0.0697662010788917,0.6884629726409912
1631018854133,0.6405089497566223,0.2334367036819458,-0.0697662010788917,0.6842368245124817
1631018854212,0.6309509873390198,0.2305947840213775,-0.0690607726573944,0.6810719966888428
1631018854337,0.6020890474319458,0.2301435768604278,-0.0244309213012456,0.6795389652252197
1631018854430,0.6323882341384888,0.2301435768604278,0.0412270352244377,0.6777893900871277
1631018854542,0.7139587998390198,0.231754794716835,0.0461800023913383,0.7054008841514587
1631018854635,0.7383493185043335,0.2396537214517593,0.0479383096098899,0.7484316229820251
1631018854713,0.7383493185043335,0.2267126441001892,0.052691500633955,0.7472078800201416
1631018854838,0.7314813137054443,0.1674906909465789,0.054086361080408,0.7472078800201416
1631018854948,0.7239904999732971,0.0634866952896118,0.0541283041238784,0.7511923313140869
1631018855057,0.748234212398529,-0.0191508922725915,0.0611247047781944,0.7759352326393127
1631018855120,0.7703068852424622,-0.0803101658821106,0.0664157643914222,0.7923380136489868
1631018855276,0.777629017829895,-0.1232157349586486,0.0672922283411026,0.7923380136489868
1631018855338,0.7784201502799988,-0.1100337132811546,0.0754352584481239,0.7637239098548889
1631018855417,0.7788262367248535,-0.079627476632595,0.093972809612751,0.7215184569358826
1631018855576,0.7788262367248535,-0.0515045560896396,0.1052048131823539,0.7097099423408508
1631018855654,0.7788262367248535,-0.0314049609005451,0.1067006886005401,0.733310341835022
1631018855779,0.7788262367248535,-0.0314049609005451,0.1354907006025314,0.733310341835022
1631018855842,0.7745093107223511,-0.0314049609005451,0.1354907006025314,0.733310341835022
1631018855939,0.7627566456794739,-0.0341967828571796,0.1354907006025314,0.733310341835022
1631018856050,0.7480214834213257,-0.0444861203432083,0.1006874665617942,0.733310341835022
1631018856206,0.7215971350669861,-0.061074461787939,0.0801977962255477,0.7201544046401978
1631018856269,0.6719667911529541,-0.0694303438067436,0.0797755122184753,0.6584159731864929
1631018856378,0.6146448254585266,-0.0876462534070015,0.0797755122184753,0.5758481621742249
1631018856472,0.5776748061180115,-0.1077787727117538,0.0797755122184753,0.528511643409729
1631018856537,0.5491366386413574,-0.1296160370111465,0.0797755122184753,0.5150896906852722
1631018856615,0.532290518283844,-0.152256429195404,0.0651261582970619,0.5069541335105896
1631018856803,0.4943824410438537,-0.1767998039722442,0.0563491396605968,0.454886645078659
1631018856881,0.4943824410438537,-0.1688131541013717,0.0563491396605968,0.454886645078659
1631018856990,0.4943824410438537,-0.1233977451920509,0.0563491396605968,0.454886645078659
1631018857068,0.4943824410438537,-0.0707349106669426,0.0563491396605968,0.454886645078659
1631018857178,0.4943824410438537,-0.1894043684005737,0.0563491396605968,0.454886645078659
1631018857273,0.6162452101707458,-0.1630178689956665,0.0563491396605968,0.1500786989927292
1631018857383,0.6578559279441833,-0.1251774579286575,0.0563491396605968,0.1511110961437225
1631018857492,0.6591878533363342,-0.0528587251901626,0.0563491396605968,0.1511110961437225
1631018857589,0.6592151522636414,0.0278519429266452,0.0563491396605968,0.1511110961437225
1631018857683,0.6626561284065247,0.0671489760279655,0.0563491396605968,0.1772695332765579
1631018857777,0.6703082919120789,0.0707611888647079,0.0563491396605968,0.2220033705234527
1631018857871,0.6825870275497437,0.0707611888647079,-0.0190564710646867,0.2901544868946075
1631018858011,0.7044246196746826,0.0707611888647079,0.0310024414211511,0.3858834207057953
1631018858120,0.7471386790275574,0.0707611888647079,0.0717633441090583,0.4716639220714569
1631018858199,0.7711426019668579,0.0707611888647079,0.1054516062140464,0.6308834552764893
1631018858277,0.7752370238304138,0.0707611888647079,0.1157315745949745,0.8296215534210205
1631018858402,0.7770688533782959,0.0707611888647079,0.1160724088549614,0.9341952204704284
1631018858480,0.8087084293365479,0.0730471834540367,0.1160724088549614,0.9430065155029296
1631018858654,0.85163813829422,0.061315681785345,0.1160724088549614,0.9430065155029296
1631018858717,0.8641822338104248,0.0505456216633319,0.1160724088549614,0.9430065155029296
1631018858810,0.8760946393013,0.058370403945446,0.1163145303726196,0.9436776638031006
1631018858904,0.8947610259056091,0.0931583419442176,0.1322757005691528,0.953166961669922
1631018858982,0.9420647025108336,0.1085884273052215,0.1413748562335968,0.955865204334259
1631018859138,1.0280864238739014,0.1085884273052215,0.1413748562335968,0.955865204334259
1631018859216,1.0883828401565552,0.0851262137293815,0.1248698458075523,0.9601890444755554
1631018859357,1.1114784479141235,0.0165294744074344,0.0958938226103782,0.962569773197174
1631018859419,1.1243834495544434,-0.0257039982825517,0.0664133951067924,0.976195514202118
1631018859527,1.1273603439331057,0.0316477604210376,0.0461736731231212,0.98312908411026
1631018859579,1.1273603439331057,0.0776559114456176,0.0439641177654266,0.9881210327148438
1631018859689,1.1245510578155518,0.0927685722708702,0.0417966283857822,1.010626196861267
1631018859814,1.1091148853302002,0.0968962907791137,0.0342984907329082,1.0239527225494385
1631018859970,1.0959378480911257,0.0968962907791137,0.0252778436988592,1.0081071853637695
1631018860017,1.0886657238006592,0.0968962907791137,-0.0115056512877345,0.9163447022438048
1631018860142,1.0852605104446411,0.0968962907791137,-0.028768790885806,0.8115244507789612
1631018860235,1.0837074518203735,0.0997881293296814,-0.0162696111947298,0.7774538993835449
1631018860329,1.082017421722412,0.149199903011322,-0.0133853890001773,0.7693190574645996
1631018860439,1.080423355102539,0.2150862216949463,-0.0133853890001773,0.7707106471061707
1631018860530,1.077739953994751,0.251471996307373,-0.0334096029400825,0.7707106471061707
1631018860629,1.0823934078216553,0.2642726302146911,-0.0759200826287269,0.7707106471061707
1631018860707,1.0459192991256714,0.2588870525360107,-0.0817003920674324,0.7707106471061707
1631018860816,1.0022130012512207,0.2588870525360107,-0.0817003920674324,0.7707106471061707
1631018860941,0.963064193725586,0.2588870525360107,-0.0715257227420806,0.7707106471061707
1631018861035,0.9271005988121032,0.2588870525360107,-0.0595139972865581,0.7540012001991272
1631018861175,0.9031381011009216,0.2550513446331024,-0.060091808438301,0.6741157174110413
1631018861238,0.8618497252464294,0.2477330416440963,-0.0584327392280101,0.5788066983222961
1631018861332,0.8454511165618896,0.2409568428993225,-0.00518853450194,0.5980803370475769
1631018861441,0.8454511165618896,0.2434116452932357,0.0404544360935688,0.5571669340133667
1631018861524,0.8454511165618896,0.2580117285251617,0.0467645525932312,0.541344404220581
1631018861709,0.8454511165618896,0.2715058028697967,0.0467645525932312,0.541344404220581
1631018861741,0.8454511165618896,0.2614234983921051,0.0456055998802185,0.541344404220581
1631018861866,0.8454511165618896,0.2464768439531326,0.0413564965128898,0.541344404220581
1631018861944,0.8454511165618896,0.2217006832361221,0.0361777693033218,0.5371832251548767
1631018862037,0.8473955392837524,0.1886757314205169,0.0362426303327083,0.56866455078125
1631018862162,0.8305946588516235,0.1725255250930786,0.0375660583376884,0.6237744092941284
1631018862240,0.7721056938171387,0.1261922866106033,0.0375660583376884,0.6930032968521118
1631018862365,0.6966950297355652,0.0703507661819458,0.0502995401620864,0.7423633337020874
1631018862444,0.7349817752838135,0.0577494762837886,0.0848442018032074,0.7556982636451721
1631018862569,0.8078532814979553,0.0836744010448455,0.1241543889045715,0.8263431191444397
1631018862647,0.8350029587745667,0.0879281237721443,0.1613233387470245,0.89975506067276
1631018862740,0.8350029587745667,0.085430197417736,0.1953541785478592,0.9315361976623536
1631018862881,0.8350029587745667,0.0829974040389061,0.1974894702434539,0.9357749819755554
1631018862959,0.8350029587745667,0.0829974040389061,0.1659588813781738,0.9242122769355774
1631018863100,0.8350029587745667,0.0829974040389061,0.1285438984632492,0.9242122769355774
1631018863193,0.8448528051376343,0.0769451558589935,0.105903036892414,0.9242122769355774
1631018863287,0.8924438953399658,0.0323354043066501,0.105903036892414,0.9242122769355774
1631018863350,0.9522991180419922,-0.0327717252075672,0.105903036892414,0.9242122769355774
1631018863475,0.987121045589447,-0.0478665456175804,0.1066504195332527,0.9242122769355774
1631018863571,0.985254406929016,-0.0394231677055358,0.1251476407051086,0.9252154231071472
1631018863680,0.980642318725586,-0.0378538779914379,0.1344746500253677,0.9284740686416626
1631018863758,0.9711496233940125,-0.0378538779914379,0.1358939260244369,0.9284740686416626
1631018863852,0.9602561593055724,-0.0378538779914379,0.1373198479413986,0.9190068244934082
1631018863977,0.952522039413452,-0.0378538779914379,0.1373198479413986,0.8738914728164673
1631018864086,0.9519794583320618,-0.0893831551074981,0.13408824801445,0.8320073485374451
1631018864164,0.9409188628196716,-0.200731486082077,0.1132098138332367,0.7966644763946533
1631018864289,0.900188684463501,-0.2336630523204803,0.0927500799298286,0.7368125319480896
1631018864368,0.843701183795929,-0.1862149536609649,0.1024989038705825,0.671230673789978
1631018864461,0.7999995946884155,-0.1675567477941513,0.135440319776535,0.65505051612854
1631018864574,0.8018066883087158,-0.1648025512695312,0.1726446002721786,0.6289991140365601
1631018864699,0.8052919507026672,-0.1648025512695312,0.1940687596797943,0.6107758283615112
1631018864824,0.8151727914810181,-0.1648025512695312,0.1967600286006927,0.5881627202033997
1631018864887,0.8301813006401062,-0.1529102623462677,0.1967600286006927,0.5786523222923279
1631018864980,0.8367835879325867,-0.0827921107411384,0.1967600286006927,0.5804005265235901
1631018865058,0.8104819059371948,-0.0311721786856651,0.1967600286006927,0.5822095274925232
1631018865152,0.7649462223052979,-0.014408204704523,0.1925975084304809,0.5822095274925232
1631018865339,0.8008835911750793,-0.014408204704523,0.1844830960035324,0.5822095274925232
1631018865402,0.8273800611495972,-0.014408204704523,0.1772618144750595,0.5822095274925232
1631018865511,0.8345366716384888,0.0004954325268045,0.1751727312803268,0.5822095274925232
1631018865609,0.8345366716384888,0.0190969593822956,0.1589998751878738,0.5807204842567444
1631018865718,0.8345366716384888,0.0225450117141008,0.1150353699922561,0.5809211730957031
1631018865812,0.8345366716384888,0.0575702525675296,0.0846634432673454,0.5777376294136047
1631018865905,0.8345366716384888,0.0575702525675296,0.0806654766201973,0.5719296932220459
1631018866015,0.8345366716384888,0.0575702525675296,0.2034230232238769,0.5302007794380188
1631018866124,0.8345366716384888,0.0575702525675296,0.2034230232238769,0.4471429288387298
1631018866234,0.8345366716384888,0.0575702525675296,0.2029692530632019,0.3925887942314148
1631018866296,0.8345366716384888,0.0575702525675296,0.2014743238687515,0.3671444356441498
1631018866405,0.8345366716384888,0.0575702525675296,0.2014743238687515,0.354595422744751
1631018866527,0.8271754384040833,0.0575702525675296,0.4386957585811615,0.3291186094284057
1631018866643,0.774881899356842,0.057456187903881,0.4386957585811615,0.2752215564250946
1631018866705,0.6617679595947266,0.0293673314154148,0.4386957585811615,0.2085876166820526
1631018866830,0.5475059747695923,-0.0259058214724063,0.4386957585811615,0.161191776394844
1631018866908,0.5475059747695923,-0.076723612844944,0.4377670884132385,0.161191776394844
1631018867002,0.5475059747695923,-0.076723612844944,0.4329506456851959,0.161191776394844
1631018867143,0.5475059747695923,-0.076723612844944,0.4296584129333496,0.161191776394844
1631018867252,0.5475059747695923,-0.076723612844944,0.4285035133361816,0.161191776394844
1631018867330,0.5475059747695923,-0.076723612844944,0.4285035133361816,0.161191776394844
1631018867439,0.5475059747695923,-0.076723612844944,0.4285035133361816,0.161191776394844
1631018867533,0.5475059747695923,-0.076723612844944,0.4285035133361816,0.161191776394844
1631018867630,0.5475059747695923,-0.076723612844944,0.4285035133361816,0.161191776394844
1631018867755,0.5475059747695923,-0.076723612844944,0.4285035133361816,0.161191776394844
1631018867864,0.5475059747695923,-0.076723612844944,0.4285035133361816,0.161191776394844
1631018867927,0.5475059747695923,-0.076723612844944,0.4285035133361816,0.161191776394844
1631018868036,0.5475059747695923,-0.076723612844944,0.4285035133361816,0.161191776394844
1631018868130,0.5475059747695923,-0.076723612844944,0.4285035133361816,0.161191776394844
1631018868223,0.5475059747695923,-0.076723612844944,0.4285035133361816,0.161191776394844
1631018868380,0.5475059747695923,-0.076723612844944,0.4285035133361816,0.161191776394844
1631018868442,0.5475059747695923,-0.076723612844944,0.4285035133361816,0.161191776394844
1631018868555,0.5475059747695923,-0.076723612844944,0.4285035133361816,0.161191776394844
1631018868679,0.5475059747695923,-0.076723612844944,0.4285035133361816,0.161191776394844
1631018868757,0.5475059747695923,-0.076723612844944,0.4285035133361816,0.161191776394844
1631018868851,0.5475059747695923,-0.076723612844944,0.4285035133361816,0.161191776394844
1631018868999,0.5475059747695923,-0.076723612844944,0.4285035133361816,0.161191776394844
1631018869061,0.5475059747695923,-0.076723612844944,0.4285035133361816,0.161191776394844
1631018869167,0.5475059747695923,-0.076723612844944,0.4285035133361816,0.161191776394844
1631018869270,0.5475059747695923,-0.076723612844944,0.3502205312252044,0.161191776394844
1631018869371,0.5475059747695923,-0.076723612844944,0.3577208220958709,0.161191776394844
1631018869489,0.5475059747695923,-0.076723612844944,0.3673451542854309,0.161191776394844
1631018869609,0.5475059747695923,-0.076723612844944,0.3876838684082031,0.161191776394844
1631018869709,0.5475059747695923,-0.076723612844944,0.4051920175552368,0.161191776394844
1631018869776,0.5475059747695923,-0.076723612844944,0.4129786193370819,0.161191776394844
1631018869869,0.5475059747695923,-0.076723612844944,0.4129786193370819,0.161191776394844
1631018870022,0.5475059747695923,-0.076723612844944,0.4129786193370819,0.161191776394844
1631018870078,0.5475059747695923,-0.0597208552062511,0.4129786193370819,0.161191776394844
1631018870181,0.5475059747695923,-0.0597208552062511,0.4129786193370819,0.161191776394844
1631018870293,0.5475059747695923,-0.0597208552062511,0.4129786193370819,0.161191776394844
1631018870375,0.5475059747695923,-0.0597208552062511,0.4129786193370819,0.161191776394844
1631018870470,0.5475059747695923,-0.0597208552062511,0.3882398307323456,0.161191776394844
1631018870584,0.5475059747695923,-0.0597208552062511,0.2768686413764953,0.161191776394844
1631018870693,0.5475059747695923,-0.0597208552062511,0.1540224105119705,0.161191776394844
1631018870787,0.5475059747695923,-0.0597208552062511,0.1133018061518669,0.161191776394844
1631018870912,0.5475059747695923,-0.0597208552062511,0.1081578582525253,0.161191776394844
1631018870989,0.5475059747695923,-0.0597208552062511,0.1081578582525253,0.161191776394844
1631018871089,0.5475059747695923,-0.0597208552062511,0.1064724177122116,0.161191776394844
1631018871205,0.5475059747695923,-0.0597208552062511,0.1064724177122116,0.161191776394844
1631018871267,0.5475059747695923,-0.0597208552062511,0.0907072871923446,0.161191776394844
1631018871439,0.5475059747695923,-0.0597208552062511,0.0907072871923446,0.161191776394844
1631018871520,0.5475059747695923,-0.0597208552062511,0.0907072871923446,0.161191776394844
1631018871633,0.5475059747695923,-0.0597208552062511,0.0907072871923446,0.161191776394844
1631018871750,0.5475059747695923,-0.0597208552062511,0.0907072871923446,0.161191776394844
1631018871805,0.5475059747695923,-0.0597208552062511,0.0907072871923446,0.161191776394844
1631018871899,0.5475059747695923,-0.0597208552062511,0.0907072871923446,0.161191776394844
1631018872024,0.5475059747695923,-0.0597208552062511,0.0907072871923446,0.161191776394844
1631018872119,0.5475059747695923,-0.0597208552062511,0.0907072871923446,0.161191776394844
1631018872276,0.5475059747695923,-0.0597208552062511,0.0907072871923446,0.161191776394844
1631018872338,0.5475059747695923,-0.0597208552062511,0.0907072871923446,0.161191776394844
1631018872401,0.5475059747695923,-0.0597208552062511,0.0907072871923446,0.161191776394844
1631018872479,0.5475059747695923,-0.0597208552062511,0.0907072871923446,0.161191776394844
1631018872654,0.5475059747695923,-0.0597208552062511,0.0907072871923446,0.161191776394844
1631018872716,0.5475059747695923,-0.0597208552062511,0.0907072871923446,0.161191776394844
1631018872857,0.5475059747695923,-0.0597208552062511,0.0907072871923446,0.161191776394844
1631018872919,0.5475059747695923,-0.0597208552062511,0.0907072871923446,0.161191776394844
1631018872982,0.5475059747695923,-0.0597208552062511,0.0907072871923446,0.161191776394844
1631018873107,0.5475059747695923,-0.0597208552062511,0.0907072871923446,0.161191776394844
1631018873247,0.5475059747695923,-0.0597208552062511,0.0907072871923446,0.161191776394844
1631018873325,0.5475059747695923,-0.0597208552062511,0.0907072871923446,0.161191776394844
1631018873404,0.5475059747695923,-0.0597208552062511,0.0907072871923446,0.161191776394844
1631018873532,0.5475059747695923,-0.0597208552062511,0.0907072871923446,0.161191776394844
1631018873667,0.5475059747695923,-0.0597208552062511,0.0907072871923446,0.161191776394844
1631018873698,0.5475059747695923,-0.0597208552062511,0.0907072871923446,0.161191776394844
1631018873839,0.5475059747695923,-0.0597208552062511,0.4598118960857391,0.161191776394844
1631018873948,0.5475059747695923,-0.0597208552062511,0.4661707878112793,0.161191776394844
1631018874042,0.5475059747695923,-0.0597208552062511,0.2821677923202514,0.161191776394844
1631018874120,0.5475059747695923,-0.0597208552062511,0.2721478044986725,0.161191776394844
1631018874214,0.8040856122970581,-0.1080986335873603,0.2214402705430984,0.3694708049297333
1631018874307,0.8166438937187195,-0.0991607531905174,0.22295743227005,0.4423726797103882
1631018874464,0.8186076879501343,-0.0959346517920494,0.22295743227005,0.4869934916496277
1631018874545,0.8186076879501343,-0.0894509777426719,0.22295743227005,0.4869934916496277
1631018874639,0.8186076879501343,-0.0311658456921577,0.2358873188495636,0.4869934916496277
1631018874780,0.8186076879501343,0.1020535230636596,0.2718084752559662,0.4869934916496277
1631018874842,0.8186076879501343,0.1020535230636596,0.3035089075565338,0.4869934916496277
1631018874936,0.8186076879501343,0.1020535230636596,0.3216066658496856,0.4869934916496277
1631018875061,0.8186076879501343,0.1020535230636596,0.3216066658496856,0.4869934916496277
1631018875139,0.8186076879501343,0.1020535230636596,0.3216066658496856,0.4869934916496277
1631018875236,0.8186076879501343,0.1020535230636596,0.3216066658496856,0.4869934916496277
1631018875363,0.8186076879501343,0.1020535230636596,0.3216066658496856,0.4869934916496277
1631018875453,0.8186076879501343,0.080425351858139,0.3198567926883697,0.4869934916496277
1631018875566,0.7894480228424072,0.0370258055627346,0.3050553500652313,0.4793750643730163
1631018875660,0.7894480228424072,0.0085303476080298,0.2565085887908935,0.4793750643730163
1631018875769,0.7894480228424072,0.0242342799901962,0.1702092736959457,0.4793750643730163
1631018875878,0.7894480228424072,0.0527008920907974,0.1215215027332305,0.4793750643730163
1631018875957,0.7894480228424072,0.1058449521660804,0.127456858754158,0.4793750643730163
1631018876066,0.7894480228424072,0.1467011272907257,0.1224578693509101,0.4793750643730163
1631018876160,0.7894480228424072,0.1793667674064636,0.1165408939123153,0.4793750643730163
1631018876285,0.7894480228424072,0.2739051282405853,0.1638040244579315,0.4793750643730163
1631018876425,0.4739520251750946,0.5576196908950806,0.2331523001194,0.4793750643730163
1631018876503,0.4739520251750946,0.7426185011863708,0.2836859226226806,0.4793750643730163
1631018876553,0.4819278120994568,0.7979559302330017,0.3150135278701782,0.4793750643730163
1631018876647,0.54539555311203,0.7979559302330017,0.3150135278701782,0.4793750643730163
1631018876741,0.6384913921356201,0.7979559302330017,0.3150135278701782,0.4793750643730163
1631018876881,0.7219949960708618,0.7979559302330017,0.3150135278701782,0.4793750643730163
1631018876975,0.7570042610168457,0.7979559302330017,0.3143559098243713,0.4793750643730163
1631018877067,0.7655080556869507,0.7979559302330017,0.3143107891082763,0.4793750643730163
1631018877168,0.7797079682350159,0.7979559302330017,0.3143107891082763,0.5986270308494568
1631018877302,0.785099983215332,0.7979559302330017,0.3143107891082763,0.6812994480133057
1631018877379,0.8059095144271851,0.7979559302330017,0.3143107891082763,0.7084003686904907
1631018877520,0.8577108979225159,0.7979559302330017,0.3143107891082763,0.712184727191925
1631018877587,0.8804381489753723,0.7963574528694153,0.3116063177585602,0.712184727191925
1631018877678,0.8955430388450623,0.7963574528694153,0.311218112707138,0.712184727191925
1631018877815,0.8955430388450623,0.7963574528694153,0.311218112707138,0.712184727191925
1631018877880,0.8955430388450623,0.7963574528694153,0.3070749044418335,0.712184727191925
1631018877973,0.8955430388450623,0.7908641695976257,0.2777287662029266,0.712184727191925
1631018878116,0.8955430388450623,0.1649853140115738,0.1749894320964813,0.712184727191925
1631018878209,0.8955430388450623,0.1649853140115738,0.0620823726058006,0.712184727191925
1631018878303,0.8955430388450623,0.1649853140115738,0.0407475493848323,0.7138777375221252
1631018878397,0.8955430388450623,0.1649853140115738,0.0532772168517112,0.7138777375221252
1631018878493,0.8899438381195068,0.1649853140115738,0.0643810555338859,0.6991792321205139
1631018878575,0.8655059933662415,0.1649853140115738,0.0959935560822486,0.6897859573364258
1631018878700,0.8531637787818909,0.1649853140115738,0.1070164367556572,0.6629011034965515
1631018878808,0.8739225268363953,0.1649853140115738,0.0725608319044113,0.6248281598091125
1631018878949,0.9035187363624572,0.1628844290971756,-0.010274345986545,0.575832188129425
1631018878996,0.8975532054901123,0.1570551097393036,-0.056849755346775,0.4962103366851806
1631018879121,0.8641901016235352,0.1071236059069633,-0.0705014616250991,0.4359948337078094
1631018879230,0.8263974189758301,0.0468876920640468,-0.0705014616250991,0.4209837019443512
1631018879324,0.8073750138282776,0.0004923841333948,-0.0705014616250991,0.4209837019443512
1631018879418,0.8022765517234802,-0.0242804456502199,-0.0705014616250991,0.4209538698196411
1631018879511,0.8022765517234802,-0.0423228554427623,-0.0829691812396049,0.4205497503280639
1631018879639,0.8022765517234802,-0.0834525451064109,-0.0871675536036491,0.4689895808696747
1631018879701,0.8022765517234802,-0.0834525451064109,-0.0871675536036491,0.44450643658638
1631018879795,0.8022765517234802,-0.0834525451064109,-0.0871675536036491,0.3808270096778869
1631018879951,0.8035616278648376,-0.0834525451064109,-0.0908066481351852,0.2968384921550751
1631018880045,0.8099103569984436,-0.0834525451064109,-0.1000613048672676,0.2795849740505218
1631018880139,0.8099103569984436,-0.3315413296222687,-0.087739273905754,0.2015571296215057
1631018880232,0.8062716126441956,-0.3315413296222687,-0.0967001765966415,0.2015571296215057
1631018880310,0.7811319231987,-0.3308711647987366,-0.0866872444748878,0.2015571296215057
1631018880420,0.5297198295593262,-0.3078649342060089,-0.0858614519238472,0.2047045826911926
1631018880549,0.5297198295593262,-0.2428862750530243,-0.0519657433032989,0.2047045826911926
1631018880674,0.5297198295593262,-0.2428862750530243,0.0017711678519845,0.2047045826911926
1631018880768,0.5297198295593262,-0.2428862750530243,0.1024567782878875,0.2047045826911926
1631018880846,0.5297198295593262,-0.2428862750530243,0.232876107096672,0.2047045826911926
1631018880924,0.5297198295593262,-0.2428862750530243,0.3925341963768005,0.2047045826911926
1631018881002,0.5297198295593262,-0.2428862750530243,0.5038611888885498,0.2047045826911926
1631018881158,0.5297198295593262,-0.2428862750530243,0.5551572442054749,0.1644885689020156
1631018881252,0.5297198295593262,-0.2428862750530243,0.5793511271476746,0.1435295641422271
1631018881361,0.5248667597770691,-0.441690981388092,0.5793511271476746,0.1240340620279312
1631018881424,0.4782674908638,-0.5091054439544678,0.5802133679389954,0.0963533222675323
1631018881590,0.3302487134933471,-0.511421263217926,0.5824460387229919,0.0376528725028038
1631018881668,0.3302487134933471,-0.5239217281341553,0.5824460387229919,0.0376528725028038
1631018881778,0.3302487134933471,0.0769223943352699,0.5824460387229919,0.0376528725028038
1631018881903,0.3302487134933471,0.104840874671936,0.5824460387229919,0.0376528725028038
1631018881965,0.3302487134933471,0.1328462213277816,0.5824460387229919,0.0376528725028038
1631018882028,0.3302487134933471,0.1754518449306488,0.5824460387229919,0.0376528725028038
1631018882152,0.3587833940982818,0.2262834161520004,0.5824460387229919,1.053595781326294
1631018882262,0.3848839104175567,0.2617278099060058,0.585582435131073,1.0593615770339966
1631018882387,0.4377005398273468,0.2709778547286987,0.5859793424606323,1.0636978149414062
1631018882496,0.5022581219673157,0.2725211381912231,0.5859793424606323,1.0643389225006104
1631018882560,0.5612430572509766,0.2975168824195862,0.5470723509788513,1.0643389225006104
1631018882702,0.6503497362136841,0.4202176630496979,0.4330166578292846,1.0643389225006104
1631018882764,0.7426609396934509,0.5629501938819885,0.3295283317565918,1.0643389225006104
1631018882870,0.7891954183578491,0.5629501938819885,0.2321884483098983,1.0643389225006104
1631018882980,0.7977065443992615,0.5629501938819885,0.1491724997758865,1.0643389225006104
1631018883105,0.8000295162200928,0.5629501938819885,0.1140044555068016,1.0643389225006104
1631018883199,0.806978702545166,0.5629501938819885,0.1269138604402542,1.0643389225006104
1631018883277,0.8136637210845947,0.5629501938819885,0.160769984126091,1.0643389225006104
1631018883370,0.803780734539032,0.561367928981781,0.2004263997077942,1.0643389225006104
1631018883448,0.8154816031455994,0.555123507976532,0.2210994809865951,1.061976194381714
1631018883592,0.8154816031455994,0.5415260791778564,0.2210994809865951,1.050431489944458
1631018883686,0.8154816031455994,0.5344004034996033,0.2210994809865951,0.9613352417945862
1631018883795,0.8154816031455994,0.5257101058959961,0.2210994809865951,0.8210763335227966
1631018883889,0.8154816031455994,0.5106886625289917,0.2126740515232086,0.7425534129142761
1631018883983,0.8153756260871887,0.5106886625289917,0.2027664482593536,0.7425534129142761
1631018884092,0.8153756260871887,0.5106886625289917,0.1986915022134781,0.7425534129142761
1631018884201,0.8220716714859009,0.5106886625289917,0.2034016400575637,0.7425534129142761
1631018884342,0.8716825246810913,0.5106886625289917,0.2083532512187957,0.7425534129142761
1631018884404,1.0035150051116943,0.5106886625289917,0.2157863229513168,0.5561574101448059
1631018884483,1.136560559272766,0.5106886625289917,0.2575649619102478,0.6846122145652771
1631018884597,1.1811763048171997,0.5106886625289917,0.2958816587924957,0.7226854562759399
1631018884690,1.1880996227264404,0.5106886625289917,0.3263478875160217,0.7283709049224854
1631018884800,1.1868305206298828,0.5106886625289917,0.3598862588405609,0.7332963943481445
1631018884893,1.1868305206298828,0.5106886625289917,0.4045770466327667,0.7332963943481445
1631018884987,1.1868305206298828,0.5106886625289917,0.4327602684497833,0.7332963943481445
1631018885081,1.1868305206298828,0.5106886625289917,0.4659155309200287,0.7332963943481445
1631018885163,1.1868305206298828,0.5106886625289917,0.4724254310131073,0.7332963943481445
1631018885314,1.1868305206298828,0.5106886625289917,0.4755949079990387,0.7332963943481445
1631018885463,1.1868305206298828,0.5106886625289917,0.4776017665863037,0.7332963943481445
1631018885559,1.1868305206298828,0.5106886625289917,0.487481951713562,0.7332963943481445
1631018885624,1.1868305206298828,0.5106886625289917,0.5203495621681213,0.7311067581176758
1631018885715,1.1868305206298828,0.5106886625289917,0.5203495621681213,0.7311067581176758
1631018885833,1.1868305206298828,0.5106886625289917,0.5203495621681213,0.7311067581176758
1631018885912,1.1868305206298828,0.5106886625289917,0.5203495621681213,0.7311067581176758
1631018886024,1.1868305206298828,0.5106886625289917,0.5203495621681213,0.7311067581176758
1631018886134,1.1868305206298828,0.5106886625289917,0.5150318145751953,0.7311067581176758
1631018886229,1.1868305206298828,0.5106886625289917,0.4966765940189361,0.7311067581176758
1631018886337,1.1868305206298828,0.5106886625289917,0.4554264843463897,0.7311067581176758
1631018886405,1.1868305206298828,0.5106886625289917,0.4269993901252746,0.7311067581176758
1631018886499,1.1868305206298828,0.5106886625289917,0.4080998301506042,0.7311067581176758
1631018886624,1.1868305206298828,0.5106886625289917,0.3834968209266662,0.7311067581176758
1631018886718,1.1868305206298828,0.5106886625289917,0.3308834731578827,0.7311067581176758
1631018886842,1.1868305206298828,0.5106886625289917,0.3308834731578827,0.7311067581176758
1631018886936,1.1868305206298828,0.5106886625289917,0.3308834731578827,0.7311067581176758
1631018887030,1.1868305206298828,0.5106886625289917,0.3308834731578827,0.7311067581176758
1631018887139,1.1868305206298828,0.5106886625289917,0.3308834731578827,0.7311067581176758
1631018887249,1.1868305206298828,0.5106886625289917,0.3308834731578827,0.7311067581176758
1631018887329,1.1868305206298828,0.5106886625289917,0.3308834731578827,0.7311067581176758
1631018887452,1.1868305206298828,0.5106886625289917,0.3308834731578827,0.7311067581176758
1631018887564,1.1868305206298828,0.5106886625289917,0.3308834731578827,0.7311067581176758
1631018887633,1.1868305206298828,0.5106886625289917,0.3308834731578827,0.7311067581176758
1631018887720,1.1868305206298828,0.5106886625289917,0.3308834731578827,0.7311067581176758
1631018887876,1.1868305206298828,0.5106886625289917,0.3308834731578827,0.7311067581176758
1631018887985,1.1868305206298828,0.5106886625289917,0.3308834731578827,0.7311067581176758
1631018888095,1.1868305206298828,0.5106886625289917,0.3308834731578827,0.7311067581176758
1631018888126,1.1868305206298828,0.5106886625289917,0.3308834731578827,0.7311067581176758
1631018888282,1.1868305206298828,0.5106886625289917,0.3308834731578827,0.7311067581176758
1631018888345,1.1868305206298828,0.851090133190155,0.3308834731578827,0.7311067581176758
1631018888459,1.1868305206298828,0.851090133190155,0.3308834731578827,0.7311067581176758
1631018888568,1.1868305206298828,0.851090133190155,0.3308834731578827,0.7311067581176758
1631018888678,1.1868305206298828,0.851090133190155,0.3308834731578827,0.7311067581176758
1631018888756,1.1868305206298828,0.851090133190155,0.3308834731578827,0.7311067581176758
1631018888834,1.1868305206298828,0.851090133190155,0.3308834731578827,0.7311067581176758
1631018888959,1.1868305206298828,0.851090133190155,0.3308834731578827,0.7311067581176758
1631018889099,1.1868305206298828,0.851090133190155,0.3308834731578827,0.7311067581176758
1631018889177,1.1868305206298828,0.851090133190155,0.3308834731578827,0.7311067581176758
