timestamp,TP9,AF7,AF8,TP10
1629456577007,0.4944735467433929,0.2058112472295761,0.6106358766555786,0.4168904423713684
1629456577085,0.4716020822525024,0.2111549973487854,0.5875129103660583,0.383989155292511
1629456577191,0.4544840157032013,0.2132208347320556,0.5559629797935486,0.3256422281265259
1629456577254,0.4465450942516327,0.2085999697446823,0.5639961361885071,0.2571325302124023
1629456577359,0.4464126527309418,0.1976185888051986,0.6415920257568359,0.2063310891389846
1629456577495,0.4438340365886688,0.175191193819046,0.7449085116386414,0.1908214688301086
1629456577566,0.4290521442890167,0.1300731748342514,0.821924090385437,0.202768012881279
1629456577668,0.4035153687000274,0.0582659915089607,0.8597710132598877,0.2201511859893798
1629456577788,0.3838247060775757,-0.0241618622094392,0.8725674152374268,0.2229196578264236
1629456577872,0.3882870376110077,-0.0837917700409889,0.8815054297447205,0.198186993598938
1629456577932,0.4117659628391266,-0.1043683141469955,0.8958356380462646,0.1471484303474426
1629456578073,0.4311896562576294,-0.0989824011921882,0.9113202095031738,0.1471484303474426
1629456578187,0.4311896562576294,-0.0837687626481056,0.9230030179023744,0.1471484303474426
1629456578326,0.4311896562576294,-0.0696628913283348,0.928035855293274,0.1471484303474426
1629456578382,0.4311896562576294,-0.0645431503653526,0.9261892437934875,0.1471484303474426
1629456578469,0.4311896562576294,-0.0780581980943679,0.9177584052085876,0.1471484303474426
1629456578549,0.4311896562576294,-0.1127618849277496,0.9043651223182678,0.1471484303474426
1629456578709,0.4311896562576294,-0.1582651138305664,0.8850336670875549,0.1471484303474426
1629456578818,0.4311896562576294,-0.1954302042722702,0.8479575514793396,0.1471484303474426
1629456578896,0.4311896562576294,-0.2137492299079895,0.7737181186676025,0.1471484303474426
1629456578982,0.4311896562576294,-0.2125595808029174,0.6508882641792297,0.1471484303474426
1629456579097,0.4311896562576294,-0.1917109191417694,0.4922110438346863,0.1471484303474426
1629456579158,0.4311896562576294,-0.1576195061206817,0.3472769558429718,0.1471484303474426
1629456579313,0.4311896562576294,-0.1265101432800293,0.2728483974933624,0.1471484303474426
1629456579424,0.4311896562576294,-0.1127366051077842,0.2675583660602569,0.1471484303474426
1629456579503,0.4311896562576294,-0.1173654943704605,0.2927174270153045,0.1471484303474426
1629456579567,0.4311896562576294,-0.1341278403997421,0.3235572874546051,0.1471484303474426
1629456579695,0.4311896562576294,-0.1573585271835327,0.342857301235199,0.1471484303474426
1629456579819,0.4311896562576294,-0.1854344457387924,0.3508643507957458,0.1471484303474426
1629456579909,0.4311896562576294,-0.2139398455619812,0.357140451669693,0.1471484303474426
1629456579988,0.4311896562576294,-0.2322465479373932,0.3707108199596405,0.1471484303474426
1629456580140,0.4311896562576294,-0.2276297062635421,0.3936325013637543,0.1471484303474426
1629456580235,0.4311896562576294,-0.2028687447309494,0.4271309971809387,0.1471484303474426
1629456580322,0.4311896562576294,-0.1718027144670486,0.4748592376708984,0.1471484303474426
1629456580385,0.4311896562576294,-0.1509286314249038,0.5280424356460571,0.1471484303474426
1629456580543,0.4311896562576294,-0.1509274840354919,0.5711392164230347,0.1471484303474426
1629456580603,0.4311896562576294,-0.1758845597505569,0.5953481793403625,0.1471484303474426
1629456580855,0.4311896562576294,-0.2195213884115219,0.6023615598678589,0.1471484303474426
1629456580967,0.4311896562576294,-0.2632983326911926,0.5960386395454407,0.1471484303474426
1629456581059,0.4311896562576294,-0.2812424600124359,0.5729058384895325,0.1471484303474426
1629456581120,0.4311896562576294,-0.2692976891994476,0.528226375579834,0.1471484303474426
1629456581179,0.4311896562576294,-0.2434019148349762,0.4714751839637756,0.1471484303474426
1629456581267,0.4311896562576294,-0.2167214751243591,0.4268960952758789,0.1471484303474426
1629456581338,0.4311896562576294,-0.1879216432571411,0.4237150847911834,0.1471484303474426
1629456581438,0.4311896562576294,-0.1569714695215225,0.4737834632396698,0.1471484303474426
1629456581510,0.4311896562576294,-0.1323202401399612,0.5537238717079163,0.1471484303474426
1629456581623,0.4311896562576294,-0.1242763772606849,0.6259260177612305,0.1471484303474426
1629456581752,0.4311896562576294,-0.1343760937452316,0.6645199060440063,0.1471484303474426
1629456581864,0.4311896562576294,-0.15427927672863,0.6616723537445068,0.1471484303474426
1629456581923,0.4311896562576294,-0.1694878786802292,0.6294896006584167,0.1471484303474426
1629456582014,0.4311896562576294,-0.1742109060287475,0.5904793739318848,0.1471484303474426
1629456582085,0.4311896562576294,-0.1729035526514053,0.5631434321403503,0.1471484303474426
1629456582237,0.4311896562576294,-0.1733201593160629,0.5515565872192383,0.1471484303474426
1629456582368,0.4311896562576294,-0.1807693541049957,0.5479187369346619,0.1471484303474426
1629456582449,0.4311896562576294,-0.2002309560775756,0.5450829863548279,0.1471484303474426
1629456582518,0.4311896562576294,-0.2305778861045837,0.5424959063529968,0.1471484303474426
1629456582639,0.4311896562576294,-0.2608701586723327,0.5400584936141968,0.1471484303474426
1629456582732,0.4311896562576294,-0.2755432426929474,0.5355169177055359,0.1471484303474426
1629456582814,0.4311896562576294,-0.2696154117584228,0.5181559920310974,0.1471484303474426
1629456582992,0.4311896562576294,-0.2537417709827423,0.4725366234779358,0.1471484303474426
1629456583051,0.4311896562576294,-0.2407519072294235,0.4098056852817535,0.1471484303474426
1629456583265,0.4311896562576294,-0.2376052439212799,0.3903159201145172,0.1471484303474426
1629456583340,0.4311896562576294,-0.2420383691787719,0.4638984501361847,0.1471484303474426
1629456583387,0.4311896562576294,-0.2460645884275436,0.5889517068862915,0.1471484303474426
1629456583451,0.4311896562576294,-0.2403319329023361,0.7037308812141418,0.1471484303474426
1629456583571,0.4311896562576294,-0.2197317332029342,0.7847376465797424,0.1471484303474426
1629456583687,0.4311896562576294,-0.1925115436315536,0.8336883187294006,0.1471484303474426
1629456583799,0.4311896562576294,-0.1697196066379547,0.8575840592384338,0.1471484303474426
1629456583881,0.4311896562576294,-0.155766099691391,0.8652358055114746,0.1471484303474426
1629456583941,0.4311896562576294,-0.1450052708387375,0.8669301867485046,0.1471484303474426
1629456584048,0.4311896562576294,-0.1307295262813568,0.8694341778755188,0.1471484303474426
1629456584233,0.4311896562576294,-0.1087578013539314,0.876773476600647,0.1471484303474426
1629456584297,0.4311896562576294,-0.0851899534463882,0.8920965790748596,0.1471484303474426
1629456584378,0.4311896562576294,-0.0913343057036399,0.9188056588172911,0.1471484303474426
1629456584481,0.4311896562576294,-0.1097435876727104,0.9572644233703612,0.1471484303474426
1629456584548,0.4311896562576294,-0.1299933940172195,0.9989667534828186,0.1471484303474426
1629456584630,0.4311896562576294,-0.1383385211229324,0.9967678189277648,0.1471484303474426
1629456584822,0.4311896562576294,-0.1306201070547104,0.9748485684394836,0.1471484303474426
1629456584963,0.4311896562576294,-0.1164749786257743,0.9351431727409364,0.1471484303474426
1629456585068,0.4311896562576294,-0.112162135541439,0.8840369582176208,0.1471484303474426
1629456585125,0.4311896562576294,-0.1274369359016418,0.8336042165756226,0.1471484303474426
1629456585170,0.4311896562576294,-0.1358934640884399,0.7725985050201416,0.1471484303474426
1629456585265,0.4311896562576294,-0.1698821485042572,0.7367895245552063,0.1471484303474426
1629456585389,0.4311896562576294,-0.1962663829326629,0.727683424949646,0.1471484303474426
1629456585529,0.4311896562576294,-0.2128497511148452,0.7294198274612427,0.1471484303474426
1629456585603,0.4311896562576294,-0.2178073823451995,0.7296424508094788,0.1471484303474426
1629456585716,0.4311896562576294,-0.2137037366628646,0.7210509181022644,0.1471484303474426
1629456585771,0.4311896562576294,-0.2039426863193512,0.695087194442749,0.1471484303474426
1629456585848,0.4311896562576294,-0.1344906538724899,0.632965624332428,0.1471484303474426
1629456586030,0.4311896562576294,-0.0990725234150886,0.4928776919841766,0.1471484303474426
1629456586108,0.4311896562576294,-0.0886645093560218,0.1402449756860733,0.1471484303474426
1629456586180,0.4311896562576294,-0.0828342735767364,0.1436307281255722,0.1471484303474426
1629456586296,0.4311896562576294,-0.0635808184742927,0.1550737470388412,0.1471484303474426
1629456586451,0.4311896562576294,-0.0141433039680123,0.1550737470388412,0.1471484303474426
1629456586517,0.4311896562576294,0.0698263123631477,0.1550737470388412,0.1471484303474426
1629456586622,0.4311896562576294,0.1724510639905929,0.1550737470388412,0.1471484303474426
1629456586710,0.4311896562576294,0.2862920463085174,0.1271847039461136,0.1471484303474426
1629456586841,0.4311896562576294,0.3919428288936615,0.1198058947920799,0.1471484303474426
1629456586914,0.4311896562576294,0.4761088490486145,0.1238211467862129,0.1471484303474426
1629456586962,0.4311896562576294,0.5392298102378845,0.1387119889259338,0.1471484303474426
1629456587100,0.4311896562576294,0.5848763585090637,0.3546516895294189,0.1471484303474426
1629456587214,0.4311896562576294,0.614437460899353,0.4938749074935913,0.1471484303474426
1629456587317,0.4311896562576294,0.6299116015434265,0.5858489274978638,0.1471484303474426
1629456587396,0.4311896562576294,0.6345332860946655,0.6328157186508179,0.1471484303474426
1629456587519,0.4311896562576294,0.6338871121406555,0.6461766362190247,0.1471484303474426
1629456587620,0.4311896562576294,0.6324573159217834,0.6416674852371216,0.1471484303474426
1629456587702,0.4311896562576294,0.631475031375885,0.6328703165054321,0.1471484303474426
1629456587855,0.4311896562576294,0.6307061910629272,0.629431962966919,0.1471484303474426
1629456587946,0.4311896562576294,0.627702534198761,0.629431962966919,0.1471484303474426
1629456588049,0.4311896562576294,0.6161599159240723,0.629431962966919,0.1471484303474426
1629456588117,0.4311896562576294,0.5888547897338867,0.629431962966919,0.1471484303474426
1629456588205,0.4311896562576294,0.5580275058746338,0.629431962966919,0.1471484303474426
1629456588314,0.4311896562576294,0.5113186836242676,0.629431962966919,0.1471484303474426
1629456588462,0.4311896562576294,0.4530858397483825,0.629431962966919,0.1471484303474426
1629456588520,0.4311896562576294,0.3872271180152893,0.629431962966919,0.1471484303474426
1629456588657,0.4311896562576294,0.3149785101413727,0.5717287063598633,0.1471484303474426
1629456588724,0.4311896562576294,0.242338478565216,0.4828119874000549,0.1471484303474426
1629456588873,0.4311896562576294,0.1820079088211059,0.3449764549732208,0.1471484303474426
1629456588966,0.4311896562576294,0.1543577760457992,0.1820778101682663,0.1471484303474426
1629456589048,0.4311896562576294,0.165780559182167,0.1820778101682663,0.1471484303474426
1629456589134,0.4311896562576294,0.2047678530216217,0.1820778101682663,0.1471484303474426
1629456589247,0.4311896562576294,0.2565240561962127,0.1820778101682663,0.1471484303474426
1629456589330,0.4311896562576294,0.4061335027217865,0.1820778101682663,0.1471484303474426
1629456589460,0.4311896562576294,0.4673725068569183,0.1820778101682663,0.1471484303474426
1629456589564,0.4311896562576294,0.4665829241275787,0.1820778101682663,0.1471484303474426
1629456589656,0.4311896562576294,0.4257121086120605,0.1820778101682663,0.1471484303474426
1629456589744,0.4311896562576294,0.3469758331775665,0.1820778101682663,0.1471484303474426
1629456589847,1.15554940700531,0.2784011960029602,0.1820778101682663,0.1471484303474426
1629456589939,1.15554940700531,0.222450852394104,0.1820778101682663,0.1471484303474426
1629456590024,1.15554940700531,0.1801201403141021,0.1820778101682663,0.1471484303474426
1629456590213,1.15554940700531,0.152415931224823,0.1820778101682663,0.1471484303474426
1629456590292,1.15554940700531,0.1389333605766296,0.1820778101682663,0.1471484303474426
1629456590406,1.15554940700531,0.1323763877153396,0.1723409742116928,0.1471484303474426
1629456590472,1.15554940700531,0.1241638958454132,0.2431742399930954,1.294012188911438
1629456590551,1.15554940700531,0.1118344962596893,0.2871294021606445,1.294012188911438
1629456590748,1.15554940700531,0.1040223389863967,0.3210959732532501,1.294012188911438
1629456590831,1.15554940700531,0.1256497651338577,0.3488203585147857,1.294012188911438
1629456590907,1.15554940700531,0.1409735828638076,0.368722528219223,1.294012188911438
1629456590967,1.15554940700531,0.2192572802305221,0.3802401721477508,1.294012188911438
1629456591052,1.15554940700531,0.3121705055236816,0.3847193717956543,1.294012188911438
1629456591159,1.15554940700531,0.3818697035312652,0.3812954723834991,1.294012188911438
1629456591268,1.15554940700531,0.4190182387828827,0.3693620264530182,1.294012188911438
1629456591373,1.15554940700531,0.4341123402118683,0.3510288000106811,1.294012188911438
1629456591484,1.15554940700531,0.4392811059951782,0.3297303318977356,1.294012188911438
1629456591627,1.15554940700531,0.4394845962524414,0.3305363655090332,1.294012188911438
1629456591730,1.15554940700531,0.4361622333526611,0.3221723735332489,1.294012188911438
1629456591813,1.15554940700531,0.4287798106670379,0.300620824098587,1.294012188911438
1629456591880,1.15554940700531,0.4187442362308502,0.2680809497833252,1.294012188911438
1629456591958,1.15554940700531,0.408966600894928,0.2314584702253341,1.294012188911438
1629456592093,1.15554940700531,0.4009526371955871,0.1999263614416122,1.294012188911438
1629456592234,1.15554940700531,0.3914386928081512,0.1918700486421585,1.294012188911438
1629456592281,1.15554940700531,0.3666517734527588,0.2301600873470306,1.294012188911438
1629456592439,1.15554940700531,0.3054516017436981,0.3027580082416534,1.294012188911438
1629456592538,1.15554940700531,0.1913400739431381,0.3709711134433746,1.294012188911438
1629456592602,1.15554940700531,0.0237123593688011,0.4114591181278229,1.294012188911438
1629456592704,1.15554940700531,-0.165299966931343,0.4253111779689789,1.294012188911438
1629456592824,1.15554940700531,-0.3052147030830383,0.4278476536273956,1.294012188911438
1629456592906,1.15554940700531,-0.3589172959327698,0.4332822859287262,1.294012188911438
1629456593002,1.15554940700531,-0.3609900176525116,0.4448223412036896,1.294012188911438
1629456593072,1.15554940700531,-0.3449506759643554,0.4593861401081085,1.294012188911438
1629456593181,1.15554940700531,-0.3284270763397217,0.4733891487121582,1.294012188911438
1629456593314,1.15554940700531,-0.3127439618110657,0.4845351874828338,1.294012188911438
1629456593411,1.15554940700531,-0.2955634593963623,0.4918014109134674,1.294012188911438
1629456593503,1.15554940700531,-0.2778224050998688,0.4939959049224853,1.294012188911438
1629456593630,1.15554940700531,-0.2590018212795257,0.4893758893013,1.294012188911438
1629456593685,1.15554940700531,-0.23095703125,0.4769557416439056,1.294012188911438
1629456593845,1.15554940700531,-0.1738064885139465,0.4625168442726135,1.294012188911438
1629456593912,1.15554940700531,-0.0871304050087928,0.4635878205299377,1.294012188911438
1629456594043,1.15554940700531,0.0004219062975607,0.4948464334011078,1.294012188911438
1629456594149,1.15554940700531,0.0635017901659011,0.5475790500640869,1.294012188911438
1629456594224,1.15554940700531,0.0954760760068893,0.5991287231445312,1.294012188911438
1629456594283,1.15554940700531,0.1040783897042274,0.6360443830490112,1.294012188911438
1629456594397,1.15554940700531,0.1014524847269058,0.6584165096282959,1.294012188911438
1629456594551,1.15554940700531,0.0942309126257896,0.6800939440727234,1.294012188911438
1629456594631,1.15554940700531,0.0861382484436035,0.7176517248153687,1.294012188911438
1629456594736,1.15554940700531,0.0808186680078506,0.7710907459259033,1.294012188911438
1629456594820,1.15554940700531,0.0795354694128036,0.8225169777870178,1.294012188911438
1629456594931,1.15554940700531,0.0831114873290062,0.8566315174102783,1.294012188911438
1629456595010,1.15554940700531,0.0947620645165443,0.8725427389144897,1.294012188911438
1629456595149,1.15554940700531,0.124499887228012,0.883296549320221,1.294012188911438
1629456595289,1.15554940700531,0.1813815683126449,0.9045079946517944,1.294012188911438
1629456595361,1.15554940700531,0.2530339062213897,0.9362040758132936,1.294012188911438
1629456595418,1.15554940700531,0.313281774520874,0.964730441570282,1.294012188911438
1629456595502,1.15554940700531,0.3487829566001892,0.9764952063560486,1.294012188911438
1629456595684,1.15554940700531,0.3623785376548767,0.9717894792556764,1.294012188911438
1629456595772,1.15554940700531,0.3696843981742859,0.9693013429641724,1.294012188911438
1629456595846,1.15554940700531,0.3833255171775818,0.9772524237632751,1.294012188911438
1629456595935,1.15554940700531,0.4026163220405578,0.9943318963050842,1.294012188911438
1629456596028,1.15554940700531,0.4209438860416412,1.0125272274017334,1.294012188911438
1629456596144,1.15554940700531,0.4339231550693512,1.0205588340759275,1.294012188911438
1629456596260,1.15554940700531,0.4404706656932831,1.0131815671920776,1.294012188911438
1629456596345,1.15554940700531,0.4417607486248016,1.0004156827926636,1.294012188911438
1629456596505,1.15554940700531,0.4385171234607696,1.004468560218811,1.294012188911438
1629456596573,1.15554940700531,0.4315578639507293,1.0407932996749878,1.294012188911438
1629456596665,1.15554940700531,0.4193732142448425,1.0970531702041626,1.294012188911438
1629456596790,1.15554940700531,0.3982942402362823,1.1421048641204834,1.294012188911438
1629456596888,1.15554940700531,0.3638066351413727,1.1421048641204834,1.294012188911438
1629456596973,1.15554940700531,0.3191299438476562,1.1421048641204834,1.294012188911438
1629456597076,1.15554940700531,0.2750979959964752,1.1421048641204834,1.294012188911438
1629456597171,1.15554940700531,0.2561717331409454,1.1421048641204834,1.294012188911438
1629456597247,1.15554940700531,0.2710175812244415,1.1421048641204834,1.294012188911438
1629456597331,1.15554940700531,0.3010373413562774,1.1421048641204834,1.294012188911438
1629456597459,1.15554940700531,0.3299054503440857,1.1421048641204834,1.294012188911438
1629456597595,1.15554940700531,0.33088019490242,1.1421048641204834,1.294012188911438
1629456597668,1.15554940700531,0.3400259613990783,1.1421048641204834,1.294012188911438
1629456597781,1.15554940700531,0.3589829206466675,1.1421048641204834,1.294012188911438
1629456597857,1.15554940700531,0.3867652714252472,1.1421048641204834,1.294012188911438
1629456597916,1.15554940700531,0.4221985638141632,1.1421048641204834,1.294012188911438
1629456598047,1.15554940700531,0.4624722599983215,1.1421048641204834,1.294012188911438
1629456598218,1.15554940700531,0.5019035935401917,1.1421048641204834,1.294012188911438
1629456598274,1.15554940700531,0.5310442447662354,1.1421048641204834,1.294012188911438
1629456598371,1.15554940700531,0.5465819239616394,1.1421048641204834,1.294012188911438
1629456598446,1.15554940700531,0.5569764375686646,1.1421048641204834,1.294012188911438
1629456598588,1.15554940700531,0.581453263759613,1.1421048641204834,1.294012188911438
1629456598700,1.15554940700531,0.6476889848709106,1.1421048641204834,1.294012188911438
1629456598803,1.15554940700531,0.7061795592308044,1.1421048641204834,1.294012188911438
1629456598906,1.15554940700531,0.7248868346214294,1.1421048641204834,1.294012188911438
1629456598995,1.15554940700531,0.7068371176719666,1.1421048641204834,1.294012188911438
1629456599083,1.15554940700531,0.6766030788421631,1.1421048641204834,1.294012188911438
1629456599184,1.15554940700531,0.6841830015182495,1.1421048641204834,1.294012188911438
1629456599255,1.15554940700531,0.7129008173942566,1.1421048641204834,1.294012188911438
1629456599456,1.15554940700531,0.7312486171722412,1.1421048641204834,1.294012188911438
1629456599569,1.15554940700531,0.7241013646125793,1.1421048641204834,1.294012188911438
1629456599736,1.15554940700531,0.6958852410316467,1.1421048641204834,1.294012188911438
1629456599810,1.15554940700531,0.6600462198257446,1.1421048641204834,1.294012188911438
1629456599860,1.15554940700531,0.6259646415710449,0.862116813659668,1.294012188911438
1629456599917,1.15554940700531,0.5964197516441345,0.8301218748092651,1.294012188911438
1629456600003,1.15554940700531,0.5719257593154907,0.817168653011322,1.294012188911438
1629456600111,1.15554940700531,0.5519278645515442,0.8080998063087463,1.294012188911438
1629456600238,1.15554940700531,0.5180460214614868,0.7710596323013306,1.294012188911438
1629456600331,1.15554940700531,0.4723119139671325,0.6842636466026306,1.294012188911438
1629456600439,1.15554940700531,0.4297152161598205,0.6389021873474121,1.294012188911438
1629456600486,1.15554940700531,0.4001838862895965,0.5924780368804932,1.294012188911438
1629456600668,1.15554940700531,0.3678189516067505,0.5607251524925232,1.294012188911438
1629456600774,1.15554940700531,0.3058710098266601,0.5663720369338989,1.294012188911438
1629456600909,1.15554940700531,0.2033698856830597,0.5663720369338989,1.294012188911438
1629456600984,1.15554940700531,0.0813669338822364,0.5663720369338989,1.294012188911438
1629456601054,1.15554940700531,-0.0043328795582056,0.5663720369338989,1.294012188911438
1629456601108,1.15554940700531,-0.0207211729139089,0.5663720369338989,1.294012188911438
1629456601248,1.15554940700531,-0.0034943025093525,0.5330682992935181,1.294012188911438
1629456601365,1.15554940700531,0.0105298580601811,0.5152851343154907,1.294012188911438
1629456601419,1.15554940700531,0.0121699385344982,0.4911058843135834,1.294012188911438
1629456601519,1.15554940700531,0.0015029514906927,0.4385429322719574,1.294012188911438
1629456601630,1.15554940700531,-0.0205701775848865,0.3554054498672485,1.294012188911438
1629456601702,1.15554940700531,-0.0504238680005073,0.3192188143730163,1.294012188911438
1629456601880,1.15554940700531,-0.0810792744159698,0.3617514669895172,1.294012188911438
1629456601968,1.15554940700531,-0.1048537343740463,0.4298009574413299,1.294012188911438
1629456602036,1.15554940700531,-0.1187363639473915,0.480867326259613,1.294012188911438
1629456602117,1.15554940700531,-0.1222522556781768,0.5041589736938477,1.294012188911438
1629456602246,1.15554940700531,-0.1187235563993454,0.4889927208423614,1.294012188911438
1629456602337,1.15554940700531,-0.1146822944283485,0.5398261547088623,1.294012188911438
1629456602478,1.15554940700531,-0.1185496002435684,0.5949609279632568,1.294012188911438
1629456602554,1.15554940700531,-0.1337903290987014,0.6376752853393555,1.294012188911438
1629456602654,1.15554940700531,-0.1543285995721817,0.6796156764030457,1.294012188911438
1629456602737,1.15554940700531,-0.1645791828632354,0.7408027648925781,1.294012188911438
1629456602838,1.15554940700531,-0.1516377329826355,0.8132768273353577,1.294012188911438
1629456602949,1.15554940700531,-0.1187713742256164,0.8704074621200562,1.294012188911438
1629456603052,1.15554940700531,-0.080941341817379,0.8977434039115906,1.294012188911438
1629456603168,1.15554940700531,-0.0479989498853683,0.8977546095848083,1.294012188911438
1629456603241,1.15554940700531,-0.0215052105486392,0.8982780575752258,1.294012188911438
1629456603341,1.15554940700531,-0.0025469036772847,0.8902453184127808,1.294012188911438
1629456603456,1.15554940700531,0.0093670319765806,0.8810478448867798,1.294012188911438
1629456603558,1.15554940700531,0.0171377658843994,0.8741881251335144,1.294012188911438
1629456603682,1.15554940700531,0.0220168679952621,0.8678804039955139,1.294012188911438
1629456603764,1.15554940700531,0.0233186762779951,0.8563693165779114,1.294012188911438
1629456603865,1.15554940700531,0.0194246228784322,0.8355987071990967,1.294012188911438
1629456603949,1.15554940700531,0.0117118703201413,0.8074559569358826,1.294012188911438
1629456604056,1.15554940700531,0.0026732867117971,0.775160014629364,1.294012188911438
1629456604131,0.8983191847801208,-0.0056744567118585,0.7333130240440369,1.294012188911438
1629456604271,0.9640159010887146,-0.0102242538705468,0.661521315574646,1.1711527109146118
1629456604373,1.0431668758392334,-0.0085816131904721,0.5364916324615479,1.2089225053787231
1629456604490,1.106429100036621,-0.0002967753098346,0.349371463060379,1.2325981855392456
1629456604614,1.1424460411071775,0.0118919136002659,0.120213359594345,1.2412376403808594
1629456604685,1.152371883392334,0.0217144321650266,-0.0840012431144714,1.236164927482605
1629456604794,1.152371883392334,0.0261572115123271,-0.2025772035121917,1.2197344303131104
1629456604898,1.152371883392334,0.0274291913956403,-0.2583241462707519,1.2197344303131104
1629456604984,1.152371883392334,0.0298300590366125,-0.2632074058055877,1.2197344303131104
1629456605048,1.152371883392334,0.041997492313385,-0.1522508114576339,1.2197344303131104
1629456605164,1.152371883392334,0.0879795029759407,0.1324238628149032,1.2197344303131104
1629456605285,1.152371883392334,0.1845514327287674,0.4525977671146393,1.2197344303131104
1629456605389,1.1754276752471924,0.3070319890975952,0.4750359058380127,1.2197344303131104
1629456605538,1.2049639225006104,0.4141992330551147,0.4991083443164825,1.238755464553833
1629456605602,1.2437236309051514,0.4859558641910553,0.526447057723999,1.2526123523712158
1629456605710,1.2840884923934937,0.5230958461761475,0.5584537982940674,1.2601436376571655
1629456605789,1.3106955289840698,0.5361699461936951,0.595758318901062,1.255030870437622
1629456605916,1.3106955289840698,0.5379675030708313,0.6382848620414734,1.2328814268112185
1629456605987,1.3106955289840698,0.5449445247650146,0.6856958866119385,1.2328814268112185
1629456606117,1.3106955289840698,0.5580061078071594,0.7389588356018066,1.2328814268112185
1629456606206,1.3106955289840698,0.5744550228118896,0.8003976345062256,1.2328814268112185
1629456606288,1.3106955289840698,0.5965827107429504,0.8738100528717041,1.2328814268112185
1629456606419,1.3106955289840698,0.6245824694633484,0.9650203585624696,1.2328814268112185
1629456606482,1.3106955289840698,0.6571183204650879,0.9650203585624696,1.2328814268112185
1629456606580,1.3106955289840698,0.6908221244812012,0.9650203585624696,1.2328814268112185
1629456606724,1.3106955289840698,0.7156009674072266,0.9650203585624696,1.2328814268112185
1629456606828,1.3106955289840698,0.7141841053962708,0.9650203585624696,1.2328814268112185
1629456606899,1.3106955289840698,0.6696282625198364,0.9650203585624696,1.2328814268112185
1629456607018,1.3106955289840698,0.5130295753479004,0.9650203585624696,1.2328814268112185
1629456607132,1.3106955289840698,0.3254092335700989,0.9650203585624696,1.2328814268112185
1629456607215,1.3106955289840698,0.1616843193769455,0.9650203585624696,1.2328814268112185
1629456607330,1.3106955289840698,0.071141205728054,-0.0813437402248382,1.2328814268112185
1629456607402,1.3106955289840698,0.0296829808503389,-0.113236591219902,1.2328814268112185
1629456607559,1.3106955289840698,-0.0762601047754287,-0.0574206002056598,1.2328814268112185
1629456607670,1.3106955289840698,-0.016275156289339,0.0892411693930625,1.2328814268112185
1629456607773,1.3106955289840698,0.0407792553305625,0.2426157742738723,1.2328814268112185
1629456607834,1.3106955289840698,0.0808174684643745,0.3476835489273071,1.2328814268112185
1629456607979,1.3106955289840698,0.1084373518824577,0.3960990607738495,1.2328814268112185
1629456608037,1.3106955289840698,0.1366755068302154,0.4003098309040069,1.2328814268112185
1629456608131,1.3106955289840698,0.1728210747241974,0.3809827864170074,1.2328814268112185
1629456608313,1.3106955289840698,0.2090580761432647,0.3547582924365997,1.2328814268112185
1629456608382,1.3106955289840698,0.2328513115644455,0.3287227749824524,1.2328814268112185
1629456608432,1.3106955289840698,0.2378094792366027,0.3045015931129455,1.2328814268112185
1629456608543,1.3106955289840698,0.2447535395622253,0.2968840897083282,1.2328814268112185
1629456608637,1.3106955289840698,0.2433814704418182,0.2906254231929779,1.2328814268112185
1629456608784,1.3106955289840698,0.2416142672300338,0.2890825271606445,1.2328814268112185
1629456608917,1.3106955289840698,0.241826519370079,0.2969856262207031,1.2328814268112185
1629456608994,1.3106955289840698,0.2445859611034393,0.3201029002666473,1.2328814268112185
1629456609062,1.3106955289840698,0.2513488233089447,0.3587345778942108,1.2328814268112185
1629456609161,1.3106955289840698,0.2635890543460846,0.4002425670623779,1.2328814268112185
1629456609254,1.3106955289840698,0.2838561236858368,0.4346557855606079,1.2328814268112185
1629456609352,1.3106955289840698,0.3129163086414337,0.4638709127902984,1.2328814268112185
1629456609454,1.3106955289840698,0.3418360948562622,0.4931527972221374,1.2328814268112185
1629456609567,1.3106955289840698,0.357130616903305,0.5222909450531006,1.2328814268112185
1629456609614,1.3106955289840698,0.350281298160553,0.5439006090164185,1.2328814268112185
1629456609782,1.3106955289840698,0.3258101642131805,0.5573992729187012,1.2328814268112185
1629456609910,1.3106955289840698,0.3027413189411163,0.5710102319717407,1.2328814268112185
1629456609971,1.3106955289840698,0.3111626207828522,0.6018867492675781,1.2328814268112185
1629456610063,1.3106955289840698,0.3652508854866028,0.6607847809791565,1.2328814268112185
1629456610140,1.3106955289840698,0.3864323794841766,0.6872112154960632,1.2328814268112185
1629456610251,1.3106955289840698,0.4105691611766815,0.7147468328475952,1.2328814268112185
1629456610363,1.3106955289840698,0.4358664155006408,0.7425248622894287,1.2328814268112185
1629456610484,1.3106955289840698,0.4598717391490936,0.7659313082695007,1.2328814268112185
1629456610582,1.3106955289840698,0.478102296590805,0.7770507335662842,1.2328814268112185
1629456610653,1.3106955289840698,0.4865753054618835,0.770622193813324,1.2328814268112185
1629456610752,1.3106955289840698,0.4813414216041565,0.7459871768951416,1.2328814268112185
1629456610888,1.3106955289840698,0.4599429368972778,0.6909319162368774,1.2328814268112185
1629456610998,1.3106955289840698,0.4277853965759277,0.651404619216919,1.2328814268112185
1629456611123,1.3106955289840698,0.4032436907291412,0.6262158155441284,1.2328814268112185
1629456611200,1.3106955289840698,0.4310869872570038,0.6359779238700867,1.2328814268112185
1629456611287,1.3106955289840698,0.470894992351532,0.6856303215026855,1.2328814268112185
1629456611415,1.3106955289840698,0.4967671632766723,0.6856303215026855,1.2328814268112185
1629456611531,1.3106955289840698,0.4898035228252411,0.6856303215026855,1.2328814268112185
1629456611653,1.3106955289840698,0.4147368669509887,0.6856303215026855,1.2328814268112185
1629456611720,1.3106955289840698,0.4153541922569275,0.6856303215026855,1.2328814268112185
1629456611834,1.3106955289840698,0.3979783654212951,0.6856303215026855,1.2328814268112185
1629456611930,1.3106955289840698,0.367382138967514,0.6856303215026855,1.2328814268112185
1629456612040,1.3106955289840698,0.3312424421310425,0.6856303215026855,1.2328814268112185
1629456612105,1.3106955289840698,0.2954084873199463,0.6856303215026855,1.2328814268112185
1629456612218,1.3106955289840698,0.2651455104351043,0.6856303215026855,1.2328814268112185
1629456612311,1.3106955289840698,0.2465548515319824,0.583083987236023,1.2328814268112185
1629456612373,1.3106955289840698,0.2398349344730377,0.7632606625556946,1.2328814268112185
1629456612520,1.3106955289840698,0.2379616200923919,0.8699592351913452,1.2328814268112185
1629456612634,1.3106955289840698,0.2330834567546844,0.9261892437934875,1.2328814268112185
1629456612682,1.3106955289840698,0.1964642703533172,0.944972038269043,1.2328814268112185
1629456612839,1.3106955289840698,0.1589470505714416,0.9388214945793152,1.2328814268112185
1629456612918,1.3106955289840698,0.1243735179305076,0.9167384505271912,1.2328814268112185
1629456613016,1.3106955289840698,0.0811076760292053,0.8860477209091187,1.2328814268112185
1629456613168,1.3106955289840698,0.0221330225467681,0.8527085185050964,1.2328814268112185
1629456613234,1.3106955289840698,-0.0390416868031024,0.820318877696991,1.2328814268112185
1629456613287,1.3106955289840698,-0.0808066204190254,0.7905983924865723,1.2328814268112185
1629456613470,1.3106955289840698,-0.0970062986016273,0.7643966674804688,1.2328814268112185
1629456613543,1.3106955289840698,-0.0917935743927955,0.7429475784301758,1.2328814268112185
1629456613776,1.3106955289840698,-0.033438179641962,0.7505749464035034,1.2328814268112185
1629456613841,1.3106955289840698,-0.0116018801927566,0.7316235899925232,1.2328814268112185
1629456613907,1.3106955289840698,-0.0174605604261159,0.6855407953262329,1.2328814268112185
1629456614014,1.3106955289840698,-0.0445897653698921,0.6108001470565796,1.2328814268112185
1629456614139,1.3106955289840698,-0.0654884353280067,0.5159539580345154,1.2328814268112185
1629456614249,1.3106955289840698,-0.0418877713382244,0.43186816573143,1.2328814268112185
1629456614317,1.3106955289840698,-0.0340110249817371,0.3687946796417236,1.2328814268112185
1629456614436,1.3106955289840698,-0.0190591588616371,0.3319387137889862,1.2328814268112185
1629456614529,1.3106955289840698,-0.0002944392617791,0.3238537311553955,1.2328814268112185
1629456614618,1.3106955289840698,0.0202283430844545,0.3361919820308685,1.2328814268112185
1629456614881,1.3106955289840698,0.0405069552361965,0.3593622744083404,1.2328814268112185
1629456614948,1.3106955289840698,0.0605638064444065,0.3871650099754333,1.2328814268112185
1629456615001,1.3106955289840698,0.082030601799488,0.4157076179981231,1.2328814268112185
1629456615049,1.3106955289840698,0.1024662181735038,0.4387460350990295,1.2328814268112185
1629456615120,1.3106955289840698,0.109114795923233,0.4458246529102325,1.2328814268112185
1629456615254,1.3106955289840698,0.0904663279652595,0.4276248514652252,1.2328814268112185
1629456615339,1.3106955289840698,0.0678396746516227,0.3816356360912323,1.2328814268112185
1629456615434,1.3106955289840698,0.0424550399184227,0.3216278851032257,1.2328814268112185
1629456615546,1.3106955289840698,0.0338520631194114,0.2723528742790222,1.2328814268112185
1629456615612,1.3106955289840698,0.008167234249413,0.2591227889060974,1.2328814268112185
1629456615715,1.3106955289840698,-0.1241499632596969,0.185777336359024,1.2328814268112185
1629456615892,1.3106955289840698,-0.1599703133106231,0.1616620272397995,1.2328814268112185
1629456615982,1.3106955289840698,-0.1908086687326431,0.1340672522783279,1.2328814268112185
1629456616075,1.3106955289840698,-0.2225390076637268,0.1034315675497055,1.2328814268112185
1629456616147,1.3106955289840698,-0.2486976981163025,0.0869097486138343,1.2328814268112185
1629456616259,1.3106955289840698,-0.2477630674839019,0.1183166801929473,1.2328814268112185
1629456616322,1.3106955289840698,-0.211338073015213,0.1950387209653854,1.2328814268112185
1629456616495,1.3106955289840698,-0.1612612307071685,0.2750658392906189,1.2328814268112185
1629456616613,1.3106955289840698,-0.1251799911260604,0.3275851309299469,1.2328814268112185
1629456616667,1.3106955289840698,-0.1134335398674011,0.3502600193023681,1.2328814268112185
1629456616734,1.3106955289840698,-0.1195479780435562,0.3544204235076904,1.2328814268112185
1629456616873,1.3106955289840698,-0.1537111103534698,0.3508184850215912,1.2328814268112185
1629456616958,1.3106955289840698,-0.1701478213071823,0.3455928564071655,1.2328814268112185
1629456617055,1.3106955289840698,-0.1728302538394928,0.3478994965553283,1.2328814268112185
1629456617165,1.3106955289840698,-0.1648469567298889,0.3579959869384765,1.2328814268112185
1629456617257,1.3106955289840698,-0.1489143669605255,0.3809835612773895,1.2328814268112185
1629456617363,1.3106955289840698,-0.1261310875415802,0.4198367595672607,1.2328814268112185
1629456617472,1.3106955289840698,-0.0846916884183883,0.4820300042629242,1.2328814268112185
1629456617588,1.3106955289840698,-0.0191685613244771,0.5610781311988831,1.2328814268112185
1629456617699,0.6018524169921875,0.0504455789923667,0.6351040005683899,1.2328814268112185
1629456617798,0.6646457314491272,0.096894271671772,0.6861023902893066,0.7886783480644226
1629456617887,0.6646457314491272,0.1075671911239624,0.7137594223022461,0.7886783480644226
1629456617955,0.6646457314491272,0.0890815407037735,0.7293493151664734,0.7886783480644226
1629456618069,0.6646457314491272,0.0618262477219104,0.7467413544654846,0.7886783480644226
1629456618169,0.6646457314491272,0.0438991077244281,0.7671442627906799,0.7886783480644226
1629456618307,0.6646457314491272,0.0406418442726135,0.7864795327186584,0.7886783480644226
1629456618373,0.6646457314491272,0.0583762899041175,0.8069601655006409,0.7886783480644226
1629456618495,0.6646457314491272,0.0769674703478813,0.8309538960456848,0.7886783480644226
1629456618586,0.6646457314491272,0.094917356967926,0.8574954271316528,0.7886783480644226
1629456618681,0.6646457314491272,0.112449936568737,0.8845463991165161,0.7886783480644226
1629456618750,0.6646457314491272,0.1290266215801239,0.9095875024795532,0.7886783480644226
1629456618903,0.6798661351203918,0.1423750817775726,0.9306161403656006,0.7886783480644226
1629456619024,0.6798661351203918,0.1386358141899109,0.9402912855148317,0.7886783480644226
1629456619113,0.6798661351203918,0.0952836871147155,0.9325159192085266,0.7886783480644226
1629456619212,0.6798661351203918,-0.004497408401221,0.9110647439956664,0.7886783480644226
1629456619352,0.6798661351203918,-0.1598640531301498,0.8895977139472961,0.7886783480644226
1629456619482,0.6798661351203918,-0.3268564939498901,0.8770594000816345,0.7886783480644226
1629456619567,0.6798661351203918,0.4128767549991607,0.8770594000816345,0.7886783480644226
1629456619649,0.6798661351203918,0.771748423576355,0.8770594000816345,0.7886783480644226
1629456619721,0.6798661351203918,0.9683129787445068,0.8770594000816345,0.7886783480644226
1629456619846,0.6798661351203918,1.0644006729125977,0.8770594000816345,0.7886783480644226
1629456619934,0.6798661351203918,1.0067462921142578,0.8770594000816345,0.7886783480644226
1629456619994,0.6798661351203918,0.9387545585632324,0.8770594000816345,0.7886783480644226
1629456620134,0.6798661351203918,0.8764260411262512,0.8770594000816345,0.7886783480644226
1629456620223,0.6798661351203918,0.8241741061210632,0.8770594000816345,0.7886783480644226
1629456620383,0.6798661351203918,0.7831181883811951,0.8523664474487305,0.7886783480644226
1629456620445,0.6798661351203918,0.7522395253181458,0.8744667768478394,0.7886783480644226
1629456620541,0.6798661351203918,0.7275815010070801,0.9099341630935668,0.7886783480644226
1629456620652,0.6798661351203918,0.7081102728843689,0.947517991065979,0.7886783480644226
1629456620810,0.6798661351203918,0.7016755938529968,1.0063821077346802,0.7886783480644226
1629456620878,0.6798661351203918,0.7143347859382629,1.0857986211776731,0.7886783480644226
1629456620946,0.6798661351203918,0.7361643314361572,1.1549615859985352,0.7886783480644226
1629456621053,0.6798661351203918,0.7143625020980835,1.191053867340088,0.7886783480644226
1629456621173,0.6798661351203918,0.6560251712799072,1.1930867433547974,0.7886783480644226
1629456621242,0.6798661351203918,0.5740843415260315,1.1930867433547974,0.7886783480644226
1629456621344,0.6798661351203918,0.506534993648529,1.1930867433547974,0.7886783480644226
1629456621474,0.6798661351203918,0.4902893304824829,1.1930867433547974,0.7886783480644226
1629456621594,0.6798661351203918,0.5170220136642456,1.180959939956665,0.7886783480644226
1629456621661,0.6798661351203918,0.5599225759506226,1.2042832374572754,0.7886783480644226
1629456621746,0.6798661351203918,0.6092876195907593,1.232773780822754,0.7886783480644226
1629456621829,0.6798661351203918,0.631678581237793,1.266513109207153,0.7886783480644226
1629456622038,0.6798661351203918,0.6457187533378601,1.3008487224578855,0.7886783480644226
1629456622085,0.6798661351203918,0.6548821926116943,1.3176571130752563,0.7886783480644226
1629456622187,0.6798661351203918,0.6582326292991638,1.333077311515808,0.7886783480644226
1629456622256,0.6798661351203918,0.6520372033119202,1.3383772373199463,0.7886783480644226
1629456622317,0.6798661351203918,0.6311809420585632,1.321418046951294,0.7886783480644226
1629456622440,0.6798661351203918,0.5971180200576782,1.2835330963134766,0.7886783480644226
1629456622552,0.6798661351203918,0.6192625761032104,1.249462366104126,0.7886783480644226
1629456622666,0.6798661351203918,0.6208007335662842,1.2559198141098022,0.7886783480644226
1629456622751,0.6798661351203918,0.61942458152771,1.2559198141098022,0.7886783480644226
1629456622867,0.8863136172294617,0.6265133619308472,1.2559198141098022,0.7886783480644226
1629456622931,0.8863136172294617,0.6395281553268433,1.2559198141098022,0.7886783480644226
1629456623060,0.8863136172294617,0.6395281553268433,1.2993440628051758,0.7886783480644226
1629456623144,0.8863136172294617,0.6395281553268433,1.2993440628051758,0.7886783480644226
1629456623263,0.8863136172294617,0.6408854126930237,1.2993440628051758,0.7886783480644226
1629456623328,0.8863136172294617,0.6533186435699463,1.2993440628051758,0.7886783480644226
1629456623509,0.8863136172294617,0.6672917008399963,1.2993440628051758,0.7886783480644226
1629456623593,0.8863136172294617,0.6843229532241821,1.2993440628051758,0.7886783480644226
1629456623792,0.8863136172294617,0.7064728140830994,1.2993440628051758,0.7886783480644226
1629456623875,0.8863136172294617,0.7240749597549438,1.2993440628051758,0.7886783480644226
1629456623924,0.8863136172294617,0.7222447395324707,1.2993440628051758,0.7886783480644226
1629456623986,0.8863136172294617,0.6997945308685303,1.2993440628051758,0.7886783480644226
1629456624102,0.8863136172294617,0.6819383502006531,1.2993440628051758,0.7886783480644226
1629456624243,0.8863136172294617,0.6819383502006531,1.2993440628051758,0.7886783480644226
1629456624309,0.8863136172294617,0.6819383502006531,1.2993440628051758,0.7886783480644226
1629456624415,0.8863136172294617,0.6819383502006531,1.2993440628051758,0.7886783480644226
1629456624484,0.8863136172294617,0.6819383502006531,1.2993440628051758,0.7886783480644226
1629456624598,0.8863136172294617,0.6819383502006531,1.2993440628051758,0.7886783480644226
1629456624674,0.8863136172294617,0.6819383502006531,1.2993440628051758,0.7886783480644226
1629456624769,0.8863136172294617,0.6819383502006531,1.2993440628051758,0.7886783480644226
1629456624855,0.8863136172294617,0.6819383502006531,1.2993440628051758,0.7886783480644226
1629456624966,0.8863136172294617,0.6819383502006531,1.2993440628051758,0.7886783480644226
1629456625130,0.8863136172294617,0.6819383502006531,1.2993440628051758,0.7886783480644226
1629456625202,0.8863136172294617,-0.4578503966331482,1.2993440628051758,0.7886783480644226
1629456625265,0.8863136172294617,-0.4781299531459808,-0.1225300505757331,0.7886783480644226
1629456625360,0.8863136172294617,-0.4543456733226776,-0.1445881575345993,0.7886783480644226
1629456625520,0.8863136172294617,-0.4024892151355743,-0.1689734309911728,0.7886783480644226
1629456625626,0.8863136172294617,-0.3526937961578369,-0.1836745142936706,0.7886783480644226
1629456625702,0.8863136172294617,-0.3214328289031982,-0.1717889904975891,0.7886783480644226
1629456625814,0.8863136172294617,-0.2915300726890564,-0.1150942146778106,0.7886783480644226
1629456625930,0.8863136172294617,-0.2156142443418502,0.0111166993156075,0.7886783480644226
1629456625997,0.8863136172294617,-0.0419497452676296,0.2486423552036285,0.7886783480644226
1629456626114,0.8863136172294617,0.165302500128746,0.497788518667221,0.7886783480644226
1629456626212,0.8863136172294617,0.3271481692790985,0.6803824305534363,0.7886783480644226
1629456626337,0.8863136172294617,0.4201643466949463,0.6803824305534363,0.7886783480644226
1629456626417,0.8863136172294617,0.4770919382572174,0.6803824305534363,0.7886783480644226
1629456626510,0.8863136172294617,0.5053728818893433,0.7066835165023804,0.7886783480644226
1629456626588,0.8863136172294617,0.52730393409729,0.7399601936340332,0.7886783480644226
1629456626711,0.8863136172294617,0.5503230094909668,0.7772018909454346,0.7886783480644226
1629456626838,0.8863136172294617,0.5689799785614014,0.8185194730758667,0.7886783480644226
1629456626958,0.8863136172294617,0.5785152316093445,0.8654934763908386,0.7886783480644226
1629456627023,0.8863136172294617,0.5802789926528931,0.9199042320251464,0.7886783480644226
1629456627131,0.8863136172294617,0.5788189768791199,0.9829555749893188,0.7886783480644226
1629456627270,0.8863136172294617,0.5776524543762207,1.0055742263793943,0.7886783480644226
1629456627357,0.4398258030414581,0.5759313702583313,1.0292589664459229,0.7886783480644226
1629456627448,0.447579562664032,0.5681447386741638,1.036816120147705,0.7923014163970947
1629456627526,0.4375486671924591,0.5391099452972412,0.9913729429244996,0.7502190470695496
1629456627609,0.4281335473060608,0.4729304015636444,0.8431854844093323,0.7036530375480652
1629456627756,0.4287425875663757,0.3676937818527221,0.4769831597805023,0.6674894094467163
1629456627838,0.4350539445877075,0.2499237656593322,0.4250886142253876,0.6424610614776611
1629456627913,0.4350539445877075,0.1650133728981018,0.3789097368717193,0.6424610614776611
1629456628093,0.4350539445877075,0.1237044185400009,0.3375975489616394,0.6424610614776611
1629456628156,0.4350539445877075,0.0947787016630172,0.3375975489616394,0.6424610614776611
1629456628291,0.4350539445877075,0.0757424309849739,0.3375975489616394,0.6424610614776611
1629456628369,0.4350539445877075,0.1041497588157653,0.3375975489616394,0.6424610614776611
1629456628447,0.4350539445877075,0.1844580173492431,0.3375975489616394,0.6424610614776611
1629456628528,0.4543651044368744,0.2717087566852569,0.3375975489616394,0.6424610614776611
1629456628711,0.4612200260162353,0.3348199427127838,0.3375975489616394,0.6303393840789795
1629456628793,0.4510708451271057,0.3739635348320007,0.2927115857601166,0.5824495553970337
1629456628888,0.4311983585357666,0.4042016565799713,0.1871846169233322,0.5002175569534302
1629456628967,0.4188711643218994,0.4347856342792511,0.0205361526459455,0.411824882030487
1629456629022,0.4188711643218994,0.4644401669502258,-0.1502059400081634,0.411824882030487
1629456629130,0.4188711643218994,0.4886787235736847,-0.2426185458898544,0.411824882030487
1629456629283,0.4188711643218994,0.5060628056526184,-0.2426185458898544,0.411824882030487
1629456629370,0.4188711643218994,0.5169434547424316,-0.2426185458898544,0.411824882030487
1629456629448,0.4188711643218994,0.5232856869697571,-0.2426185458898544,0.411824882030487
1629456629539,0.4188711643218994,0.5262752175331116,-0.2426185458898544,0.411824882030487
1629456629658,0.4188711643218994,0.5245710015296936,0.176116943359375,0.411824882030487
1629456629762,0.4188711643218994,0.5133281350135803,0.1505427211523056,0.411824882030487
1629456629906,0.4188711643218994,0.4841671884059906,0.1211908534169197,0.411824882030487
1629456629985,0.4188711643218994,0.4341018497943878,0.0935128480195999,0.411824882030487
1629456630048,0.4188711643218994,0.3730393052101135,0.071473941206932,0.411824882030487
1629456630182,0.4188711643218994,0.318840742111206,0.0528818815946579,0.411824882030487
1629456630249,0.4188711643218994,0.2822931110858917,0.0403123572468757,0.411824882030487
1629456630324,0.4188711643218994,0.2585874795913696,0.0434335060417652,0.411824882030487
1629456630485,0.4188711643218994,0.242817223072052,0.0630028173327446,0.411824882030487
1629456630585,0.4188711643218994,0.2402899861335754,0.0844243317842483,0.411824882030487
1629456630671,0.4188711643218994,0.2506241500377655,0.0929346680641174,0.411824882030487
1629456630758,0.4188711643218994,0.2597736120223999,0.0856312066316604,0.411824882030487
1629456630838,0.4188711643218994,0.2559311687946319,0.0651915818452835,0.411824882030487
1629456630947,0.4188711643218994,0.2397140264511108,0.0403312109410762,0.411824882030487
1629456631069,0.4188711643218994,0.2201864868402481,0.01636160351336,0.411824882030487
1629456631236,0.4188711643218994,0.2062134593725204,-0.0005417747888714,0.411824882030487
1629456631303,0.4188711643218994,0.1995739787817001,-0.0049006873741745,0.411824882030487
1629456631370,0.4188711643218994,0.1998265236616134,0.0059015974402427,0.411824882030487
1629456631497,0.4188711643218994,0.2044182270765304,0.0311140529811382,0.411824882030487
1629456631614,0.4188711643218994,0.217551440000534,0.040397759526968,0.411824882030487
1629456631722,0.4188711643218994,0.2427647858858108,0.05131571367383,0.411824882030487
1629456631807,0.4188711643218994,0.2732029557228088,0.0614280886948108,0.411824882030487
1629456631884,0.4188711643218994,0.2773287892341614,0.0603166259825229,0.411824882030487
1629456631988,0.4188711643218994,0.2685489952564239,0.0383203700184822,0.4533720016479492
1629456632071,0.4188711643218994,0.2385261505842209,0.0003096854197792,0.5343509316444397
1629456632149,0.4188711643218994,0.1853617131710052,-0.0306218806654214,0.5343509316444397
1629456632300,0.4188711643218994,0.123083971440792,-0.0304129645228385,0.5343509316444397
1629456632398,0.4188711643218994,0.082018919289112,-0.0074289962649345,0.5343509316444397
1629456632527,0.4188711643218994,0.2566051483154297,0.0222748033702373,0.5343509316444397
1629456632649,0.4188711643218994,0.3456925451755523,0.0576346553862094,0.5343509316444397
1629456632762,0.4188711643218994,0.4148583114147186,0.0576346553862094,0.5343509316444397
1629456632827,0.4188711643218994,0.4798406362533569,0.0576346553862094,0.5343509316444397
1629456632917,0.4188711643218994,0.5311338901519775,0.0576346553862094,0.5343509316444397
1629456633039,0.4188711643218994,0.5600935816764832,0.0576346553862094,0.5343509316444397
1629456633114,0.4188711643218994,0.567061722278595,0.7419573664665222,0.5343509316444397
1629456633215,0.4188711643218994,0.5545785427093506,0.6729744076728821,0.5664383769035339
1629456633284,0.4188711643218994,0.5285339951515198,0.6108218431472778,0.5664383769035339
1629456633390,0.4188711643218994,0.4973299205303192,0.5595155358314514,0.5664383769035339
1629456633528,0.4188711643218994,0.4674643874168396,0.5158244371414185,0.5664383769035339
1629456633639,0.4188711643218994,0.438685268163681,0.4762601256370544,0.5664383769035339
1629456633697,0.4188711643218994,0.4117090702056885,0.4385803043842315,0.5664383769035339
1629456633835,0.4188711643218994,0.3866176307201385,0.4027099907398224,0.5664383769035339
1629456633938,0.4188711643218994,0.3628718852996826,0.3703754544258117,0.5664383769035339
1629456633997,0.4188711643218994,0.2786456048488617,0.3465424478054046,0.5664383769035339
1629456634149,0.4188711643218994,0.222207561135292,0.3440205156803131,0.5664383769035339
1629456634271,0.4188711643218994,0.1785097569227218,0.3741597831249237,0.5664383769035339
1629456634350,0.4188711643218994,0.1395072340965271,0.3646211922168731,0.5664383769035339
1629456634435,0.4188711643218994,0.1189495995640754,0.3890158534049988,0.5664383769035339
1629456634519,0.4188711643218994,0.1302479952573776,0.4287230968475342,0.5664383769035339
1629456634605,0.4188711643218994,0.1572994142770767,0.4674523472785949,0.5664383769035339
1629456634764,0.4188711643218994,0.1784227192401886,0.4968268573284149,0.5664383769035339
1629456634867,0.4188711643218994,0.1850041896104812,0.5139981508255005,0.5664383769035339
1629456634955,0.4188711643218994,0.1793285906314849,0.5193142294883728,0.5664383769035339
1629456635051,0.4188711643218994,0.1706056743860244,0.5190749168395996,0.5664383769035339
1629456635148,0.4188711643218994,0.1630436927080154,0.5174242258071899,0.5664383769035339
1629456635245,0.4188711643218994,0.1640994250774383,0.5203573703765869,0.5664383769035339
1629456635335,0.4188711643218994,0.2045035809278488,0.540014922618866,0.5664383769035339
1629456635445,0.4188711643218994,0.3170613944530487,0.5874810218811035,0.5664383769035339
1629456635535,0.4188711643218994,0.4714632630348205,0.6120398640632629,0.5664383769035339
1629456635669,0.4188711643218994,0.4938187003135681,0.6284739971160889,0.5664383769035339
1629456635738,0.4188711643218994,0.511184573173523,0.6255910396575928,0.5664383769035339
1629456635852,0.4188711643218994,0.5212505459785461,0.5970888733863831,0.5664383769035339
1629456636014,0.4188711643218994,0.5238523483276367,0.5426219701766968,0.5664383769035339
1629456636086,0.4188711643218994,0.5223970413208008,0.4713192284107208,0.5664383769035339
1629456636150,0.4188711643218994,0.5239888429641724,0.3997646868228912,0.5664383769035339
1629456636266,0.4188711643218994,0.5385081768035889,0.3710616827011108,0.5664383769035339
1629456636388,0.4188711643218994,0.5301169753074646,0.3369739949703216,0.5664383769035339
1629456636462,0.4188711643218994,0.527305543422699,0.329214870929718,0.5664383769035339
1629456636585,0.4188711643218994,0.530887246131897,0.3520170450210571,0.5664383769035339
1629456636679,0.4188711643218994,0.5461574792861938,0.4010095298290252,0.5664383769035339
1629456636753,0.4188711643218994,0.5779290795326233,0.4561578631401062,0.5664383769035339
1629456636871,0.4188711643218994,0.6050409078598022,0.4803561568260193,0.5664383769035339
1629456636987,0.4188711643218994,0.5762185454368591,0.4266171157360077,0.5664383769035339
1629456637081,0.4188711643218994,0.4218004643917084,0.4237773716449737,0.5664383769035339
1629456637175,0.4188711643218994,0.4275585412979126,0.4048280119895935,0.5664383769035339
1629456637276,0.4188711643218994,0.4074336886405945,0.3812379539012909,0.5664383769035339
1629456637365,0.4188711643218994,0.3799110054969787,0.3606328070163727,0.5664383769035339
1629456637479,0.4188711643218994,0.3531113862991333,0.3427228033542633,0.5664383769035339
1629456637551,0.4188711643218994,0.3284368813037872,0.3248019218444824,0.5664383769035339
1629456637670,0.4188711643218994,0.306610107421875,0.3062644898891449,0.5664383769035339
1629456637776,0.4188711643218994,0.2876164019107818,0.2677741944789886,0.5664383769035339
1629456637916,0.4188711643218994,0.2847272157669067,0.2556600570678711,0.5664383769035339
1629456637997,0.4188711643218994,0.2885712385177612,0.2474110126495361,0.5664383769035339
1629456638116,0.4188711643218994,0.2911540567874908,0.2309603691101074,0.5664383769035339
1629456638197,0.7935521006584167,0.2821240723133087,0.1974920332431793,0.5664383769035339
1629456638306,0.7935521006584167,0.2461983859539032,0.1415351182222366,0.4954166114330292
1629456638416,0.7935521006584167,0.1720662117004394,0.0649514272809028,0.4540651738643646
1629456638484,0.7935521006584167,0.0638204962015152,-0.0174937304109334,0.4404242038726806
1629456638588,0.7935521006584167,-0.05192257091403,-0.082941822707653,0.4357376992702484
1629456638698,0.7575210928916931,-0.1342670023441314,-0.1225862503051757,0.4265320003032684
1629456638809,0.718503475189209,-0.1722892820835113,-0.1500359326601028,0.4124622642993927
1629456638878,0.6819593906402588,-0.1886022537946701,-0.1807258874177932,0.3979091346263885
1629456638986,0.6819593906402588,-0.1962962448596954,-0.2120676338672638,0.3979091346263885
1629456639103,0.6819593906402588,-0.1868076771497726,-0.2244818955659866,0.3979091346263885
1629456639270,0.6819593906402588,-0.1450693011283874,-0.1893273741006851,0.3979091346263885
1629456639337,0.6819593906402588,-0.0649584308266639,-0.0918845310807228,0.3979091346263885
1629456639391,0.6707636117935181,0.0269851945340633,0.0290769282728433,0.3979091346263885
1629456639508,0.6237139105796814,0.099229484796524,0.1273687779903412,0.3412500619888305
1629456639651,0.5486263632774353,0.1407163292169571,0.1827392429113388,0.2992496490478515
1629456639744,0.5486263632774353,0.1630386561155319,0.1976826339960098,0.2952972948551178
1629456639826,0.5486263632774353,0.1952586472034454,0.2156616002321243,0.3181295692920685
1629456639912,0.5486263632774353,0.2597111761569977,0.2379627376794815,0.3333981931209564
1629456640021,0.5486263632774353,0.3462691903114319,0.2644723355770111,0.3251409828662872
1629456640084,0.5486263632774353,0.4291687309741974,0.2950274050235748,0.3251409828662872
1629456640280,0.5486263632774353,0.4919783771038055,0.3310027420520782,0.3251409828662872
1629456640389,0.5486263632774353,0.5319849848747253,0.3737419247627258,0.3251409828662872
1629456640480,0.5486263632774353,0.5543324947357178,0.4237737357616424,0.3251409828662872
1629456640529,0.5486263632774353,0.564704179763794,0.4812548458576202,0.3251409828662872
1629456640606,0.5486263632774353,0.5645841360092163,0.5434709191322327,0.3251409828662872
1629456640701,0.5486263632774353,0.5539848804473877,0.5109452605247498,0.3251409828662872
1629456640866,0.5486263632774353,0.531938374042511,0.4286528825759887,0.3251409828662872
1629456640934,0.5486263632774353,0.5012513995170593,0.272305428981781,0.3251409828662872
1629456641036,0.5486263632774353,0.4712451100349426,0.0398493707180023,0.3251409828662872
1629456641115,0.5486263632774353,0.4525640308856964,-0.1577158868312835,0.3251409828662872
1629456641293,0.5486263632774353,0.4476681649684906,-0.0086867706850171,0.3251409828662872
1629456641366,0.5486263632774353,0.4445378184318542,0.1128917559981346,0.3251409828662872
1629456641537,0.5486263632774353,0.4225345551967621,0.1889033764600753,0.3251409828662872
1629456641600,0.5486263632774353,0.3682396709918976,0.2296385914087295,0.3251409828662872
1629456641648,0.5486263632774353,0.2843447029590606,0.2790163159370422,0.3251409828662872
1629456641836,0.5486263632774353,0.1910728514194488,0.3566529154777527,0.3251409828662872
1629456641905,0.5486263632774353,0.1169193536043167,0.4374860227108001,0.3251409828662872
1629456642004,0.5486263632774353,0.0731212049722671,0.4888621866703033,0.3251409828662872
1629456642090,0.5486263632774353,0.0518811158835887,0.5047577619552612,0.3251409828662872
1629456642167,0.5486263632774353,0.0500564873218536,0.4966677725315094,0.3251409828662872
1629456642289,0.5486263632774353,0.0692939758300781,0.5113105773925781,0.3251409828662872
1629456642364,0.5486263632774353,0.1155142039060592,0.5437832474708557,0.3251409828662872
1629456642451,0.5486263632774353,0.188638299703598,0.6001154184341431,0.3251409828662872
1629456642547,0.5486263632774353,0.2752148509025574,0.6657652258872986,0.3251409828662872
1629456642660,0.5486263632774353,0.3601572215557098,0.6863195896148682,0.3251409828662872
1629456642766,0.5486263632774353,0.4324765801429748,0.7028719186782837,0.3251409828662872
1629456642886,0.5486263632774353,0.4841816425323486,0.7159324288368225,0.3251409828662872
1629456642966,0.5486263632774353,0.5141489505767822,0.7302573323249817,0.3251409828662872
1629456643066,0.5486263632774353,0.5263468623161316,0.7497078776359558,0.3251409828662872
1629456643161,0.5486263632774353,0.5439690351486206,0.7655551433563232,0.3251409828662872
1629456643302,0.5486263632774353,0.5656437873840332,0.7640053033828735,0.3251409828662872
1629456643369,0.5486263632774353,0.5896451473236084,0.7415772676467896,0.3251409828662872
1629456643439,0.5486263632774353,0.6179437041282654,0.7187655568122864,0.3251409828662872
1629456643563,0.5486263632774353,0.6535620093345642,0.7276753187179565,0.3251409828662872
1629456643687,0.5486263632774353,0.6964874863624573,0.7852620482444763,0.3251409828662872
1629456643763,0.5486263632774353,0.7424338459968567,0.7852620482444763,0.3251409828662872
1629456643856,0.5486263632774353,0.8020247220993042,0.7852620482444763,0.3251409828662872
1629456643978,0.5486263632774353,0.8287346363067627,0.7852620482444763,0.3251409828662872
1629456644085,0.5486263632774353,0.8426750898361206,0.7852620482444763,0.3251409828662872
1629456644181,0.5486263632774353,0.8433352112770081,0.7852620482444763,0.3251409828662872
1629456644246,0.5486263632774353,0.8433352112770081,0.7852620482444763,0.3251409828662872
1629456644451,0.5486263632774353,0.8433352112770081,0.7852620482444763,0.3251409828662872
1629456644565,0.5486263632774353,0.8433352112770081,-0.0355133451521396,0.3251409828662872
1629456644616,0.5486263632774353,0.4422463476657867,0.0372193343937397,0.3251409828662872
1629456644701,0.5486263632774353,0.4277650415897369,0.1075337678194046,0.3251409828662872
1629456644770,0.5486263632774353,0.4190660417079925,0.152778685092926,0.3251409828662872
1629456644854,0.5486263632774353,0.3961933255195617,0.1649820655584335,0.3251409828662872
1629456644971,0.5486263632774353,0.3597554564476013,0.152033045887947,0.3251409828662872
1629456645114,0.5486263632774353,0.319710910320282,0.1381454020738601,0.3251409828662872
1629456645235,0.5486263632774353,0.2856518626213074,0.1692320108413696,0.3251409828662872
1629456645313,0.5486263632774353,0.2629402875900268,0.2650288045406341,0.3251409828662872
1629456645385,0.5486263632774353,0.0926402062177658,0.2650288045406341,0.3251409828662872
1629456645485,0.5486263632774353,0.1140328049659729,0.2650288045406341,0.3251409828662872
1629456645590,0.5486263632774353,0.1476649343967437,0.2650288045406341,0.3251409828662872
1629456645736,0.5486263632774353,0.185679405927658,0.2910853326320648,0.3251409828662872
1629456645819,0.5486263632774353,0.218915656208992,0.3163652420043945,0.3251409828662872
1629456645897,0.5486263632774353,0.260270208120346,0.3400899171829223,0.3251409828662872
1629456645997,0.5486263632774353,0.283996045589447,0.3618411719799042,0.3251409828662872
1629456646072,0.5486263632774353,0.2864398062229156,0.3761421144008636,0.3251409828662872
1629456646236,0.5486263632774353,0.2701498866081238,0.4085529744625091,0.3251409828662872
1629456646315,0.5486263632774353,0.247467041015625,0.416846215724945,0.3251409828662872
1629456646428,0.5486263632774353,0.2391866594552993,0.4447227120399475,0.3251409828662872
1629456646522,0.5486263632774353,0.2620131075382232,0.506713330745697,0.3251409828662872
1629456646591,0.5486263632774353,0.310823380947113,0.506713330745697,0.3251409828662872
1629456646826,0.5486263632774353,0.3640969395637512,0.506713330745697,0.3251409828662872
1629456646910,0.5486263632774353,0.4061967432498932,0.506713330745697,0.3251409828662872
1629456646969,0.5486263632774353,0.4327142536640167,0.506713330745697,0.3251409828662872
1629456647022,0.5486263632774353,0.4444658160209656,0.506713330745697,0.3251409828662872
1629456647138,0.5486263632774353,0.4425915479660034,0.506713330745697,0.3251409828662872
1629456647206,0.5486263632774353,0.4348265826702118,0.506713330745697,0.3251409828662872
1629456647337,0.5486263632774353,0.4424969553947449,0.506713330745697,0.3251409828662872
1629456647419,0.5486263632774353,0.4786641001701355,0.506713330745697,0.3251409828662872
1629456647562,0.5486263632774353,0.5283201932907104,0.506713330745697,0.3251409828662872
1629456647660,0.5486263632774353,0.5682147741317749,0.506713330745697,0.3251409828662872
1629456647729,0.5486263632774353,0.5886018872261047,0.506713330745697,0.3251409828662872
1629456647830,0.5486263632774353,0.5940327644348145,0.506713330745697,0.3251409828662872
1629456648053,0.5486263632774353,0.5910395383834839,0.506713330745697,0.3251409828662872
1629456648131,0.5486263632774353,0.5787476897239685,0.6092662811279297,0.3251409828662872
1629456648198,0.5486263632774353,0.5562806725502014,0.60625159740448,0.3251409828662872
1629456648273,0.5486263632774353,0.5297218561172485,0.682884156703949,0.3251409828662872
1629456648387,0.5486263632774353,0.5055454969406128,0.77094966173172,0.3251409828662872
1629456648497,0.5486263632774353,0.4843675792217254,0.8250685334205627,0.3251409828662872
1629456648568,0.5486263632774353,0.4650300443172455,0.8360567092895508,0.3251409828662872
1629456648662,0.5486263632774353,0.4481270909309387,0.8153182864189148,0.3251409828662872
1629456648759,0.5486263632774353,0.4304526448249817,0.7825331091880798,0.3251409828662872
1629456648832,0.5486263632774353,0.3960134387016296,0.7506781816482544,0.3251409828662872
1629456648946,0.5486263632774353,0.3315990269184112,0.7251167893409729,0.3251409828662872
1629456649012,0.5486263632774353,0.2455199211835861,0.7059267163276672,0.3251409828662872
1629456649131,0.5486263632774353,0.1680071949958801,0.690028727054596,0.3251409828662872
1629456649259,0.5486263632774353,0.1266133040189743,0.6357303857803345,0.3251409828662872
1629456649355,0.5486263632774353,0.1164332330226898,0.6403922438621521,0.3251409828662872
1629456649462,0.5486263632774353,0.1143700703978538,0.666083574295044,0.3251409828662872
1629456649563,0.5486263632774353,0.1104952841997146,0.6928301453590393,0.3251409828662872
1629456649643,0.5486263632774353,0.1009521707892417,0.7007938027381897,0.3251409828662872
1629456649828,0.5486263632774353,0.0786696374416351,0.6676048040390015,0.3251409828662872
1629456649887,0.5486263632774353,0.0441872030496597,0.5787172913551331,0.3251409828662872
1629456650103,0.5486263632774353,0.0333139225840568,0.4383340179920196,0.3251409828662872
1629456650195,0.5486263632774353,0.0323966778814792,0.2923644483089447,0.3251409828662872
1629456650246,0.5486263632774353,0.0412574149668216,0.2246401607990265,0.3251409828662872
1629456650304,0.5486263632774353,0.0522671975195407,0.2433423548936844,0.3251409828662872
1629456650364,0.5486263632774353,0.0971468314528465,0.2922010421752929,0.3251409828662872
1629456650443,0.5486263632774353,0.1255044639110565,0.2922010421752929,0.3251409828662872
1629456650613,0.5486263632774353,0.1215638890862464,0.2922010421752929,0.3251409828662872
1629456650712,0.5486263632774353,0.0951387211680412,0.2922010421752929,0.3251409828662872
1629456650845,0.5486263632774353,0.0812993198633194,0.2922010421752929,0.3251409828662872
1629456650925,0.5486263632774353,0.1066115200519561,0.2922010421752929,0.3251409828662872
1629456650985,0.5486263632774353,0.171286255121231,0.2922010421752929,0.3251409828662872
1629456651081,0.5486263632774353,0.2539496421813965,0.2922010421752929,0.3251409828662872
1629456651220,0.5486263632774353,0.3314383924007416,0.2922010421752929,0.3251409828662872
1629456651322,0.5486263632774353,0.39537513256073,0.2922010421752929,0.3251409828662872
1629456651401,0.5486263632774353,0.4448665976524353,0.2922010421752929,0.3251409828662872
1629456651484,0.5486263632774353,0.4463784694671631,0.2922010421752929,0.3251409828662872
1629456651578,0.5486263632774353,0.4406253099441528,0.2922010421752929,0.3251409828662872
1629456651698,0.5486263632774353,0.4317380785942077,0.2922010421752929,0.3251409828662872
1629456651828,0.5486263632774353,0.4239936172962188,0.2922010421752929,0.3251409828662872
1629456651941,0.5486263632774353,0.4234640002250671,0.2922010421752929,0.3251409828662872
1629456652002,0.5486263632774353,0.4298082292079925,0.2922010421752929,0.3251409828662872
1629456652110,0.5486263632774353,0.4513501524925232,0.2922010421752929,0.3251409828662872
1629456652233,0.5486263632774353,0.4841925799846649,0.2922010421752929,0.3251409828662872
1629456652313,0.5486263632774353,0.5129106640815735,0.2922010421752929,0.3251409828662872
1629456652437,0.5486263632774353,0.5250729918479919,0.2922010421752929,0.3251409828662872
1629456652513,0.5486263632774353,0.5176554918289185,0.2922010421752929,0.3251409828662872
1629456652623,0.5486263632774353,0.493783563375473,0.2922010421752929,0.3251409828662872
1629456652700,0.5486263632774353,0.4616948068141937,0.2922010421752929,0.3251409828662872
1629456652783,0.5486263632774353,0.4327366948127746,0.2922010421752929,0.3251409828662872
1629456652906,0.5486263632774353,0.4202262759208679,0.4136640131473541,0.3251409828662872
1629456653058,0.5486263632774353,0.430469661951065,0.5588184595108032,0.3251409828662872
1629456653142,0.5486263632774353,0.4552429020404815,0.5588184595108032,0.3251409828662872
1629456653220,0.5486263632774353,0.4816511571407318,0.5588184595108032,0.3251409828662872
1629456653327,0.5486263632774353,0.5007361769676208,0.5588184595108032,0.3251409828662872
1629456653451,0.5486263632774353,0.5119903683662415,0.5588184595108032,0.3251409828662872
1629456653502,0.5486263632774353,0.5282255411148071,0.5588184595108032,0.3251409828662872
1629456653614,0.5486263632774353,0.5624868273735046,0.5588184595108032,0.3251409828662872
1629456653797,0.5486263632774353,0.6078834533691406,0.5588184595108032,0.3251409828662872
1629456653865,0.5486263632774353,0.6036573648452759,0.5588184595108032,0.3251409828662872
1629456653939,0.5486263632774353,0.6088418960571289,0.5588184595108032,0.3251409828662872
1629456654075,0.5486263632774353,0.6260652542114258,0.5588184595108032,0.3251409828662872
1629456654121,0.5486263632774353,0.6528929471969604,0.5778080821037292,0.3251409828662872
1629456654283,0.5486263632774353,0.6856447458267212,0.5778080821037292,0.3251409828662872
1629456654368,0.5486263632774353,0.7200770974159241,0.5778080821037292,0.3251409828662872
1629456654418,0.5486263632774353,0.7269992828369141,0.5778080821037292,0.3251409828662872
1629456654567,0.5486263632774353,0.711529016494751,0.5778080821037292,0.3251409828662872
1629456654639,0.5486263632774353,0.6865550875663757,0.5778080821037292,0.3251409828662872
1629456654732,0.5486263632774353,0.6593224406242371,0.5778080821037292,0.3251409828662872
1629456654844,0.5486263632774353,0.6333745121955872,0.1713318675756454,0.3251409828662872
1629456654950,0.5486263632774353,0.6103460788726807,0.170700341463089,0.3251409828662872
1629456655071,0.5486263632774353,0.5805315971374512,0.236702486872673,0.3251409828662872
1629456655171,0.5486263632774353,0.5214115381240845,0.3324961960315704,0.3251409828662872
1629456655241,0.5486263632774353,0.4172033965587616,0.3324961960315704,0.3251409828662872
1629456655324,0.5486263632774353,0.4244214594364166,0.3324961960315704,0.3251409828662872
1629456655456,0.5486263632774353,0.4244214594364166,0.3324961960315704,0.3251409828662872
1629456655615,0.5486263632774353,0.4244214594364166,0.3324961960315704,0.3251409828662872
1629456655680,0.5486263632774353,0.4244214594364166,0.3324961960315704,0.3251409828662872
1629456655758,0.5486263632774353,0.4244214594364166,0.3324961960315704,0.3251409828662872
1629456655825,0.5486263632774353,0.3787465393543243,0.3324961960315704,0.3251409828662872
1629456655948,0.5486263632774353,0.3611559271812439,0.3324961960315704,0.3251409828662872
1629456656072,0.5486263632774353,0.3686400949954986,0.3230165243148803,0.3251409828662872
1629456656157,0.5486263632774353,0.382325530052185,0.3525392115116119,0.3251409828662872
1629456656264,0.5486263632774353,0.4030254483222961,0.4049837291240692,0.3251409828662872
1629456656354,0.5486263632774353,0.4407462179660797,0.4049837291240692,0.3251409828662872
1629456656459,0.5486263632774353,0.493326187133789,0.4049837291240692,0.3251409828662872
1629456656584,0.5486263632774353,0.493326187133789,0.4049837291240692,0.3251409828662872
1629456656681,0.5486263632774353,0.493326187133789,0.4049837291240692,0.3251409828662872
1629456656777,0.5486263632774353,0.493326187133789,0.4049837291240692,0.3251409828662872
1629456656851,0.5486263632774353,0.493326187133789,0.4049837291240692,0.3251409828662872
1629456656970,0.5486263632774353,0.3620842099189758,0.4049837291240692,0.3251409828662872
1629456657095,0.5486263632774353,0.2914361357688904,0.4049837291240692,0.3251409828662872
1629456657172,0.5486263632774353,0.2325387150049209,0.4049837291240692,0.3251409828662872
1629456657296,0.5486263632774353,0.2081025540828704,0.4049837291240692,0.3251409828662872
1629456657373,0.5486263632774353,0.2690397500991821,0.4049837291240692,0.3251409828662872
1629456657506,0.5486263632774353,0.4129154980182647,0.4049837291240692,0.3251409828662872
1629456657576,0.5486263632774353,0.5609450340270996,0.4049837291240692,0.3251409828662872
1629456657698,0.5486263632774353,0.6609647870063782,0.4049837291240692,0.3251409828662872
1629456657783,0.5486263632774353,0.7049171924591064,0.4049837291240692,0.3251409828662872
1629456657894,0.5486263632774353,0.7064298391342163,1.1741924285888672,0.3251409828662872
1629456658011,0.5486263632774353,0.6864327788352966,1.1741924285888672,0.3251409828662872
1629456658095,0.5486263632774353,0.6606249809265137,1.0801851749420166,0.3251409828662872
1629456658190,0.5486263632774353,0.6452960968017578,1.002558350563049,0.3251409828662872
1629456658264,0.5486263632774353,0.6273650527000427,0.9375502467155457,0.3251409828662872
1629456658461,0.5486263632774353,0.6132068634033203,0.8832457065582275,0.3251409828662872
1629456658570,0.5486263632774353,0.6062623262405396,0.8385221362113953,0.3251409828662872
1629456658652,0.5486263632774353,0.6049138903617859,0.8015828728675842,0.3251409828662872
1629456658710,0.5486263632774353,0.6049635410308838,0.769402027130127,0.3251409828662872
1629456658803,0.6416854858398438,0.6011083126068115,0.739153265953064,0.8675561547279358
1629456658918,0.6416854858398438,0.5783089995384216,0.7099351286888123,0.8675561547279358
1629456659051,0.6416854858398438,0.5127435922622681,0.6842287182807922,0.8675561547279358
1629456659136,0.6416854858398438,0.3826240301132202,0.5573264360427856,0.8675561547279358
1629456659221,0.6416854858398438,0.1786966919898986,0.4032045900821686,0.8675561547279358
1629456659305,0.6416854858398438,-0.0757386833429336,0.3084663152694702,0.8675561547279358
1629456659413,0.6416854858398438,-0.2907918393611908,0.3193806111812591,0.8675561547279358
1629456659498,0.6416854858398438,-0.3811014592647552,0.3553969860076904,0.8675561547279358
1629456659592,0.6416854858398438,-0.3876809775829315,0.3774626553058624,0.8675561547279358
1629456659776,0.6416854858398438,-0.3720623552799225,0.3847304880619049,0.8675561547279358
1629456659822,0.6416854858398438,-0.3587223291397095,0.3895100355148315,0.8675561547279358
1629456659918,0.6416854858398438,-0.3571799397468567,0.3926331996917724,0.8675561547279358
1629456660027,0.6416854858398438,-0.3612332940101623,0.3908526301383972,0.8675561547279358
1629456660104,0.6416854858398438,-0.3516966700553894,0.3882067501544952,0.8675561547279358
1629456660264,0.6416854858398438,-0.2843042314052582,0.4015251994132995,0.8675561547279358
1629456660360,0.6416854858398438,-0.1390948146581649,0.4595536291599273,0.8675561547279358
1629456660440,0.6416854858398438,0.0386608280241489,0.4809352159500122,0.8675561547279358
1629456660514,0.6416854858398438,0.1872206628322601,0.5027278661727905,0.8675561547279358
1629456660609,0.6416854858398438,0.2865148782730102,0.5122784376144409,0.8675561547279358
1629456660682,0.6416854858398438,0.3406676650047302,0.4921212196350097,0.8675561547279358
1629456660798,0.6416854858398438,0.3743253648281097,0.4331077933311462,0.8675561547279358
1629456660951,0.6416854858398438,0.4125816226005554,0.3486464023590088,0.8675561547279358
1629456661020,0.6416854858398438,0.4375867545604706,0.2814174294471741,0.8675561547279358
1629456661149,0.6416854858398438,0.4633814394474029,0.2728606760501861,0.8675561547279358
1629456661251,0.6416854858398438,0.4914099276065826,0.3118045330047607,0.8675561547279358
1629456661322,0.6416854858398438,0.5239967107772827,0.3665670752525329,0.8675561547279358
1629456661437,0.6416854858398438,0.5623025298118591,0.4332289695739746,0.8675561547279358
1629456661581,0.6416854858398438,0.6053140163421631,0.4332289695739746,0.8675561547279358
1629456661652,0.6416854858398438,0.6500601172447205,0.4332289695739746,0.8675561547279358
1629456661781,0.6416854858398438,0.6882252097129822,0.4332289695739746,0.8675561547279358
1629456661846,0.6416854858398438,0.7065727114677429,0.4332289695739746,0.8675561547279358
1629456661958,0.6416854858398438,0.6206172108650208,0.4332289695739746,0.8675561547279358
1629456662104,0.6416854858398438,0.4853450059890747,0.4332289695739746,0.8675561547279358
1629456662191,0.6416854858398438,0.3150557279586792,0.4332289695739746,0.8675561547279358
1629456662311,0.6416854858398438,0.1533114463090896,0.4332289695739746,0.8675561547279358
1629456662365,0.6416854858398438,-0.004990289453417,-0.2618882358074188,0.8675561547279358
1629456662500,0.6416854858398438,-0.3479052782058716,-0.2004750370979309,0.8675561547279358
1629456662552,0.6416854858398438,-0.3499627113342285,-0.1666845232248306,0.8675561547279358
1629456662651,0.3628166019916534,-0.3383193016052246,-0.1625619083642959,0.422563225030899
1629456662807,0.3687887787818908,-0.3153001070022583,-0.1577771753072738,0.4068954885005951
1629456662875,0.3809731602668762,-0.2906025946140289,-0.1262221485376358,0.3965466320514679
1629456663019,0.3908735513687134,-0.2721877694129944,-0.0770276635885238,0.3921393752098083
1629456663092,0.387719988822937,-0.2645163238048553,-0.0360676981508731,0.3886951208114624
1629456663177,0.3716940879821777,-0.2656873166561126,-0.013006960041821,0.3886951208114624
1629456663347,0.3716940879821777,-0.271973043680191,-0.0015328577719628,0.3886951208114624
1629456663412,0.3716940879821777,-0.2792751491069793,0.0141841396689414,0.3886951208114624
1629456663496,0.3716940879821777,-0.2855191826820373,0.0594192035496234,0.3886951208114624
1629456663571,0.3716940879821777,-0.2848235666751861,0.1643276512622833,0.3886951208114624
1629456663633,0.3716940879821777,-0.276375263929367,0.3010120391845703,0.3886951208114624
1629456663750,0.3716940879821777,-0.2599590420722961,0.4234142899513244,0.3886951208114624
1629456663898,0.3729847073554992,-0.2408577352762222,0.5061554312705994,0.3799234628677368
1629456663980,0.3743203580379486,-0.2252865135669708,0.5485314726829529,0.3682766258716583
1629456664108,0.3754536807537079,-0.2194962501525879,0.5636376142501831,0.3564657270908355
1629456664207,0.3786677122116089,-0.2260518223047256,0.5669682025909424,0.3519607484340668
1629456664310,0.3752986192703247,-0.244589164853096,0.5657837390899658,0.3519607484340668
1629456664370,0.3752986192703247,-0.2737430334091186,0.560545802116394,0.3519607484340668
1629456664488,0.3752986192703247,-0.3100006282329559,0.5510878562927246,0.3519607484340668
1629456664605,0.3752986192703247,-0.3455159962177276,0.5399402976036072,0.3519607484340668
1629456664733,0.3752986192703247,-0.37226203083992,0.529856264591217,0.3519607484340668
1629456664802,0.3752986192703247,-0.383558988571167,0.5222876667976379,0.3519607484340668
1629456664897,0.3752986192703247,-0.3681067824363708,0.5170236229896545,0.3519607484340668
1629456664989,0.3752986192703247,-0.2910397052764892,0.5116483569145203,0.3519607484340668
1629456665088,0.3752986192703247,-0.1252571940422058,0.5045067071914673,0.3519607484340668
1629456665239,0.3752986192703247,0.0713679417967796,0.492733359336853,0.3519607484340668
1629456665298,0.3752986192703247,0.2299829423427581,0.4738135933876037,0.3519607484340668
1629456665409,0.3752986192703247,0.3278487920761108,0.4504956901073456,0.3519607484340668
1629456665520,0.3752986192703247,0.3728255033493042,0.4304074645042419,0.3519607484340668
1629456665574,0.3752986192703247,0.3865132927894592,0.4199525713920593,0.3519607484340668
1629456665694,0.3752986192703247,0.3923555612564087,0.4193229377269745,0.3519607484340668
1629456665823,0.3752986192703247,0.4102315604686737,0.4426430165767669,0.3519607484340668
1629456665936,0.3752986192703247,0.45353764295578,0.4691329598426819,0.3519607484340668
1629456666023,0.3752986192703247,0.5214003324508667,0.4985314011573791,0.3519607484340668
1629456666101,0.3752986192703247,0.593626856803894,0.5317428708076477,0.3519607484340668
1629456666224,0.3752986192703247,0.6502763628959656,0.569300651550293,0.3519607484340668
1629456666297,0.3752986192703247,0.6784881353378296,0.6099888682365417,0.3519607484340668
1629456666445,0.3752986192703247,0.7065852880477905,0.6502377986907959,0.3519607484340668
1629456666553,0.3752986192703247,0.7303144931793213,0.6815844774246216,0.3519607484340668
1629456666633,0.3752986192703247,0.7400861382484436,0.685707688331604,0.3519607484340668
1629456666721,0.3752986192703247,0.6971552968025208,0.641427755355835,0.3519607484340668
1629456666816,0.3752986192703247,0.6379635334014893,0.5336358547210693,0.3519607484340668
1629456666920,0.3752986192703247,0.5801709294319153,0.5336358547210693,0.3519607484340668
1629456667071,0.3752986192703247,0.543697714805603,0.5336358547210693,0.3519607484340668
1629456667154,0.3752986192703247,0.5302828550338745,0.5336358547210693,0.3519607484340668
1629456667245,0.3752986192703247,0.5251249670982361,0.5336358547210693,0.3519607484340668
1629456667324,0.3752986192703247,0.5114158987998962,0.2286214232444763,0.3519607484340668
1629456667420,0.3752986192703247,0.4753895998001098,0.2795011103153229,0.3519607484340668
1629456667537,0.3752986192703247,0.4107491374015808,0.4541074335575104,0.3519607484340668
1629456667640,0.3752986192703247,0.3270809054374695,0.6411994099617004,0.3519607484340668
1629456667742,0.3752986192703247,0.247561514377594,0.7688151001930237,0.3519607484340668
1629456667824,0.3752986192703247,0.2799544632434845,0.8280010223388672,0.3519607484340668
1629456667929,0.3752986192703247,0.2833988070487976,0.8335821032524109,0.3519607484340668
1629456668067,0.3752986192703247,0.2761514186859131,0.8090410232543945,0.3519607484340668
1629456668142,0.3752986192703247,0.2713234722614288,0.7760559916496277,0.3519607484340668
1629456668253,0.3752986192703247,0.2760003507137298,0.7443150877952576,0.3519607484340668
1629456668351,0.3752986192703247,0.2738318741321563,0.7156013250350952,0.3519607484340668
1629456668470,0.3752986192703247,0.2703874409198761,0.6900044679641724,0.3519607484340668
1629456668560,0.3752986192703247,0.2733457386493683,0.6741008162498474,0.3519607484340668
1629456668685,0.3752986192703247,0.2903212308883667,0.6778504252433777,0.3519607484340668
1629456668783,0.3752986192703247,0.3317036926746368,0.706975519657135,0.3519607484340668
1629456668883,0.3752986192703247,0.3993490934371948,0.73157799243927,0.3519607484340668
1629456668982,0.3752986192703247,0.4126677513122558,0.7476699948310852,0.3519607484340668
1629456669066,0.3752986192703247,0.4101635217666626,0.7347904443740845,0.3519607484340668
1629456669152,0.3752986192703247,0.3877317011356354,0.6711641550064087,0.3519607484340668
1629456669257,0.3752986192703247,0.3546678721904754,0.5471644997596741,0.3519607484340668
1629456669334,0.3752986192703247,0.3320436179637909,0.3814467787742615,0.3519607484340668
1629456669485,0.3752986192703247,0.3330661058425903,0.2449364513158798,0.3519607484340668
1629456669588,0.3752986192703247,0.3498236238956451,0.210443377494812,0.3519607484340668
1629456669654,0.3752986192703247,0.3678093552589416,0.2461744099855423,0.3519607484340668
1629456669753,0.3752986192703247,0.3889665007591247,0.3043141365051269,0.3519607484340668
1629456669865,0.3752986192703247,0.424056738615036,0.3755236566066742,0.3519607484340668
1629456669953,0.3752986192703247,0.4844242334365845,0.3755236566066742,0.3519607484340668
1629456670094,0.3752986192703247,0.4844242334365845,0.3755236566066742,0.3519607484340668
1629456670186,0.3752986192703247,0.4844242334365845,0.3755236566066742,0.3519607484340668
1629456670274,0.3752986192703247,0.4844242334365845,0.3755236566066742,0.3519607484340668
1629456670407,0.3752986192703247,0.4844242334365845,0.3755236566066742,0.3519607484340668
1629456670486,0.3752986192703247,0.1205029040575027,0.3755236566066742,0.3519607484340668
1629456670571,0.3752986192703247,0.0949314981698989,0.3755236566066742,0.3519607484340668
1629456670686,0.3752986192703247,0.0574485547840595,0.3755236566066742,0.3519607484340668
1629456670822,0.3752986192703247,0.0164662115275859,0.3755236566066742,0.3519607484340668
1629456670929,0.3752986192703247,-0.021210242062807,0.3755236566066742,0.3519607484340668
1629456671018,0.3752986192703247,-0.0479317381978035,0.3755236566066742,0.3519607484340668
1629456671089,0.3752986192703247,-0.0639891177415847,0.3755236566066742,0.3519607484340668
1629456671196,0.5434256792068481,-0.0776707977056503,0.3755236566066742,0.3519607484340668
1629456671308,0.4936208426952362,-0.0952453091740608,0.3755236566066742,0.3519607484340668
1629456671445,0.4506900608539581,-0.1154711470007896,0.3755236566066742,0.3519607484340668
1629456671519,0.4137387871742248,-0.1363216638565063,0.3755236566066742,0.3519607484340668
1629456671585,0.38287353515625,-0.1557921171188354,0.6580151319503784,0.3519607484340668
1629456671660,0.3597379624843597,-0.2201191931962967,0.5834192037582397,0.3519607484340668
1629456671781,0.3475143015384674,-0.2743216454982757,0.5305023789405823,0.3519607484340668
1629456671936,0.3475143611431122,-0.3394310474395752,0.4883047640323639,0.3519607484340668
1629456672006,0.3595125377178192,-0.4012655317783355,0.3338125050067901,-0.1253026127815246
1629456672120,0.3072801828384399,-0.4327512085437774,0.1511989384889602,-0.1654334515333175
1629456672181,0.3193883299827575,-0.4191696345806122,-0.0602961480617523,-0.2013647854328155
1629456672306,0.3409986793994903,-0.3795118629932403,-0.1009661257266998,-0.2299287021160125
1629456672421,0.3431910574436188,-0.3397224843502044,-0.1366356015205383,-0.2487243860960006
1629456672533,0.3337641358375549,-0.3203999698162079,-0.1631395667791366,-0.2527306079864502
1629456672616,0.3259790539741516,-0.3224021196365356,-0.1774337440729141,-0.2260254323482513
1629456672715,0.3241499066352844,-0.3305445313453674,-0.1781297028064727,-0.17491415143013
1629456672805,0.33238685131073,-0.3257773518562317,-0.1694398671388626,-0.125530332326889
1629456672897,0.348132312297821,-0.3018662929534912,-0.1619297862052917,-0.0988242700695991
1629456672986,0.3668293952941894,-0.2644649446010589,-0.1638682931661605,-0.0944893956184387
1629456673111,0.3842701613903045,-0.2265862822532653,-0.1751143187284469,-0.1009487211704254
1629456673271,0.4030338823795318,-0.1928823143243789,-0.2045629173517227,-0.1037788689136505
1629456673333,0.426854133605957,-0.1648376882076263,-0.2421885579824447,-0.0992847830057144
1629456673451,0.4529898762702942,-0.1413534879684448,-0.2750585675239563,-0.0780422165989875
1629456673500,0.4698730111122131,-0.1252061575651168,-0.2981118261814117,-0.0462854579091072
1629456673638,0.4616316854953766,-0.1233799532055854,-0.3126257956027984,-0.0118223400786519
1629456673746,0.4486021995544433,-0.1399816274642944,-0.3196878433227539,0.0073654730804264
1629456673823,0.4400050938129425,-0.1716954261064529,-0.3163334131240845,0.0287821292877197
1629456673984,0.4457876980304718,-0.2053500115871429,-0.2894681990146637,0.0511963292956352
1629456674049,0.4655154645442962,-0.2191280275583267,-0.2225964814424514,0.0720149874687194
1629456674153,0.4902675747871399,-0.2022751569747924,-0.1295308619737625,0.0817343220114708
1629456674223,0.5134692788124084,-0.1688866168260574,-0.0450572818517684,0.0735183209180831
1629456674333,0.5330774188041687,-0.1448571532964706,0.0096901645883917,0.0523849837481975
1629456674452,0.5510608553886414,-0.1448489874601364,0.0352181643247604,0.0390777215361595
1629456674515,0.5719131827354431,-0.1650026887655258,0.0438343659043312,0.051199235022068
1629456674701,0.6036497354507446,-0.1885486543178558,0.0465969741344451,0.0880936682224273
1629456674789,0.6036497354507446,-0.2032378613948822,0.0460494123399257,0.1316661685705185
1629456674906,0.6036497354507446,-0.2047097980976104,0.0417925156652927,0.1316661685705185
1629456675034,0.6036497354507446,-0.1955831050872802,0.0362339094281196,0.1316661685705185
1629456675086,0.6036497354507446,-0.1785866618156433,0.0358087494969368,0.1316661685705185
1629456675291,0.6036497354507446,-0.1544195115566253,0.0472035817801952,0.1316661685705185
1629456675356,0.6036497354507446,-0.1271355301141739,0.071716271340847,0.1316661685705185
1629456675412,0.6036497354507446,-0.1051333770155906,0.1033534184098243,0.1316661685705185
1629456675450,0.6036497354507446,-0.0941578596830368,0.1307272166013717,0.1316661685705185
1629456675574,0.6036497354507446,-0.0969454571604728,0.1406286805868148,0.1316661685705185
1629456675677,0.6036497354507446,-0.1096914634108543,0.1306320577859878,0.1316661685705185
1629456675762,0.6036497354507446,-0.1203917115926742,0.1089986637234687,0.1316661685705185
1629456675884,0.6036497354507446,-0.1164283901453018,0.0890001729130745,0.1316661685705185
1629456675955,0.6036497354507446,-0.0985416620969772,0.0793632045388221,0.1316661685705185
1629456676060,0.6036497354507446,-0.0783484876155853,0.0838658958673477,0.1316661685705185
1629456676223,0.6036497354507446,-0.0609713941812515,0.1076321005821228,0.1316661685705185
1629456676332,0.6036497354507446,-0.0412755794823169,0.1567067354917526,0.1316661685705185
1629456676397,0.6036497354507446,-0.018938073888421,0.2242201715707779,0.1316661685705185
1629456676470,0.6036497354507446,-0.0029316474683582,0.2915515899658203,0.1316661685705185
1629456676565,0.6036497354507446,-0.0013071462744846,0.3408212959766388,0.1316661685705185
1629456676682,0.6036497354507446,-0.0142902256920933,0.3646549582481384,0.1316661685705185
1629456676785,0.6036497354507446,-0.0335979200899601,0.3655081391334533,0.1316661685705185
1629456676901,0.6036497354507446,-0.0462066195905208,0.3519757688045501,0.1316661685705185
1629456676998,0.6036497354507446,-0.0455717854201793,0.3332389593124389,0.1316661685705185
1629456677081,0.6036497354507446,-0.0374121069908142,0.3147827386856079,0.1316661685705185
1629456677196,0.6036497354507446,-0.0356477163732051,0.2964346408843994,0.1316661685705185
1629456677277,0.6036497354507446,-0.0502640306949615,0.2785297036170959,0.1316661685705185
1629456677378,0.6036497354507446,-0.079171173274517,0.2633575201034546,0.1316661685705185
1629456677518,0.6036497354507446,-0.1068574488162994,0.2529041171073913,0.1316661685705185
1629456677607,0.6036497354507446,-0.1185931488871574,0.243608146905899,0.1316661685705185
1629456677697,0.6036497354507446,-0.1200924962759018,0.2267310172319412,0.1316661685705185
1629456677793,0.6036497354507446,-0.1320229321718216,0.1908706426620483,0.1316661685705185
1629456677859,0.6036497354507446,-0.1644534915685653,0.1283250898122787,0.1316661685705185
1629456678018,0.6036497354507446,-0.2042268216609954,0.0426123663783073,0.1316661685705185
1629456678084,0.6036497354507446,-0.2255374193191528,-0.0423371642827987,0.1316661685705185
1629456678237,0.6036497354507446,-0.2165742516517639,-0.0913353115320205,0.1316661685705185
1629456678317,0.1874392032623291,-0.1887836754322052,-0.088986836373806,0.1316661685705185
1629456678501,0.1874392032623291,-0.1619209498167038,-0.0579299442470073,0.1316661685705185
1629456678573,0.1874392032623291,-0.1457440555095672,-0.0181815475225448,0.1316661685705185
1629456678632,0.1874392032623291,-0.1358549743890762,0.0429179221391677,0.1316661685705185
1629456678714,0.1874392032623291,-0.097211092710495,0.1403877884149551,0.1316661685705185
1629456678844,0.1874392032623291,-0.0088559743016958,0.2531934976577759,0.1316661685705185
1629456678908,0.1874392032623291,0.0996469482779502,0.2698815762996673,0.1316661685705185
1629456679031,0.1874392032623291,0.1826432347297668,0.2900254130363464,0.1316661685705185
1629456679133,0.1874392032623291,0.2233216762542724,0.3146003484725952,0.1316661685705185
1629456679218,0.1874392032623291,0.2308485060930252,0.3432089984416961,0.1316661685705185
1629456679348,0.1874392032623291,0.2255070805549621,0.3741438388824463,0.1316661685705185
1629456679447,0.1874392032623291,0.2220041453838348,0.4058909714221954,0.1316661685705185
1629456679504,0.1874392032623291,0.2208975851535797,0.4384008646011352,0.1316661685705185
1629456679637,0.1874392032623291,0.2170819193124771,0.4360750913619995,0.1316661685705185
1629456679717,0.1874392032623291,0.2102822959423065,0.4277993142604828,0.1316661685705185
1629456679833,0.1874392032623291,0.2044255882501602,0.4129778444766998,0.1316661685705185
1629456679944,0.1874392032623291,0.2082024067640304,0.3957677781581878,0.1316661685705185
1629456680048,0.1874392032623291,0.2347473204135894,0.3821387887001037,0.1316661685705185
1629456680115,0.1874392032623291,0.2982509732246399,0.3937779366970062,0.1316661685705185
1629456680225,0.1874392032623291,0.3763097524642944,0.3253535330295563,0.1316661685705185
1629456680327,0.1874392032623291,0.4325973689556122,0.1140171959996223,0.1316661685705185
1629456680455,0.1874392032623291,0.4498553276062011,0.1140171959996223,0.1316661685705185
1629456680541,0.1874392032623291,0.4319220185279846,0.1140171959996223,0.1316661685705185
1629456680630,0.1874392032623291,0.4288815557956695,0.1140171959996223,0.1316661685705185
1629456680779,0.1874392032623291,0.4463452696800232,0.1140171959996223,0.1316661685705185
1629456680878,0.1874392032623291,0.4765351414680481,0.1140171959996223,0.1316661685705185
1629456680927,0.1874392032623291,0.5116263031959534,0.1140171959996223,0.1316661685705185
1629456681104,0.1874392032623291,0.5508464574813843,0.1140171959996223,0.1316661685705185
1629456681153,0.1874392032623291,0.5958432555198669,0.1316138356924057,0.1316661685705185
1629456681238,0.1874392032623291,0.6468417644500732,0.1691919416189193,0.1316661685705185
1629456681320,0.1874392032623291,0.671140730381012,0.1691919416189193,0.1316661685705185
1629456681417,0.1874392032623291,0.6707326769828796,0.1691919416189193,0.1316661685705185
1629456681585,0.1874392032623291,0.6500531435012817,0.1691919416189193,0.1316661685705185
1629456681679,0.1874392032623291,0.5864763855934143,0.1691919416189193,0.1316661685705185
1629456681732,0.1874392032623291,0.456106424331665,0.1691919416189193,0.1316661685705185
1629456681840,0.1874392032623291,0.2540982067584991,0.1691919416189193,0.1316661685705185
1629456682002,0.1874392032623291,0.0561744421720504,0.1691919416189193,0.1316661685705185
1629456682080,0.1874392032623291,0.188811793923378,0.1691919416189193,0.1316661685705185
1629456682162,0.1874392032623291,0.378903180360794,0.1691919416189193,0.1316661685705185
1629456682282,0.1874392032623291,0.541965901851654,0.1691919416189193,0.1316661685705185
1629456682368,0.1874392032623291,0.6484351754188538,0.1691919416189193,0.1316661685705185
1629456682454,0.1874392032623291,0.7008079290390015,0.1691919416189193,0.1316661685705185
1629456682578,0.1874392032623291,0.7133260369300842,0.1691919416189193,0.1316661685705185
1629456682701,0.1874392032623291,0.7133260369300842,0.1691919416189193,0.1316661685705185
1629456682771,0.1874392032623291,0.7133260369300842,0.1691919416189193,0.1316661685705185
1629456682899,0.1874392032623291,0.731672465801239,0.1691919416189193,0.1316661685705185
1629456682988,0.1874392032623291,0.7257440686225891,0.1691919416189193,0.1316661685705185
1629456683076,0.1874392032623291,0.7222554087638855,0.5306194424629211,0.1316661685705185
1629456683175,0.1874392032623291,0.7210776805877686,0.7133113145828247,0.1316661685705185
1629456683290,0.1874392032623291,0.7225024104118347,0.80869460105896,0.1316661685705185
1629456683391,0.1874392032623291,0.7246739268302917,0.90988427400589,0.1316661685705185
1629456683507,0.1874392032623291,0.7222974300384521,0.979592502117157,0.1316661685705185
1629456683589,0.1874392032623291,0.7006967067718506,1.0005266666412354,0.1316661685705185
1629456683701,0.1874392032623291,0.6411951184272766,0.9530770182609558,0.1316661685705185
1629456683800,0.1874392032623291,0.534576416015625,0.9027348160743712,0.1316661685705185
1629456684031,0.1874392032623291,0.3886928558349609,0.8538481593132019,0.1316661685705185
1629456684099,0.1874392032623291,0.2418267130851745,0.8138271570205688,0.1316661685705185
1629456684164,0.1874392032623291,0.157189205288887,0.7919057607650757,0.1316661685705185
1629456684225,0.1874392032623291,0.2002218216657638,0.7888689637184143,0.1316661685705185
1629456684336,0.1874392032623291,0.2298457771539688,0.7924898266792297,0.1316661685705185
1629456684399,0.1874392032623291,0.2416418343782425,0.7885337471961975,0.1316661685705185
1629456684480,0.1874392032623291,0.2593191266059875,0.771846354007721,0.1316661685705185
1629456684546,0.1874392032623291,0.2642847895622253,0.7294759750366211,0.1316661685705185
1629456684750,0.1874392032623291,0.2635194063186645,0.6541731953620911,0.1316661685705185
1629456684832,0.1874392032623291,0.2588367462158203,0.5584743618965149,0.1316661685705185
1629456684913,0.1874392032623291,0.2488488554954528,0.4582166671752929,0.1316661685705185
1629456684991,0.1874392032623291,0.2339385449886322,0.4323586225509643,0.1316661685705185
1629456685065,0.1874392032623291,0.2171698659658432,0.3778061866760254,0.1316661685705185
1629456685208,0.1874392032623291,0.2013748437166214,0.3584309220314026,0.1316661685705185
1629456685321,0.1874392032623291,0.186769038438797,0.389046162366867,0.1316661685705185
1629456685401,0.1874392032623291,0.1723748445510864,0.447401612997055,0.1316661685705185
1629456685507,0.1874392032623291,0.1535848826169967,0.4963166415691376,0.1316661685705185
1629456685615,0.1874392032623291,0.1225626617670059,0.5089607238769531,0.1316661685705185
1629456685695,0.1874392032623291,0.0766408890485763,0.4785501062870025,0.1316661685705185
1629456685828,0.1874392032623291,0.0274610910564661,0.4188742935657501,0.1316661685705185
1629456685966,0.1874392032623291,-0.0004055433964822,0.3592588901519775,0.1316661685705185
1629456686035,0.1874392032623291,0.0065961135551333,0.32468381524086,0.1316661685705185
1629456686156,0.1874392032623291,0.032845314592123,0.3161090612411499,0.1316661685705185
1629456686233,0.1874392032623291,0.0610342472791671,0.3243044018745422,0.1316661685705185
1629456686329,0.1874392032623291,0.0922549590468406,0.344593197107315,0.1316661685705185
1629456686465,0.1874392032623291,0.1392730474472046,0.3726891577243805,0.1316661685705185
1629456686621,0.1874392032623291,0.2034860253334045,0.3973313271999359,0.1316661685705185
1629456686762,0.1874392032623291,0.2731293439865112,0.4176930487155914,0.1316661685705185
1629456686831,0.1874392032623291,0.3314125835895538,0.4225665628910064,0.1316661685705185
1629456686972,0.1874392032623291,0.3697544932365417,0.394983172416687,0.1316661685705185
1629456687047,0.1874392032623291,0.3872895538806915,0.3264705836772918,0.1316661685705185
1629456687102,0.1874392032623291,0.3892323970794678,0.2261805683374405,0.1316661685705185
1629456687156,0.1874392032623291,0.3826909959316253,0.1224552392959594,0.1316661685705185
1629456687272,0.1874392032623291,0.3748889565467834,0.0687614604830741,0.1316661685705185
1629456687371,0.1874392032623291,0.3703259825706482,0.0675055980682373,0.1316661685705185
1629456687454,0.1874392032623291,0.3696316182613373,0.0915028154850006,0.1316661685705185
1629456687561,0.1874392032623291,0.3708325326442718,0.1212796047329902,0.1316661685705185
1629456687705,0.1874392032623291,0.3716415762901306,0.1458979398012161,0.1316661685705185
1629456687793,0.1874392032623291,0.369539350271225,0.1470595300197601,0.1316661685705185
1629456687868,0.1874392032623291,0.3601422607898712,0.1114435046911239,0.1316661685705185
1629456687932,0.1874392032623291,0.3368858397006988,0.038715660572052,0.1316661685705185
1629456688066,0.1874392032623291,0.2951794862747192,-0.0475761629641056,0.1316661685705185
1629456688153,0.1874392032623291,0.2351146936416626,-0.0610969178378582,0.1316661685705185
1629456688254,0.1874392032623291,0.1656337976455688,-0.0480748079717159,0.1316661685705185
1629456688362,0.1874392032623291,0.0997758209705352,0.0153948469087481,0.1316661685705185
1629456688482,0.1874392032623291,0.0518106222152709,0.1298102140426635,0.1316661685705185
1629456688548,0.1874392032623291,0.029140580445528,0.2620271146297455,0.1316661685705185
1629456688662,0.1874392032623291,0.026913333684206,0.3922082483768463,0.1316661685705185
1629456688770,0.1874392032623291,0.0291565619409084,0.4889519214630127,0.1316661685705185
1629456688846,0.1874392032623291,0.0193556677550077,0.5432419776916504,0.1316661685705185
1629456689047,0.1874392032623291,-0.0095107005909085,0.5630833506584167,0.1316661685705185
1629456689119,0.1874392032623291,-0.0539825819432735,0.5641177892684937,0.1316661685705185
1629456689173,0.1874392032623291,-0.1023288667201995,0.561295211315155,0.1316661685705185
1629456689284,0.1874392032623291,-0.1393888443708419,0.5628893375396729,0.1316661685705185
1629456689370,0.1874392032623291,-0.1570688188076019,0.5726646184921265,0.1316661685705185
1629456689450,0.1874392032623291,-0.1601949036121368,0.5912765860557556,0.1316661685705185
1629456689577,0.1874392032623291,-0.1593730896711349,0.6145204901695251,0.1316661685705185
1629456689700,0.1874392032623291,-0.163859874010086,0.6356879472732544,0.1316661685705185
1629456689774,0.1874392032623291,-0.1800713092088699,0.6460826396942139,0.1316661685705185
1629456689893,0.1874392032623291,-0.2050921320915222,0.6578363180160522,0.1316661685705185
1629456689994,0.1874392032623291,-0.2198787033557891,0.6514732241630554,0.1316661685705185
1629456690051,0.1874392032623291,-0.1785941869020462,0.6173516511917114,0.1316661685705185
1629456690184,0.1874392032623291,-0.0772417113184928,0.5498344302177429,0.1316661685705185
1629456690289,0.1874392032623291,0.0329382345080375,0.4605728089809418,0.1316661685705185
1629456690415,0.1874392032623291,0.1077079400420188,0.3838814496994018,0.1316661685705185
1629456690501,0.1874392032623291,0.1562278717756271,0.3581075072288513,0.1316661685705185
1629456690589,0.1874392032623291,0.1799139976501464,0.3844130337238312,0.1316661685705185
1629456690663,0.1874392032623291,0.2052280455827713,0.4313990473747253,0.1316661685705185
1629456690802,0.1874392032623291,0.2313974946737289,0.4788360297679901,0.1316661685705185
1629456690937,0.1874392032623291,0.2583641111850738,0.5153914093971252,0.1316661685705185
1629456691014,0.1874392032623291,0.2864783108234405,0.5153914093971252,0.1316661685705185
1629456691082,0.1874392032623291,0.3123996555805206,0.5153914093971252,0.1316661685705185
1629456691167,0.1874392032623291,0.3158694803714752,0.5153914093971252,0.1316661685705185
1629456691272,0.1874392032623291,0.3183505535125732,0.5153914093971252,0.1316661685705185
1629456691413,0.1874392032623291,0.3207093775272369,0.5153914093971252,0.1316661685705185
1629456691533,0.1874392032623291,0.3138054013252258,0.5153914093971252,0.1316661685705185
1629456691619,0.1874392032623291,0.2763286530971527,0.5153914093971252,0.1316661685705185
1629456691713,0.1874392032623291,0.1915221661329269,0.5153914093971252,0.1316661685705185
1629456691802,0.1874392032623291,0.0598609521985054,0.5153914093971252,0.1316661685705185
1629456691910,0.1874392032623291,-0.0798923224210739,-0.2973821461200714,0.1316661685705185
1629456692032,0.1874392032623291,-0.2153088599443435,-0.3142320513725281,0.1316661685705185
1629456692136,0.1874392032623291,-0.2241508364677429,-0.1622961163520813,0.1316661685705185
1629456692212,0.1874392032623291,-0.2044078111648559,0.1068684607744216,0.1316661685705185
1629456692327,0.1874392032623291,-0.1570304185152053,0.3362966775894165,0.1316661685705185
1629456692459,0.1874392032623291,-0.1067686676979065,0.4781097173690796,0.1316661685705185
1629456692517,0.1874392032623291,-0.0746935456991195,0.540242612361908,0.1316661685705185
1629456692627,0.1874392032623291,-0.0966725200414657,0.5523741245269775,0.1316661685705185
1629456692738,0.1874392032623291,-0.0851795300841331,0.5521698594093323,0.1316661685705185
1629456692827,0.1874392032623291,-0.0463901050388813,0.576680064201355,0.1316661685705185
1629456692925,0.1874392032623291,0.0254886988550424,0.6267092823982239,0.1316661685705185
1629456693009,0.1874392032623291,0.1085260212421417,0.674819827079773,0.1316661685705185
1629456693101,0.1874392032623291,0.1760027110576629,0.7248093485832214,0.1316661685705185
1629456693265,0.1874392032623291,0.2149613350629806,0.7501755356788635,0.1316661685705185
1629456693356,0.1874392032623291,0.2294108718633651,0.7783564329147339,0.1316661685705185
1629456693458,0.1874392032623291,0.2371419370174408,0.80949866771698,0.1316661685705185
1629456693625,0.1874392032623291,0.2647614181041717,0.8421406745910645,0.1316661685705185
1629456693683,0.1874392032623291,0.3263953924179077,0.8709675073623657,0.1316661685705185
1629456693720,0.1874392032623291,0.4026256501674652,0.8859384059906006,0.1316661685705185
1629456693852,0.1874392032623291,0.4623939990997314,0.975848913192749,0.1316661685705185
1629456693967,0.1874392032623291,0.4933183193206787,1.0143311023712158,0.1316661685705185
1629456694047,0.1874392032623291,0.5039413571357727,1.023423671722412,0.1316661685705185
1629456694115,0.1874392032623291,0.5121050477027893,1.0500411987304688,0.1316661685705185
1629456694260,0.1874392032623291,0.5237905979156494,1.08566415309906,0.1316661685705185
1629456694377,0.1874392032623291,0.5286874175071716,1.114832043647766,0.1316661685705185
1629456694480,0.1874392032623291,0.5182077884674072,1.1301424503326416,0.1316661685705185
1629456694556,0.1874392032623291,0.4985956251621246,1.141709327697754,0.1316661685705185
1629456694668,0.1874392032623291,0.485828548669815,1.174610257148743,0.1316661685705185
1629456694737,0.1874392032623291,0.4890815019607544,1.174610257148743,0.1316661685705185
1629456694915,0.1874392032623291,0.5018845796585083,1.174610257148743,0.1316661685705185
1629456695000,0.1874392032623291,0.5106263160705566,1.174610257148743,0.1316661685705185
1629456695106,0.1874392032623291,0.5021791458129883,1.174610257148743,0.1316661685705185
1629456695167,0.1874392032623291,0.4669248163700104,1.174610257148743,0.1316661685705185
1629456695248,0.1874392032623291,0.402904599905014,1.174610257148743,0.1316661685705185
1629456695343,0.1874392032623291,0.3288773596286773,1.174610257148743,0.1316661685705185
1629456695446,0.1874392032623291,0.2753101289272308,1.174610257148743,0.1316661685705185
1629456695555,0.1874392032623291,0.2543091177940368,1.174610257148743,0.1316661685705185
1629456695674,0.1874392032623291,0.2429370284080505,1.174610257148743,0.1316661685705185
1629456695776,0.1874392032623291,0.22802734375,0.5764226913452148,0.1316661685705185
1629456695849,0.1874392032623291,0.2281149476766586,0.5826421976089478,0.1316661685705185
1629456695958,0.1874392032623291,0.2574034631252289,0.6353490352630615,0.1316661685705185
1629456696052,0.1874392032623291,0.2957812845706939,0.6855906248092651,0.1316661685705185
1629456696150,0.1874392032623291,0.3157550394535064,0.7047470211982727,0.1316661685705185
1629456696264,1.020474195480347,0.312806636095047,0.6943942904472351,0.1316661685705185
1629456696376,0.9834384322166444,0.3085515201091766,0.6761983633041382,0.7144268751144409
1629456696487,0.9764236211776732,0.3246529400348663,0.6683124899864197,0.6486019492149353
1629456696557,0.9847933650016784,0.3560015559196472,0.6687996983528137,0.5861045718193054
1629456696691,0.9850366115570068,0.3812711834907532,0.6667466759681702,0.5266712307929993
1629456696776,0.9691924452781676,0.3922707736492157,0.6604699492454529,0.474853903055191
1629456697002,0.9417165517807008,0.39273601770401,0.6555168628692627,0.4325334429740906
1629456697056,0.9417165517807008,0.3920394480228424,0.6564638018608093,0.3997011184692383
1629456697115,0.9417165517807008,0.3928948044776916,0.6547901034355164,0.374103307723999
1629456697154,0.9417165517807008,0.3942180275917053,0.6530100703239441,0.0695742666721344
1629456697276,0.9417165517807008,0.3900722861289978,0.6496209502220154,0.0730853527784347
1629456697379,0.9417165517807008,0.3728701174259186,0.640412449836731,0.1126279681921005
1629456697494,0.9205629229545592,0.3393507301807403,0.6267397999763489,0.1126279681921005
1629456697618,0.8907060623168945,0.3010170459747314,0.6220893263816833,0.1126279681921005
1629456697681,0.8726146221160889,0.2872841358184814,0.6441898941993713,0.0812993347644805
1629456697782,0.8799592852592468,0.276125431060791,0.6971166133880615,0.0476668998599052
1629456697919,0.8955563306808472,0.2687841951847076,0.7679615616798401,0.0115718320012092
1629456698033,0.8838267922401428,0.2465752363204956,0.8454770445823669,-0.0131154572591185
1629456698110,0.8838267922401428,0.3016790449619293,0.9172839522361756,-0.0076455711387097
1629456698239,0.8838267922401428,0.3610998094081878,0.9720034003257751,0.0274474993348121
1629456698317,0.8838267922401428,0.3673005402088165,1.0035059452056885,0.0743066817522049
1629456698401,0.8838267922401428,0.3870026469230652,1.0135599374771118,0.1224866211414337
1629456698502,0.8838267922401428,0.397586852312088,1.0099505186080933,0.1682825237512588
1629456698581,0.8838267922401428,0.3965330123901367,1.0022019147872925,0.1682825237512588
1629456698734,0.8838267922401428,0.4034940004348755,0.9959466457366944,0.1682825237512588
1629456698842,0.8838267922401428,0.430631011724472,0.991892397403717,0.1682825237512588
1629456698936,0.8838267922401428,0.4697624444961548,0.9862311482429504,0.1682825237512588
1629456699015,0.8838267922401428,0.5033589005470276,0.974151849746704,0.1682825237512588
1629456699094,0.8838267922401428,0.5178002715110779,0.9535648226737976,0.1682825237512588
1629456699211,0.8838267922401428,0.5034032464027405,0.9235082268714904,0.1682825237512588
1629456699368,0.8838267922401428,0.4782231152057647,0.8815447092056274,0.5377215147018433
1629456699465,0.8838267922401428,0.4551260471343994,0.8201080560684204,0.494047075510025
1629456699535,0.8838267922401428,0.4335646629333496,0.7231130599975586,0.4555741250514984
1629456699610,0.8838267922401428,0.360842615365982,0.57851642370224,0.4311451017856598
1629456699728,0.8838267922401428,0.269059270620346,0.3912920653820038,0.4150508046150207
1629456699819,0.8838267922401428,0.2510584592819214,0.1976697444915771,0.3971972167491913
1629456699984,0.8838267922401428,0.2350685596466064,0.0584797449409961,0.3729132711887359
1629456700064,0.8838267922401428,0.2160796374082565,-0.0060043465346097,0.3469457328319549
1629456700183,0.8838267922401428,0.2029898911714553,-0.0321899205446243,0.3469457328319549
1629456700246,0.3947216868400574,0.1790954619646072,-0.0409828796982765,0.3469457328319549
1629456700355,0.4354437589645386,0.1318278908729553,-0.0392697937786579,0.3469457328319549
1629456700450,0.46143838763237,0.0607304461300373,-0.0392925180494785,0.3363706171512604
1629456700588,0.46143838763237,-0.0192445293068885,-0.0456549823284149,0.2958303987979889
1629456700657,0.46143838763237,-0.0789643004536628,-0.0485319048166275,0.252583771944046
1629456700767,0.46143838763237,-0.0578228682279586,-0.0081349350512027,0.2130611687898636
1629456700846,0.46143838763237,0.0755357295274734,0.1199172586202621,0.1846118718385696
1629456700921,0.46143838763237,0.248599037528038,0.2964997291564941,0.1735408753156662
1629456701022,0.46143838763237,0.3885513246059418,0.4482936561107635,0.1715275198221206
1629456701201,0.46143838763237,0.4071921408176422,0.5461435914039612,0.1549818813800811
1629456701331,0.46143838763237,0.4289923906326294,0.5940950512886047,0.1165203973650932
1629456701400,0.46143838763237,0.4403160214424133,0.6165770292282104,0.1165203973650932
1629456701488,0.508364200592041,0.4381877481937408,0.642301619052887,0.1165203973650932
1629456701537,0.5457773208618164,0.4355848729610443,0.6712051630020142,0.1165203973650932
1629456701658,0.5457773208618164,0.4343461394309997,0.6683081984519958,0.1165203973650932
1629456701789,0.5457773208618164,0.4340103566646576,0.6647996306419373,0.1165203973650932
1629456701884,0.5457773208618164,0.4334548413753509,0.6612882614135742,0.1165203973650932
1629456701979,0.5457773208618164,0.4328888356685638,0.6583514213562012,0.1165203973650932
1629456702130,0.5457773208618164,0.433640569448471,0.656924843788147,0.1165203973650932
1629456702209,0.5457773208618164,0.4388146996498108,0.6571106314659119,0.1165203973650932
1629456702289,0.5457773208618164,0.4353251159191131,0.650863766670227,0.1165203973650932
1629456702442,0.5457773208618164,0.3943343162536621,0.6159612536430359,0.1165203973650932
1629456702529,0.5457773208618164,0.2846102118492126,0.5259401798248291,0.1165203973650932
1629456702591,0.5457773208618164,0.0842275917530059,0.365848183631897,0.1165203973650932
1629456702668,0.5457773208618164,0.0814119428396225,0.1452198475599289,0.1165203973650932
1629456702761,0.5457773208618164,0.0695234015583992,-0.0742131024599075,0.1165203973650932
1629456702882,0.5457773208618164,0.0407233983278274,-0.0827229470014572,0.1165203973650932
1629456703017,0.5457773208618164,0.0389736890792846,-0.0957021042704582,0.1165203973650932
1629456703115,0.5457773208618164,0.0375879518687725,-0.1144170314073562,0.1165203973650932
1629456703180,0.5457773208618164,0.0337798185646534,-0.1225396394729614,0.1165203973650932
1629456703308,0.5457773208618164,0.029525825753808,-0.1321851760149002,0.1165203973650932
1629456703401,0.5457773208618164,0.0284319128841161,-0.1382730901241302,0.1165203973650932
1629456703530,0.5457773208618164,0.0328857339918613,-0.1217608973383903,0.1165203973650932
1629456703606,0.5457773208618164,0.0459881387650966,-0.0653423890471458,0.1165203973650932
1629456703673,0.5457773208618164,0.059415228664875,0.0112719973549246,0.1165203973650932
1629456703845,0.5457773208618164,0.0589894615113735,0.0719672217965126,0.1165203973650932
1629456703956,0.5457773208618164,0.0379428304731845,0.1006823554635047,0.1165203973650932
1629456704011,0.5457773208618164,0.004746479447931,0.1057003214955329,0.1165203973650932
1629456704080,0.5457773208618164,-0.0223210807889699,0.1040763854980468,0.1165203973650932
1629456704233,0.5457773208618164,-0.0355466976761817,0.104010984301567,0.1165203973650932
1629456704319,0.5457773208618164,-0.0433460809290409,0.1023516580462455,0.1165203973650932
1629456704414,0.5457773208618164,-0.0486346744000911,0.0987981930375099,0.1165203973650932
1629456704502,0.5457773208618164,-0.0453091003000736,0.0979480370879173,0.1165203973650932
1629456704678,0.5457773208618164,-0.0265869665890932,0.1029036864638328,0.1165203973650932
1629456704755,0.5457773208618164,0.0018719830550253,0.1139642596244812,0.1165203973650932
1629456704802,0.5457773208618164,0.028457649052143,0.1287094056606292,0.1165203973650932
1629456705013,0.5457773208618164,0.0454560443758964,0.1418381929397583,0.1165203973650932
1629456705066,0.5457773208618164,0.0495386607944965,0.1431732922792434,0.1165203973650932
1629456705121,0.5457773208618164,0.0371255874633789,0.1238618046045303,0.1165203973650932
1629456705205,0.5457773208618164,0.0044466303661465,0.087416224181652,0.1165203973650932
1629456705324,0.5457773208618164,-0.0453194417059421,0.0511315651237964,0.1165203973650932
1629456705436,0.5457773208618164,-0.0997025072574615,0.0338684096932411,0.1165203973650932
1629456705530,0.5457773208618164,-0.1411267220973968,0.038944274187088,0.1165203973650932
1629456705651,0.5457773208618164,-0.1583427786827087,0.0559657178819179,0.1165203973650932
1629456705745,0.5457773208618164,-0.1532243937253952,0.076516568660736,0.1165203973650932
1629456705821,0.5457773208618164,-0.1318428516387939,0.0965599790215492,0.1165203973650932
1629456705909,0.5457773208618164,-0.1039810553193092,0.1137688606977462,0.1165203973650932
1629456706033,0.5457773208618164,-0.084251083433628,0.1267565637826919,0.1165203973650932
1629456706137,0.5457773208618164,-0.0846414938569068,0.1406554877758026,0.1165203973650932
1629456706234,0.5457773208618164,-0.1034741774201393,0.1639424115419387,0.1165203973650932
1629456706349,0.5457773208618164,-0.1251556873321533,0.1977403163909912,0.1165203973650932
1629456706415,0.5457773208618164,-0.1324664801359176,0.2314107418060302,0.1165203973650932
1629456706550,0.5457773208618164,-0.1237657666206359,0.2537721693515777,0.1165203973650932
1629456706653,0.5457773208618164,-0.1140956804156303,0.2573927044868469,0.1165203973650932
1629456706754,0.5457773208618164,-0.1130759418010711,0.2406015843153,0.1165203973650932
1629456706882,0.5457773208618164,-0.1195711493492126,0.2085848003625869,0.1165203973650932
1629456706972,0.5457773208618164,-0.1274762600660324,0.1710695922374725,0.1165203973650932
1629456707020,0.5457773208618164,-0.1336622834205627,0.1379129439592361,0.1165203973650932
1629456707150,0.5457773208618164,-0.1388444602489471,0.112854965031147,0.1165203973650932
1629456707273,0.5457773208618164,-0.1456785798072815,0.0933144688606262,0.1165203973650932
1629456707353,0.5457773208618164,-0.1568024158477783,0.07913339138031,0.1165203973650932
1629456707492,0.5457773208618164,-0.1694794297218322,0.0740497410297393,0.1165203973650932
1629456707600,0.0687022879719734,-0.1618752479553222,0.0898041576147079,0.2086157947778701
1629456707689,0.2608735561370849,-0.1144736036658287,0.1395574063062667,0.1837469339370727
1629456707787,0.4360312521457672,-0.0428547449409961,0.2079422026872635,0.1642170399427414
1629456707873,0.4360312521457672,0.0193781983107328,0.2635203003883362,0.1642170399427414
1629456707993,0.4360312521457672,0.0575834922492504,0.2924532890319824,0.1642170399427414
1629456708070,0.4360312521457672,0.0790594071149826,0.3092066049575805,0.1642170399427414
1629456708264,0.4360312521457672,0.1105938553810119,0.3512178063392639,0.1642170399427414
1629456708321,0.4360312521457672,0.1665869802236557,0.4351856410503387,0.1642170399427414
1629456708372,0.4360312521457672,0.2335744649171829,0.532871425151825,0.1642170399427414
1629456708466,0.4360312521457672,0.2911469936370849,0.6111453175544739,0.1642170399427414
1629456708597,0.4360312521457672,0.3275421559810638,0.6576887369155884,0.1642170399427414
1629456708668,0.4360312521457672,0.3429267108440399,0.6776304244995117,0.1642170399427414
1629456708770,0.4864050149917602,0.3452087640762329,0.6842432618141174,0.1048475429415702
1629456708857,0.5616546869277954,0.3420347273349762,0.6885230541229248,0.0690694376826286
1629456708947,0.5616546869277954,0.3358630836009979,0.693598747253418,0.0690694376826286
1629456709114,0.5616546869277954,0.3216786682605743,0.6961805820465088,0.0690694376826286
1629456709219,0.5616546869277954,0.2945797741413116,0.687877357006073,0.0690694376826286
1629456709296,0.5616546869277954,0.2586415708065033,0.6650960445404053,0.0690694376826286
1629456709418,0.5616546869277954,0.2253443151712417,0.63433438539505,0.0690694376826286
1629456709497,0.5616546869277954,0.2034112215042114,0.611180305480957,0.0690694376826286
1629456709556,0.5616546869277954,0.2041889876127243,0.6163163185119629,0.0690694376826286
1629456709700,0.5616546869277954,0.2486165910959243,0.6717275381088257,0.0690694376826286
1629456709796,0.5616546869277954,0.3412784337997436,0.6508737206459045,0.0690694376826286
1629456709901,0.5616546869277954,0.4460030198097229,0.6018780469894409,0.0690694376826286
1629456710035,0.5616546869277954,0.5244181752204895,0.5383430123329163,0.0690694376826286
1629456710100,0.5616546869277954,0.5657095313072205,0.4903002381324768,0.0690694376826286
1629456710202,0.5616546869277954,0.5802238583564758,0.48056361079216,0.0690694376826286
1629456710332,0.5616546869277954,0.5847620368003845,0.5001164078712463,0.0690694376826286
1629456710450,0.5616546869277954,0.588302493095398,0.4976442456245422,0.0690694376826286
1629456710497,0.5616546869277954,0.591621994972229,0.4784114956855774,0.0690694376826286
1629456710645,0.5616546869277954,0.5946944952011108,0.4485010802745819,0.0690694376826286
1629456710703,0.5616546869277954,0.5968266129493713,0.4169695079326629,0.0690694376826286
1629456710823,0.5616546869277954,0.5966795086860657,0.3903809487819671,0.0690694376826286
1629456710907,0.5616546869277954,0.5946648120880127,0.3715853095054626,0.0690694376826286
1629456711036,0.5616546869277954,0.5935166478157043,0.3483568727970123,0.0690694376826286
1629456711115,0.1248149648308754,0.5919448733329773,0.2589874863624573,0.1805324554443359
1629456711199,0.2196912914514541,0.575948178768158,-0.2996772527694702,0.1805324554443359
1629456711334,0.296160876750946,0.5268273949623108,-0.1337743252515792,0.1805324554443359
1629456711380,0.296160876750946,0.4402425289154053,0.0727879405021667,0.1805324554443359
1629456711538,0.296160876750946,0.3376211822032928,0.2463041394948959,0.1805324554443359
1629456711618,0.296160876750946,0.2682932913303375,0.3685879707336426,0.1805324554443359
1629456711745,0.296160876750946,0.2639682590961456,0.473001629114151,0.1805324554443359
1629456711852,0.296160876750946,0.3036230504512787,0.5863569974899292,0.1805324554443359
1629456711950,0.296160876750946,0.3560241460800171,0.72114497423172,0.1805324554443359
1629456712016,0.296160876750946,0.4066443741321563,0.747472882270813,0.1805324554443359
1629456712131,0.296160876750946,0.4464204609394073,0.7777820229530334,0.1805324554443359
1629456712267,0.296160876750946,0.4716137051582336,0.8113105893135071,0.1805324554443359
1629456712322,0.355232298374176,0.4845884442329407,0.8479875326156616,0.1805324554443359
1629456712454,0.4134482145309448,0.4895554780960083,0.8883150815963745,0.1805324554443359
1629456712517,0.4134482145309448,0.4911983907222748,0.9329584240913392,0.1805324554443359
1629456712636,0.4134482145309448,0.4892537593841553,0.9821375608444214,0.1805324554443359
1629456712768,0.4134482145309448,0.4794187247753143,1.0344454050064087,0.1805324554443359
