timestamp,TP9,AF7,AF8,TP10
1629376437350,0.0,0.0,0.0,0.0
1629376437455,0.0,0.0,0.0,0.0
1629376437527,0.0,0.0,0.0,0.0
1629376437611,0.0,0.0,0.0,0.0
1629376437726,0.0,0.0,0.0,0.0
1629376437913,0.0,0.0,0.0,0.0
1629376437994,0.0,0.0,0.0,0.0
1629376438079,0.0,0.0,0.0,0.0
1629376438120,0.0,0.0,0.0,0.0
1629376438199,0.0,0.0,0.0,0.0
1629376438345,0.0,0.0,0.0,0.0
1629376438522,0.0,0.0,0.0,0.0
1629376438561,0.0,0.0,0.0,0.0
1629376438669,0.0,0.0,0.0,0.0
1629376438747,0.0,0.0,0.0,0.0
1629376438816,0.0,0.0,0.0,0.0
1629376438919,0.0,0.0,0.0,0.0
1629376439100,0.0,0.0,0.0,0.0
1629376439152,0.0,0.0,0.0,0.0
1629376439272,0.0,0.0,0.0,0.0
1629376439383,0.0,0.0,0.0,0.0
1629376439520,0.0,0.0,0.0,0.0
1629376439633,-0.0887442454695701,0.0,0.1021954268217086,0.3228049874305725
1629376439685,-0.0857568532228469,0.1026748269796371,0.1118833944201469,0.3130882680416107
1629376439776,-0.0722390115261077,0.0546469688415527,0.1050389036536216,0.3097354173660278
1629376439864,-0.05346604809165,0.013811020180583,0.0998052433133125,0.3121022284030914
1629376439971,-0.0342099368572235,-0.0155406119301915,0.1072536334395408,0.3154937922954559
1629376440125,-0.0193689670413732,-0.0354801639914512,0.1258874237537384,0.3165705502033233
1629376440216,-0.0164158809930086,-0.0532359592616558,0.1438957750797271,0.3151655793190002
1629376440436,-0.0274554006755352,-0.0754923745989799,0.1523428708314895,0.306911289691925
1629376440521,-0.0449572913348674,-0.1024791225790977,0.1499199271202087,0.2913866341114044
1629376440559,-0.0541773810982704,-0.1259458661079406,0.1413742303848266,0.2799644768238067
1629376440591,-0.0414876379072666,-0.1370168477296829,0.1301683485507965,0.2984206676483154
1629376440677,-0.0067739207297563,-0.1361961215734481,0.1168328151106834,0.3584628701210022
1629376440784,0.034070685505867,-0.1326190382242202,0.1115441247820854,0.4450510442256927
1629376440887,0.0695725306868553,-0.1620264500379562,0.0972099974751472,0.5279406905174255
1629376441082,0.0905269160866737,-0.2034902572631836,0.0751823037862777,0.5892213582992554
1629376441125,0.0944163650274276,-0.2404698878526687,0.0596450753509998,0.6248143911361694
1629376441247,0.0861303061246872,-0.2546561360359192,0.0951105579733848,0.6395962238311768
1629376441312,0.0727025046944618,-0.2453597486019134,0.2078249305486679,0.6398163437843323
1629376441374,0.0595656037330627,-0.2238034754991531,0.3494048416614532,0.6335410475730896
1629376441527,0.0495236180722713,-0.2044397443532943,0.4615725874900818,0.626278281211853
1629376441620,0.0446889400482177,-0.1960674822330474,0.5240548253059387,0.6201510429382324
1629376441773,0.0499680154025554,-0.195551797747612,0.5446138381958008,0.6174519062042236
1629376441874,0.0676693320274353,-0.1919519752264022,0.5429400205612183,0.620215892791748
1629376441944,0.0943944528698921,-0.1787910461425781,0.5362215042114258,0.6263721585273743
1629376442050,0.1347112655639648,-0.163108229637146,0.5303820371627808,0.6344588398933411
1629376442155,0.1373089700937271,-0.1566968113183975,0.5276237726211548,0.6528629660606384
1629376442192,0.1206407845020294,-0.1626031398773193,0.5292749404907227,0.6895200610160828
1629376442327,0.0879121795296669,-0.1756444424390792,0.5340406894683838,0.7346863746643066
1629376442459,0.0536634102463722,-0.1885384619235992,0.5387712121009827,0.7690746188163757
1629376442535,0.0368965975940227,-0.201086550951004,0.5411880016326904,0.7820622324943542
1629376442650,0.2144493907690048,-0.2169389873743057,0.5384610295295715,0.7781711220741272
1629376442764,0.246993750333786,-0.2397878319025039,0.5194236636161804,0.7704590559005737
1629376442854,0.2865254580974579,-0.2635159790515899,0.4649349451065063,0.7693153023719788
1629376442942,0.3279204964637756,-0.2738464176654815,0.3600744605064392,0.7818977236747742
1629376443083,0.3705334961414337,-0.261661946773529,0.2111972421407699,0.8179911375045776
1629376443196,0.7031433582305908,-0.2352137416601181,0.0709488615393638,0.8738307952880859
1629376443237,0.9059585332870485,-0.2078866511583328,0.0290327705442905,0.9303603172302246
1629376443361,1.022128939628601,-0.1858947277069091,0.1016034558415412,0.970209300518036
1629376443481,1.0840156078338623,-0.1591189056634903,0.2434509098529815,0.9910861253738404
1629376443590,1.1157455444335938,-0.1140690222382545,0.2673234939575195,1.0029573440551758
1629376443698,1.0842381715774536,-0.0514365844428539,0.2898663580417633,1.0148775577545166
1629376443745,1.056235432624817,0.0148552265018224,0.3083912134170532,1.0267479419708252
1629376443813,1.0328983068466189,0.0704865604639053,0.3247815370559692,1.0372880697250366
1629376444029,1.0182470083236694,0.0901534482836723,0.3450652360916137,1.0458800792694092
1629376444120,1.0128772258758545,0.1150226145982742,0.3741069138050079,1.056429147720337
1629376444169,1.0260021686553955,0.1457335799932479,0.4125921130180359,1.0694960355758667
1629376444319,1.0260021686553955,0.1587528884410858,0.4567294716835022,1.081398844718933
1629376444424,1.0260021686553955,0.1708238124847412,0.5046996474266052,1.089069962501526
1629376444607,1.0260021686553955,0.1773030757904052,0.5579884052276611,1.1100448369979858
1629376444683,1.0260021686553955,0.1770225912332534,0.5401840806007385,1.1200577020645142
1629376444720,0.9980534315109252,0.1819006651639938,0.5341225862503052,1.1157102584838867
1629376444842,0.9504697918891908,0.1918634176254272,0.5806450247764587,1.1029406785964966
1629376444901,0.9036588072776794,0.2086120992898941,0.5631693601608276,1.0972869396209717
1629376444977,0.8776018619537354,0.2223220318555832,0.5631693601608276,1.1107593774795532
1629376445082,0.8733280897140503,0.2176561057567596,0.5631693601608276,1.136659026145935
1629376445197,0.8826532363891602,0.1812919974327087,0.5631693601608276,1.1528127193450928
1629376445377,0.9042498469352722,0.1006174385547638,0.5631693601608276,1.140243411064148
1629376445420,0.9042498469352722,-0.0378670692443847,0.5631693601608276,1.0890098810195925
1629376445465,0.9042498469352722,-0.0378670692443847,0.5631693601608276,1.0039914846420288
1629376445739,0.9042498469352722,-0.0378670692443847,0.5631693601608276,1.0039914846420288
1629376445831,0.9042498469352722,-0.0378670692443847,0.5631693601608276,1.0039914846420288
1629376445901,0.9042498469352722,-0.0378670692443847,0.5631693601608276,1.0039914846420288
1629376446036,0.9042498469352722,-0.0378670692443847,0.5631693601608276,1.0039914846420288
1629376446123,0.9042498469352722,-0.0378670692443847,0.5631693601608276,1.0039914846420288
1629376446247,0.9042498469352722,-0.0378670692443847,0.5631693601608276,1.0039914846420288
1629376446311,0.9961702823638916,-0.0378670692443847,0.5631693601608276,1.0039914846420288
1629376446387,0.9601606130599976,-0.0378670692443847,0.5631693601608276,1.0039914846420288
1629376446437,0.957203209400177,-0.0378670692443847,0.5631693601608276,1.0039914846420288
1629376446472,0.9734477996826172,-0.0378670692443847,0.5631693601608276,1.0039914846420288
1629376446549,0.9892265200614928,-0.2976937294006347,0.5631693601608276,1.0039914846420288
1629376446670,0.9959160089492798,-0.0473048016428947,0.5631693601608276,1.214440941810608
1629376446773,1.004382848739624,0.3349362015724182,0.5631693601608276,1.2253273725509644
1629376446925,1.0260024070739746,0.6443536877632141,0.6298242807388306,1.23672616481781
1629376447080,1.0537619590759275,0.8431001305580139,0.7511330246925354,1.23672616481781
1629376447162,1.07081937789917,0.9471024870872498,0.8081924319267273,1.23672616481781
1629376447209,1.068294882774353,0.9471024870872498,0.8165959119796753,1.23672616481781
1629376447254,1.0504006147384644,0.9471024870872498,0.7946013808250427,1.23672616481781
1629376447347,1.014556884765625,0.9471024870872498,0.7589883208274841,1.23672616481781
1629376447494,0.984713613986969,0.9471024870872498,0.7207837700843811,1.23672616481781
1629376447609,0.9684070348739624,0.9047403931617736,0.6846926212310791,1.1810139417648315
1629376447701,0.958825945854187,0.8665434122085571,0.6546807289123535,1.1372243165969849
1629376447798,0.947245955467224,0.866387665271759,0.6323446035385132,1.101126194000244
1629376447856,0.9294473528862,0.8677150011062622,0.6155978441238403,1.0741056203842163
1629376447955,0.9079540967941284,0.8727103471755981,0.59991854429245,1.019677758216858
1629376448123,0.8905289173126221,0.8801096081733704,0.6039553284645081,0.9353718161582948
1629376448203,0.8801137208938599,0.8787550330162048,0.5939663052558899,0.8297162055969238
1629376448350,0.864305853843689,0.8430018424987793,0.5841531157493591,0.6981384754180908
1629376448418,0.8268855810165405,0.7689315676689148,0.5377233624458313,0.4988249242305755
1629376448527,0.7608217000961304,0.5754530429840088,0.4485243558883667,0.4988249242305755
1629376448621,0.6822752952575684,0.0936159268021583,0.3262993395328522,0.4988249242305755
1629376448683,0.6299775838851929,0.0936159268021583,0.204362541437149,0.4988249242305755
1629376448811,0.6263850331306458,0.0936159268021583,0.1265060305595398,0.4988249242305755
1629376448921,0.6523586511611938,0.0936159268021583,0.1066710129380226,0.4988249242305755
1629376449014,0.6843303442001343,0.0936159268021583,0.1243575364351272,0.4988249242305755
1629376449108,0.7197712063789368,0.1233402639627456,0.1601238995790481,0.5063639879226685
1629376449233,0.7619442343711853,0.1616653949022293,0.1882828176021576,0.5001066327095032
1629376449280,0.8102656602859497,0.2118719518184662,0.1861695945262909,0.4836137890815735
1629376449420,0.8586076498031616,0.2660420536994934,0.1861695945262909,0.5865718126296997
1629376449514,0.8355919718742371,0.2244342714548111,0.1861695945262909,0.6383473873138428
1629376449655,0.7480090260505676,0.1041565611958503,0.1861695945262909,0.6478234529495239
1629376449687,0.5821529626846313,-0.1134938672184944,0.1861695945262909,0.6332213282585144
1629376449782,0.3135910034179687,-0.4474609792232513,0.1087322384119033,0.6105639934539795
1629376450048,0.2515290379524231,-0.4304944574832916,0.0833193138241767,0.5773120522499084
1629376450111,0.2258088886737823,-0.3892422616481781,0.0463153980672359,0.5288861989974976
1629376450157,0.2309956401586532,-0.3519777059555053,0.0015928836073726,0.484808087348938
1629376450345,0.2428048104047775,-0.3301486670970917,-0.042504895478487,0.4438470005989074
1629376450439,0.2393802553415298,-0.3231110870838165,-0.0782897993922233,0.4087248146533966
1629376450595,0.2194759100675583,-0.3278847634792328,-0.1017116084694862,0.3811015188694
1629376450673,0.1947514861822128,-0.3418309688568115,-0.1141760945320129,0.3586732447147369
1629376450751,0.1772224754095077,-0.3614876866340637,-0.121376022696495,0.3382744491100311
1629376450860,0.1688769161701202,-0.3833824098110199,-0.1286979466676712,0.320422887802124
1629376450892,0.1646377295255661,-0.4022073149681091,-0.137872502207756,0.3112310767173767
1629376450923,0.1598009020090103,-0.4130917191505432,-0.14626045525074,0.2124384492635727
1629376451079,0.0997413992881774,-0.4353487193584442,-0.1862435936927795,0.1507662832736969
1629376451157,0.0634156465530395,-0.4286114573478699,-0.2109826505184173,0.1402986645698547
1629376451251,0.0550121925771236,-0.4163419306278229,-0.2230343222618103,0.1604246497154235
1629376451391,0.0683807879686355,-0.4125916361808777,-0.2182436734437942,0.1908874362707138
1629376451438,0.1018434166908264,-0.4162718653678894,-0.1861723214387893,0.233751893043518
1629376451563,0.1430685669183731,-0.4134656190872192,-0.1256386786699295,0.2843430936336517
1629376451720,0.1764444708824157,-0.3960362672805786,-0.0552031770348548,0.3286213278770447
1629376451813,0.1979417502880096,-0.3683769404888153,0.0044964388944208,0.3598916232585907
1629376451877,0.2150589227676391,-0.3762835562229156,0.04574865847826,0.3804871141910553
1629376451987,0.2504893839359283,-0.3765071332454681,0.0758539661765098,0.4118750691413879
1629376452049,0.3331645727157593,-0.3668317496776581,0.1220589503645896,0.4837455451488495
1629376452174,0.4566405713558197,-0.3474043309688568,0.2064987868070602,0.5997242331504822
1629376452236,0.5771058201789856,-0.3200279772281647,0.310162216424942,0.6227145791053772
1629376452315,0.6618000864982605,-0.2897879779338836,0.3986456394195556,0.6441603899002075
1629376452596,0.6840097904205322,-0.2627108693122864,0.455403208732605,0.6607382297515869
1629376452627,0.7095137238502502,-0.2416265457868576,0.4831579327583313,0.6737422943115234
1629376452658,0.7383574843406677,-0.2204193919897079,0.4937127232551574,0.688474714756012
1629376452768,0.7700549364089966,-0.1874832361936569,0.4970291554927826,0.6816880702972412
1629376452846,0.7781364321708679,-0.1344934254884719,0.4954724013805389,0.6783820986747742
1629376453002,0.7820448279380798,-0.1344934254884719,0.4887635111808777,0.6703037023544312
1629376453080,0.7777751684188843,-0.1344934254884719,0.4757610857486725,0.6529138088226318
1629376453158,0.7663518786430359,-0.1344934254884719,0.4580490887165069,0.6308691501617432
1629376453346,0.7538244128227234,-0.1344934254884719,0.4406149387359619,0.6131426095962524
1629376453392,0.7462382316589355,-0.4114928245544433,0.4291673898696899,0.6032298803329468
1629376453455,0.7362386584281921,-0.4388325810432434,0.4241620898246765,0.5825470685958862
1629376453549,0.700402557849884,-0.4708545506000519,0.4121681153774261,0.504233181476593
1629376453674,0.6098251938819885,-0.4883790612220764,0.3710536956787109,0.2636403739452362
1629376453814,0.4434305131435394,-0.4862143993377685,0.287680983543396,0.2472236603498459
1629376453879,0.1998349279165268,-0.4749746918678283,0.1696038395166397,0.2313766479492187
1629376454020,0.1718409806489944,-0.4681626856327057,0.0487176179885864,0.2155980467796325
1629376454098,0.1523650735616684,-0.4669583737850189,-0.0383419170975685,0.1982772201299667
1629376454160,0.1401461362838745,-0.4623906016349792,-0.0889830440282821,0.1797104328870773
1629376454317,0.1292675137519836,-0.4442732632160187,-0.1261571049690246,0.1501242220401764
1629376454395,0.0893417820334434,-0.4072456359863281,-0.1593882739543914,0.1068988516926765
1629376454520,0.0396660566329956,-0.3532488048076629,-0.1859033852815628,0.0540209673345088
1629376454598,-0.0004692522634286,-0.2868515253067016,-0.1954962313175201,0.0055004432797431
1629376454692,-0.0165391620248556,-0.2338491231203079,-0.1822996288537979,-0.026459464803338
1629376454786,-0.0203732904046773,-0.2014089375734329,-0.1516296565532684,-0.045704435557127
1629376455013,-0.0287590362131595,-0.1806903034448623,-0.1200184375047683,-0.0555352307856082
1629376455091,-0.0358962938189506,-0.1607465296983719,-0.1013736575841903,-0.0394926667213439
1629376455185,-0.0286366697400808,-0.1405003517866134,-0.0969541370868682,0.0196779016405344
1629376455278,-0.0073800268582999,-0.1274887770414352,-0.0940554291009903,0.1015931665897369
1629376455403,0.0157967135310173,-0.1256386935710907,-0.0776087045669555,0.1695478409528732
1629376455575,0.0335082150995731,-0.1310983449220657,-0.0432452261447906,0.2072857320308685
1629376455669,0.0471526458859443,-0.135260596871376,-0.0014635631814599,0.2223554104566574
1629376455700,0.0581411868333816,-0.1339745670557022,0.0349841229617595,0.2299290597438812
1629376455872,0.0660644546151161,-0.1296757161617279,0.0596007741987705,0.2389058321714401
1629376455903,0.0709795579314231,-0.1289553642272949,0.0776915848255157,0.2527665197849273
1629376455983,0.0731117576360702,-0.1362563520669937,0.0983437225222587,0.2720118761062622
1629376456077,0.0699862241744995,-0.1552962809801101,0.1236107349395752,0.2911408841609955
1629376456217,0.0581765994429588,-0.1843742877244949,0.1462726294994354,0.3069579601287842
1629376456295,0.0398079119622707,-0.2171159088611602,0.1580138355493545,0.3179773688316345
1629376456327,0.0221094787120819,-0.2457057237625122,0.15582275390625,0.3239897787570953
1629376456436,0.0107626989483833,-0.2701362371444702,0.1461943835020065,0.3240517675876617
1629376456498,0.0005917364032939,-0.2935731112957001,0.1411879956722259,0.3145277500152588
1629376456623,-0.0170168988406658,-0.3168242573738098,0.1476135849952697,0.2926362752914428
1629376456782,-0.0410752557218074,-0.3351907730102539,0.1591608673334121,0.2627249658107757
1629376456845,-0.0580623559653759,-0.3436914086341858,0.1647300720214843,0.2407518327236175
1629376456985,-0.0536611936986446,-0.3437008261680603,0.1605277806520462,0.2398506551980972
1629376457016,-0.028804961591959,-0.3416690230369568,0.1523525565862655,0.256557434797287
1629376457127,-0.0001346181816188,-0.3450848460197449,0.1472187042236328,0.2757123708724975
1629376457221,0.0198529846966266,-0.3574742972850799,0.1467467099428177,0.288147896528244
1629376457362,0.0312891751527786,-0.3752874135971069,0.1438726484775543,0.2907844185829162
1629376457469,0.0414972230792045,-0.3968594968318939,0.1325852274894714,0.2837182581424713
1629376457565,0.0537938512861728,-0.423550933599472,0.1167126893997192,0.2712913453578949
1629376457625,0.0636778622865676,-0.4576869010925293,0.1139733493328094,0.2603359222412109
1629376457806,0.0663252472877502,-0.4932630658149719,0.1401783376932144,0.2569018006324768
1629376457851,0.0614468790590763,-0.5194738507270813,0.1874713003635406,0.2628324329853058
1629376458133,0.0483746044337749,-0.5319752097129822,0.2303422838449478,0.2711369395256042
1629376458226,0.0276981033384799,-0.536369264125824,0.2491757720708847,0.2703854143619537
1629376458400,0.0069638877175748,-0.5382174849510193,0.2429666966199875,0.2561887502670288
1629376458494,-0.0024453767109662,-0.5382311940193176,0.2294860929250717,0.2320540696382522
1629376458525,0.0053943484090268,-0.5418301820755005,0.2371721714735031,0.2022841721773147
1629376458697,0.0226931180804967,-0.5514059662818909,0.2749311327934265,0.1697088778018951
1629376458776,0.0395366884768009,-0.5653112530708313,0.322898656129837,0.1355145573616027
1629376458842,0.0569372177124023,-0.575394332408905,0.357705146074295,0.105753868818283
1629376458889,0.0781558156013488,-0.5760257244110107,0.3731305599212646,0.0887622162699699
1629376458998,0.0991957262158393,-0.5616970658302307,0.3773504793643951,0.0911566317081451
1629376459045,0.1147827506065368,-0.522575855255127,0.3801001906394958,0.1147269010543823
1629376459154,0.1303023099899292,-0.4595502316951751,0.3824275434017181,0.1573342084884643
1629376459232,0.1561906486749649,-0.3919165730476379,0.3793399333953857,0.2028614580631256
1629376459295,0.1929641515016555,-0.3383201956748962,0.3691102266311645,0.2374275773763656
1629376459560,0.2322654873132705,-0.3045745193958282,0.3552383184432983,0.2558909654617309
1629376459607,0.2676730751991272,-0.2796999514102936,0.3498442471027374,0.2617899477481842
1629376459654,0.2968686521053314,-0.2477677315473556,0.3626461625099182,0.2614073157310486
1629376459685,0.3184278607368469,-0.2044062465429306,0.3900978863239288,0.261329174041748
1629376459811,0.33055180311203,-0.1589391827583313,0.4165557026863098,0.26646888256073
1629376459923,0.3309073746204376,-0.1213523373007774,0.4232894480228424,0.2786578238010406
1629376459970,0.31801238656044,-0.0973770543932914,0.400335282087326,0.2908216118812561
1629376460111,0.2917465269565582,-0.086769625544548,0.3555694818496704,0.2975571751594543
1629376460251,0.2539568841457367,-0.0857145115733146,0.3111812472343445,0.297320008277893
1629376460370,0.2100247144699096,-0.0903809964656829,0.2885500490665436,0.290946900844574
1629376460557,0.1696062386035919,-0.1004598438739776,0.2895543575286865,0.2784785330295563
1629376460651,0.1378005295991897,-0.121061660349369,0.300571084022522,0.259014219045639
1629376460682,0.1085738092660904,-0.154328390955925,0.316410094499588,0.2256973981857299
1629376460745,0.0752684101462364,-0.1937768906354904,0.3366754055023193,0.1791414618492126
1629376460844,0.0428138151764869,-0.2284259349107742,0.3571929037570953,0.1244972497224807
1629376460920,0.0207095835357904,-0.2534065842628479,0.3706596791744232,0.0716597661375999
1629376461060,0.0075605330057442,-0.2778686583042145,0.369044154882431,0.0280620250850915
1629376461138,-0.0037506823427975,-0.3157485723495483,0.3527983129024505,-0.003056340618059
1629376461232,-0.0136061962693929,-0.3709490895271301,0.333807110786438,-0.0298011004924774
1629376461310,-0.0139115788042545,-0.4353203475475311,0.3253446817398071,-0.0669497996568679
1629376461420,0.0076586604118347,-0.4958049952983856,0.3318621814250946,-0.1201171427965164
1629376461513,0.0585386157035827,-0.541288435459137,0.3482409715652466,-0.1581055521965026
1629376461716,0.1299777179956436,-0.5662837624549866,0.363090455532074,-0.1527504920959472
1629376461872,0.2049171924591064,-0.567416787147522,0.3696688711643219,-0.1082112416625022
1629376461954,0.2738952338695526,-0.542185366153717,0.3685348331928253,-0.0551784336566925
1629376461985,0.3416532576084137,-0.4949647188186645,0.3681362569332123,-0.0048572714440524
1629376462017,0.4120006859302521,-0.4358374178409576,0.3758354187011719,0.0488953031599521
1629376462126,0.4768257439136505,-0.3806734085083008,0.3837039470672607,0.1130801811814308
1629376462220,0.5243880152702332,-0.3414027392864227,0.3780177235603332,0.1760478615760803
1629376462298,0.5515087842941284,-0.3202701210975647,0.3535950779914856,0.2300317734479904
1629376462423,0.5654622316360474,-0.3111381232738495,0.3216972947120666,0.2750631868839264
1629376462533,0.5837507843971252,-0.3045967221260071,0.2986947894096374,0.3238094747066498
1629376462610,0.6186690330505371,-0.2943483293056488,0.2867197394371032,0.3920636177062988
1629376462876,0.6664056777954102,-0.2766512036323547,0.2697039544582367,0.4847833216190338
1629376463144,0.7101817727088928,-0.2487887293100357,0.2361135333776474,0.5812196731567383
1629376463238,0.7372680902481079,-0.2115592658519745,0.1909131556749344,0.6603614091873169
1629376463285,0.7481452226638794,-0.1678368002176284,0.1566124260425567,0.6833404898643494
1629376463410,0.7593066692352295,-0.1099553927779197,0.1416761875152588,0.7044676542282104
1629376463472,0.7689962983131409,0.021547395735979,0.1437202394008636,0.7246644496917725
1629376463628,0.7786155343055725,0.2280998677015304,0.1569800227880478,0.7465229630470276
1629376463691,0.7853479981422424,0.2469965666532516,0.1619418710470199,0.7703606486320496
1629376463722,0.7853437662124634,0.2639566957950592,0.1401514410972595,0.7938470840454102
1629376463785,0.7809603810310364,0.2810569405555725,0.0939734652638435,0.8160476684570312
1629376463925,0.7822108864784241,0.3017600774765014,0.0497518293559551,0.8415671586990356
1629376464006,0.798099160194397,0.3293314278125763,0.0340863689780235,0.8768916726112366
1629376464084,0.8284560441970825,0.3655476868152618,0.0361650884151458,0.9254891872406006
1629376464256,0.8578160405158997,0.4097192585468292,0.0232395660132169,0.9832342863082886
1629376464303,0.866210401058197,0.4594999551773071,-0.0164955910295248,0.9832342863082886
1629376464396,0.866210401058197,0.5126940608024597,-0.0164955910295248,0.9832342863082886
1629376464459,0.866210401058197,0.5701055526733398,-0.0164955910295248,0.9832342863082886
1629376464553,0.866210401058197,0.6380932331085205,-0.0164955910295248,0.9832342863082886
1629376464616,0.866210401058197,0.6371088027954102,-0.0164955910295248,0.9832342863082886
1629376464678,1.064605712890625,0.6165862083435059,-0.0164955910295248,0.9832342863082886
1629376464774,1.1069084405899048,0.5116068124771118,-0.0164955910295248,0.9832342863082886
1629376464868,1.122915744781494,-0.0128092486411333,-0.0164955910295248,0.9832342863082886
1629376464977,1.1115132570266724,-0.011249590665102,-0.0164955910295248,1.0365456342697144
1629376465071,1.0846505165100098,-0.0185844097286462,0.4184291362762451,1.0056376457214355
1629376465133,1.0590770244598389,-0.0378277711570262,0.3971938192844391,0.9794133305549622
1629376465336,1.043058156967163,-0.0646836161613464,0.3852995932102203,0.9794133305549622
1629376465383,1.0323866605758667,-0.0879028439521789,0.3705512583255768,0.9794133305549622
1629376465508,1.0202406644821167,-0.0995844826102256,0.3444602787494659,0.9494529366493224
1629376465649,1.0040102005004885,-0.0955585092306137,0.308778703212738,0.9259694814682008
1629376465808,0.9861847162246704,-0.0746281817555427,0.2705954909324646,0.9069250226020812
1629376465855,0.9698205590248108,-0.0427622683346271,0.234753280878067,0.8844216465950012
1629376465917,0.959651529788971,-0.0135467303916811,0.2025260478258133,0.8587666749954224
1629376466120,0.94831383228302,0.0027502430602908,0.1740572154521942,0.8359402418136597
1629376466183,0.9273373484611512,-0.00332249305211,0.1492974013090133,0.8206691145896912
1629376466214,0.8943376541137695,-0.0085005182772874,0.1292994767427444,0.7926096320152283
1629376466402,0.8530530333518982,-0.0154218012467026,0.0792204588651657,0.7493984699249268
1629376466464,0.8196064233779907,-0.025362180545926,0.0320474617183208,0.6996040344238281
1629376466558,0.8107511401176453,-0.0385844446718692,-0.0006312766345217,0.6578266620635986
1629376466651,0.820334792137146,-0.0499047711491584,-0.0254423394799232,0.628242552280426
1629376466776,0.8301917910575867,-0.0571518316864967,-0.0618861243128776,0.6086262464523315
1629376466858,0.8347337245941162,-0.0610847398638725,-0.1137325540184974,0.6243835687637329
1629376466920,0.8454080820083618,-0.0662840604782104,-0.1597618907690048,0.6585810780525208
1629376467029,0.8790498971939087,-0.0762046203017234,-0.1703892052173614,0.7214877009391785
1629376467139,0.9349450469017028,-0.0951208546757698,-0.1447926312685012,0.8123838305473328
1629376467186,0.9498153924942015,-0.1299008876085281,-0.1094717308878898,0.9025564193725586
1629376467420,0.9667133092880248,-0.1844294518232345,-0.0809946954250335,0.972011148929596
1629376467467,0.982928991317749,-0.2422347366809845,-0.0495993196964263,1.0133193731307983
1629376467545,0.9977368116378784,-0.2579032182693481,0.0159294288605451,1.0285303592681885
1629376467576,1.0127215385437012,-0.2039768099784851,0.119433157145977,1.0291141271591189
1629376467685,1.0294606685638428,-0.2083259373903274,0.1391993910074234,1.0461416244506836
1629376467877,1.0484519004821775,-0.2066782414913177,0.1541998386383056,1.0648281574249268
1629376467939,1.0671038627624512,-0.2038711011409759,0.1616378128528595,1.0880416631698608
1629376467986,1.084162950515747,-0.200021892786026,0.1645455658435821,1.1163252592086792
1629376468143,1.106813669204712,-0.1926818788051605,0.1720782816410064,1.1477946043014526
1629376468189,1.1443170309066772,-0.1782207787036895,0.1920479834079742,1.1805990934371948
1629376468294,1.1443170309066772,-0.1539475470781326,0.2232962250709533,1.2116776704788208
1629376468493,1.1443170309066772,-0.1200452521443367,0.2579533159732818,1.237188696861267
1629376468571,1.1443170309066772,-0.0791552737355232,0.2891684472560882,1.2435450553894043
1629376468696,1.1443170309066772,-0.0305666550993919,0.3189101219177246,1.2126121520996094
1629376468759,1.1443170309066772,0.0323741473257541,0.3611287772655487,1.1297838687896729
1629376468805,1.1443170309066772,0.0323741473257541,0.3611287772655487,1.1297838687896729
1629376468918,1.1443170309066772,0.0323741473257541,0.3611287772655487,1.1297838687896729
1629376469011,1.1443170309066772,0.0323741473257541,0.3611287772655487,1.1297838687896729
1629376469089,1.1443170309066772,0.0323741473257541,0.3611287772655487,1.1297838687896729
1629376469230,1.1443170309066772,0.4494460523128509,0.3611287772655487,1.1297838687896729
1629376469339,1.1443170309066772,0.4494460523128509,0.3611287772655487,1.1297838687896729
1629376469575,1.1443170309066772,0.4494460523128509,0.3611287772655487,1.1297838687896729
1629376469716,1.1443170309066772,0.4494460523128509,0.3611287772655487,1.1297838687896729
1629376469794,1.1443170309066772,0.4494460523128509,0.3611287772655487,1.1297838687896729
1629376469825,1.1443170309066772,0.4494460523128509,0.3611287772655487,1.1297838687896729
1629376469856,1.1443170309066772,0.4494460523128509,0.3611287772655487,1.1297838687896729
1629376469952,1.1443170309066772,0.4494460523128509,0.3611287772655487,1.1297838687896729
1629376470062,1.1443170309066772,0.4010912775993347,0.3611287772655487,1.1297838687896729
1629376470202,1.1443170309066772,0.3761109709739685,0.3611287772655487,1.1297838687896729
1629376470327,1.1443170309066772,0.3581733703613281,0.3611287772655487,1.1297838687896729
1629376470405,1.1443170309066772,0.3393742442131042,0.3611287772655487,1.1297838687896729
1629376470468,1.1443170309066772,0.3182708919048309,0.3611287772655487,1.1297838687896729
1629376470499,1.1443170309066772,0.3016261458396911,0.3611287772655487,1.1297838687896729
1629376470639,1.1443170309066772,0.2895314991474151,0.3611287772655487,1.1297838687896729
1629376470749,1.1443170309066772,0.2201729118824005,0.3611287772655487,1.1297838687896729
1629376470908,1.1443170309066772,0.2107805013656616,0.3611287772655487,1.1297838687896729
1629376470955,1.1443170309066772,0.197464719414711,0.3611287772655487,1.1297838687896729
1629376471049,1.1443170309066772,0.1863600462675094,0.3611287772655487,1.1297838687896729
1629376471158,1.1443170309066772,0.1741803288459777,0.3611287772655487,1.1297838687896729
1629376471236,0.1207344755530357,0.1569239497184753,0.1712936908006668,0.1610021889209747
1629376471564,0.0882464349269867,0.137461319565773,0.1219215467572212,0.144081100821495
1629376471627,0.0586005561053752,0.1247976496815681,0.1017918363213539,0.1253489255905151
1629376471720,0.0496908277273178,0.1248166784644126,0.1018344908952713,0.106153517961502
1629376471767,0.072444699704647,0.1311108320951461,0.1061577275395393,0.0899019390344619
1629376471892,0.1235034614801406,0.145426332950592,0.1009249910712242,0.0797179639339447
1629376471974,0.1856583952903747,0.1633552461862564,0.0834294036030769,0.0774499475955963
1629376472036,0.2396703660488128,0.1747620403766632,0.0628617852926254,0.0775386169552803
1629376472192,0.2738497257232666,0.1763220131397247,0.0575343817472457,0.0901467129588127
1629376472255,0.286806583404541,0.1756127029657364,0.0756184086203575,0.1227753460407257
1629376472349,0.2870008945465088,0.1836511641740799,0.1053149253129959,0.1655249446630478
1629376472411,0.2876451313495636,0.2001850754022598,0.1286409050226211,0.2032933682203292
1629376472505,0.3080537915229797,0.215259701013565,0.0866158306598663,0.2330616414546966
1629376472708,0.3333589136600494,0.2232316583395004,0.0855452641844749,0.2497706711292266
1629376472755,0.3549200892448425,0.2260916829109192,0.0938628315925598,0.2609897255897522
1629376472833,0.3691936433315277,0.2271226495504379,0.1095150336623191,0.2771183550357818
1629376472975,0.3769100606441498,0.2258336693048477,0.1370053589344024,0.3091213703155517
1629376473085,0.3809431791305542,0.2179296761751175,0.1739325672388076,0.3542788028717041
1629376473133,0.381521612405777,0.1999195665121078,0.2205790132284164,0.3974006772041321
1629376473198,0.3764711320400238,0.1748427748680114,0.2999891936779022,0.424682468175888
1629376473291,0.3632136285305023,0.1517684757709503,0.4152420163154602,0.432325005531311
1629376473401,0.3400340974330902,0.1385328769683838,0.5324316620826721,0.4275945127010345
1629376473510,0.3087922930717468,0.1336195766925811,0.6184075474739075,0.4189735651016235
1629376473635,0.2774265706539154,0.1268384009599685,0.6630029082298279,0.4060920774936676
1629376473729,0.2654036581516266,0.1123007014393806,0.6816691756248474,0.3855854272842407
1629376473822,0.2634919285774231,0.0884911566972732,0.6982800364494324,0.3716358840465545
1629376473901,0.2606186866760254,0.0578252859413623,0.7171680331230164,0.4038518369197845
1629376473994,0.2423832863569259,0.0280850138515234,0.7427299618721008,0.5084076523780823
1629376474119,0.2037405967712402,0.0060627916827797,0.7760063409805298,0.6417943835258484
1629376474198,0.5146493911743164,-0.0024831029586493,0.8149048686027527,0.7483941316604614
1629376474275,0.6331085562705994,0.0081510310992598,0.8565970063209534,0.8061312437057495
1629376474385,0.6692519783973694,0.0398056656122207,0.8996235728263855,0.8210983872413635
1629376474541,0.7049078941345215,0.0879104807972908,0.9441993832588196,0.8110038042068481
1629376474650,0.7461439967155457,0.1473582535982132,0.9208118319511414,0.7952004075050354
1629376474744,0.745830237865448,0.2032981067895889,0.868055522441864,0.7841517329216003
1629376474807,0.7410500049591064,0.2032981067895889,0.7617698311805725,0.781883716583252
1629376474900,0.734569787979126,0.2032981067895889,0.5708061456680298,0.7845492362976074
1629376475043,0.7314648628234863,0.2032981067895889,0.2593922615051269,0.7876806259155273
1629376475121,0.7355083227157593,0.2032981067895889,-0.2450004369020462,0.7895262241363525
1629376475200,0.7059201002120972,-0.7078036069869995,-0.2845897078514099,0.7900276780128479
1629376475309,0.6836697459220886,-0.7647181153297424,-0.3156022429466247,0.7845214605331421
1629376475403,0.6670910120010376,-0.7998076677322388,-0.340367317199707,0.7595788836479187
1629376475512,0.6579617261886597,-0.7749524116516113,-0.3352933228015899,0.6933975219726562
1629376475653,0.6567347049713135,-0.6778773069381714,-0.252751350402832,0.5696247220039368
1629376475762,0.5311746597290039,-0.5388911962509155,-0.1165081560611724,0.3919882178306579
1629376475828,0.4490040242671966,-0.4117325842380523,0.0084823668003082,0.2143452316522598
1629376476000,0.4384613335132599,-0.3202452361583709,0.1031790077686309,0.1313467621803283
1629376476078,0.4474992454051971,-0.2628367841243744,0.2268042117357254,0.1699025630950927
1629376476203,0.4472488164901733,-0.2252840995788574,0.4175188243389129,0.2710407376289367
1629376476265,0.4564217925071716,-0.1974146366119384,0.6114984750747681,0.3892645239830017
1629376476312,0.4607613980770111,-0.1774770766496658,0.6370289325714111,0.4880599081516266
1629376476437,0.4617431461811065,-0.1486892998218536,0.665494978427887,0.5524002313613892
1629376476562,0.4610033333301544,-0.1296331733465194,0.7194395661354065,0.5847378373146057
1629376476796,0.4586447179317474,-0.1104597076773643,0.7339767813682556,0.5972989797592163
1629376476871,0.4548575580120086,-0.0848454982042312,0.7377579212188721,0.6012837290763855
1629376476909,0.4514687657356262,-0.0566695556044578,0.7416245341300964,0.601131796836853
1629376477018,0.4485398530960083,-0.0315773002803325,0.750557005405426,0.5980244874954224
1629376477284,0.4446518421173095,-0.0097992699593305,0.7642422318458557,0.5930827856063843
1629376477362,0.4393645823001861,0.0095940958708524,0.7751414179801941,0.5878757238388062
1629376477393,0.4339823424816131,0.0216934978961944,0.7752984166145325,0.5830920338630676
1629376477565,0.4287958741188049,0.0208151526749134,0.7632909417152405,0.5793430209159851
1629376477612,0.4217743575572967,0.0079872570931911,0.7432875633239746,0.5738939642906189
1629376477706,0.4108230769634247,-0.0035661391448229,0.7072721719741821,0.5597080588340759
1629376477737,0.3998982310295105,0.0032427699770778,0.6303331255912781,0.5250988006591797
1629376477784,0.395904541015625,0.0298119001090526,0.4816836416721344,0.4615110456943512
1629376477901,0.4039050042629242,0.060435228049755,0.5211004614830017,0.3742397129535675
1629376477975,0.4225799143314361,0.0810962989926338,0.5387033820152283,0.2894974946975708
1629376478115,0.4464059174060821,0.0893262326717376,0.4953051507472992,0.2427750080823898
1629376478240,0.4697849154472351,0.088729403913021,0.4954903125762939,0.2417663633823394
1629376478400,0.4898733496665954,0.0821315422654151,0.5096445679664612,0.26359823346138
1629376478432,0.5043469667434692,0.0711337998509407,0.5185766220092773,0.2893573641777038
1629376478650,0.5117852687835693,0.0577657036483287,0.5127383470535278,0.3104216754436493
1629376478697,0.5089500546455383,0.0418108962476253,0.4939431846141815,0.3234745860099792
1629376478953,0.5026663541793823,0.0216366965323686,0.4745471477508545,0.3287879824638366
1629376479091,0.4885374307632446,-0.0004647796158678,0.4699792563915252,0.3351215720176697
1629376479231,0.471904456615448,-0.0165172014385461,0.4851401746273041,0.360474169254303
1629376479293,0.4622634947299957,-0.0206129346042871,0.508996307849884,0.4362528622150421
1629376479481,0.4672250151634216,-0.0210785884410142,0.5259443521499634,0.4424169957637787
1629376479559,0.4851811528205871,-0.0362147092819213,0.5296486020088196,0.4438595771789551
1629376479684,0.5085269808769226,-0.0763892084360122,0.5246486663818359,0.4423610866069793
1629376479753,0.5301567316055298,-0.130286157131195,0.5203529000282288,0.4434497654438019
1629376479936,0.5448393225669861,-0.1667385697364807,0.522527813911438,0.4503335058689117
1629376479999,0.5488336682319641,-0.1628659516572952,0.5282527208328247,0.6971462965011597
1629376480077,0.5406767725944519,-0.1295122653245926,0.5329675078392029,0.8628667593002319
1629376480202,0.5406767725944519,-0.0906809866428375,0.5381030440330505,0.9606450200080872
1629376480311,0.5406767725944519,-0.0604474544525146,0.5491437315940857,1.0123063325881958
1629376480405,0.5406767725944519,-0.0413033068180084,0.5678918361663818,1.0490895509719849
1629376480436,0.5406767725944519,-0.0316529311239719,0.5880687236785889,1.0933830738067627
1629376480467,0.5406767725944519,-0.0296597424894571,0.7131849527359009,1.145845890045166
1629376480592,0.5406767725944519,-0.0341804474592208,0.7115896940231323,1.2056477069854736
1629376480670,0.5406767725944519,-0.0435130596160888,0.6995800137519836,1.2694193124771118
1629376480813,0.5406767725944519,-0.056647952646017,0.6836816072463989,1.325810432434082
1629376480845,0.2812539637088775,-0.0719180181622505,0.6680724024772644,1.325810432434082
1629376480892,0.3061221837997436,-0.0870468541979789,0.6490564346313477,1.325810432434082
1629376480970,0.3294181525707245,-0.0987561121582984,0.6211023926734924,1.325810432434082
1629376481126,0.331385850906372,-0.1090458258986473,0.5862492918968201,1.325810432434082
1629376481188,0.3138983249664306,-0.1265718787908554,0.5531075596809387,1.325810432434082
1629376481329,0.2900623381137848,-0.1590732932090759,0.5283404588699341,1.325810432434082
1629376481376,0.2719403207302093,-0.1979653537273407,0.5118972659111023,1.325810432434082
1629376481454,0.2681469917297363,-0.2066238671541214,0.5103996396064758,1.325810432434082
1629376481516,0.2815733253955841,-0.1524102389812469,0.535748302936554,1.325810432434082
1629376481548,0.3029391467571258,-0.0590338520705699,0.5838331580162048,1.325810432434082
1629376481610,0.3173419237136841,0.0261111930012702,0.6318963766098022,0.0081748282536864
1629376481751,0.3162064850330353,0.081283114850521,0.5326849222183228,0.0001686120813246
1629376481847,0.2954091131687164,0.1092023029923439,0.5456435680389404,0.0028375422116369
1629376481956,0.274483323097229,0.1226038709282875,0.5444267392158508,0.0224638599902391
1629376482019,0.255004346370697,0.1305162608623504,0.5406245589256287,0.050311479717493
1629376482097,0.2274178117513656,0.1360438466072082,0.5362483263015747,0.0694540441036224
1629376482222,0.1871073544025421,0.1400086283683776,0.5308586955070496,0.0718756765127182
1629376482362,0.1430649310350418,0.1455104649066925,0.5260962843894958,0.0635237097740173
1629376482425,0.1193187981843948,0.1546955704689026,0.5243380069732666,0.0562312081456184
1629376482518,0.1302099227905273,0.1667214035987854,0.5256563425064087,0.0521638467907905
1629376482638,0.1632373034954071,0.1777295470237732,0.5278428792953491,0.0525454841554164
1629376482700,0.1944882124662399,0.1817474663257599,0.5256736874580383,0.0537682473659515
1629376482810,0.2053525745868683,0.1686221659183502,0.5072056651115417,0.0661876425147056
1629376482969,0.1859111487865448,0.1293829679489135,0.4549406170845032,0.080469012260437
1629376483032,0.1391302645206451,0.063135489821434,0.3557440638542175,0.1002266034483909
1629376483125,0.0823014229536056,-0.0165315717458724,0.2140907645225525,0.1264663189649582
1629376483219,0.0391376614570617,-0.0866308212280273,0.0658111572265625,0.157600924372673
1629376483406,0.020894419401884,-0.1313085556030273,-0.0228251516819,0.182829812169075
1629376483609,0.0253776367753744,-0.1561268270015716,-0.0309330355376005,0.2091154009103775
1629376483688,0.0494615845382213,-0.170862466096878,-0.0031315593514591,0.2482387721538543
1629376483719,0.0904506295919418,-0.1762306690216064,0.0223848614841699,0.3011985719203949
1629376483859,0.1374307423830032,-0.1696580201387405,0.0278212800621986,0.3528125584125519
1629376483891,0.1780886948108673,-0.1575090587139129,0.012517312541604,0.3880970180034637
1629376483937,0.2052948623895645,-0.1496926248073578,-0.014432824216783,0.4005692601203918
1629376484047,0.217835783958435,-0.1511290520429611,-0.0413895174860954,0.39949432015419
1629376484187,0.2154734879732132,-0.1598046422004699,-0.0601913817226886,0.3920460939407348
1629376484234,0.201745793223381,-0.1672406047582626,-0.0673836767673492,0.3826161623001098
1629376484313,0.1842857748270034,-0.1639512330293655,-0.0650907829403877,0.3740884959697723
1629376484437,0.1778774410486221,-0.1451927125453949,-0.0560305975377559,0.369512528181076
1629376484531,0.2022907733917236,-0.1081957519054412,-0.0429115779697895,0.3722179234027862
1629376484765,0.2623581886291504,-0.0573067925870418,-0.0244209896773099,0.3847527205944061
1629376484844,0.3389151394367218,-0.0014098689425736,0.0124041968956589,0.4023739993572235
1629376484875,0.4080104827880859,0.0533457547426223,0.0949347168207168,0.4220947027206421
1629376485033,0.4591158628463745,0.1080006659030914,0.2349639236927032,0.4328637421131134
1629376485127,0.4936980903148651,0.160771444439888,0.3909744620323181,0.4240313768386841
1629376485299,0.5153473019599915,0.201546162366867,0.51451176404953,0.3930409550666809
1629376485377,0.5264587998390198,0.2207840532064438,0.5902222394943237,0.3535563349723816
1629376485424,0.5282014012336731,0.2193586379289627,0.6234471797943115,0.3245562613010406
1629376485518,0.5263086557388306,0.2089616954326629,0.6317517161369324,0.322950005531311
1629376485564,0.5290113687515259,0.2024958729743957,0.6317485570907593,0.3381747901439667
1629376485627,0.5428665280342102,0.2045703381299972,0.6312674880027771,0.359031468629837
1629376485721,0.5654455423355103,0.2103787213563919,0.6324082612991333,0.3786119520664215
1629376485830,0.5891583561897278,0.2124599516391754,0.634427547454834,0.392275333404541
1629376486036,0.6051287055015564,0.2054154127836227,0.6355395317077637,0.3963797688484192
1629376486146,0.6056129336357117,0.1858396232128143,0.6343662142753601,0.3898705542087555
1629376486208,0.5857799053192139,0.1544500887393951,0.6310998201370239,0.3702891170978546
1629376486302,0.5473644137382507,0.1168874949216842,0.6251131296157837,0.3402777016162872
1629376486473,0.5012830495834351,0.0797924175858497,0.6106634736061096,0.3014778792858124
1629376486520,0.4606301784515381,0.0430473461747169,0.5762267112731934,0.2595987319946289
1629376486598,0.4320124983787536,0.0065776756964623,0.5141234397888184,0.2276654690504074
1629376486723,0.4143705368041992,-0.0197517424821853,0.433863490819931,0.2181695699691772
1629376486770,0.4039584100246429,-0.0236270502209663,0.361549824476242,0.2242639809846878
1629376486864,0.3999474048614502,-0.0098925093188881,0.3227655291557312,0.2318476736545562
1629376486989,0.399325966835022,0.0027967835776507,0.3124724626541137,0.2257322072982788
1629376487182,0.3956181704998016,0.0022139614447951,0.3158619403839111,0.2085520625114441
1629376487245,0.383742094039917,-0.0122310630977153,0.3352484703063965,0.1866351068019867
1629376487323,0.3670290410518646,-0.0303131267428398,0.3740758597850799,0.1677813380956649
1629376487510,0.3529221415519714,-0.0354175791144371,0.4219187796115875,0.1563371866941452
1629376487557,0.3482289910316467,-0.0161162838339805,0.4616993963718414,0.1523359715938568
1629376487604,0.3542932868003845,0.0214206632226705,0.4852966666221618,0.1485532373189926
1629376487651,0.3687339127063751,0.0600420609116554,0.4974664151668548,0.1403249949216842
1629376487838,0.3886172473430633,0.085667461156845,0.50532066822052,0.1272893697023391
1629376488010,0.4120568037033081,0.092562697827816,0.5127572417259216,0.1152690127491951
1629376488139,0.4420046806335449,0.0842595100402832,0.5183401703834534,0.1112478151917457
1629376488217,0.4808480143547058,0.0679252967238426,0.5203197002410889,0.1120300516486167
1629376488280,0.5244138240814209,0.0490498393774032,0.518173098564148,0.1074716597795486
1629376488371,0.5623070597648621,0.028506301343441,0.5139631032943726,0.0991259142756462
1629376488527,0.5859577059745789,0.0088947918266057,0.5124091506004333,0.092623583972454
1629376488621,0.5923158526420593,-0.0042038829997181,0.5161766409873962,0.0920368805527687
1629376488684,0.5849943161010742,-0.0068745673634111,0.5205429792404175,0.097770445048809
1629376488777,0.57148277759552,0.000368763168808,0.5190964341163635,0.1047598645091056
1629376488824,0.5606423616409302,0.0180518832057714,0.5212752223014832,0.1102944537997245
1629376488903,0.562571108341217,0.0473308414220809,0.5416885018348694,0.1165363863110542
1629376489077,0.5682313442230225,0.0845668911933898,0.5801084637641907,0.1267248094081878
1629376489233,0.5775238871574402,0.1221110820770263,0.5836430788040161,0.147636279463768
1629376489295,0.590412974357605,0.153813824057579,0.5985406637191772,0.1870355457067489
1629376489405,0.6178984642028809,0.1825449168682098,0.6177956461906433,0.2367866337299347
1629376489498,0.6326255798339844,0.2198123782873153,0.6320860981941223,0.2850422263145447
1629376489530,0.6372120976448059,0.2668925523757934,0.6340596079826355,0.3187758326530456
1629376489670,0.6259453296661377,0.3099813461303711,0.6228988170623779,0.3316004872322082
1629376489848,0.5992363095283508,0.3393914997577667,0.6099475026130676,0.3293410539627075
1629376489923,0.5724473595619202,0.3562157154083252,0.6134797930717468,0.3209278285503387
1629376489970,0.5544514060020447,0.3670726120471954,0.6439968943595886,0.3149590492248535
1629376490095,0.5598848462104797,0.3752855956554413,0.6976931095123291,0.31769660115242
1629376490345,0.5849608778953552,0.3798442482948303,0.7695739269256592,0.3296230733394623
1629376490408,0.6181053519248962,0.3805590569972992,0.7695739269256592,0.3461662530899048
1629376490454,0.6482597589492798,0.3754759132862091,0.7695739269256592,0.3601357042789459
1629376490548,0.6372037529945374,0.3594818413257599,0.7695739269256592,0.3645908534526825
1629376490673,0.6144824028015137,0.3283949494361877,0.7695739269256592,0.3581153452396393
1629376490720,0.5881683230400085,0.2839742600917816,0.7695739269256592,0.3420456349849701
1629376490879,0.5593410730361938,0.234301209449768,0.0571667291224002,0.3167308866977691
1629376490942,0.5074014067649841,0.1843136847019195,0.0469910204410553,0.2849926352500915
1629376491099,0.4688899517059326,0.126021534204483,0.0466431975364685,0.2535174190998077
1629376491178,0.4324195683002472,0.0487591549754142,0.0553311891853809,0.2325732856988906
1629376491224,0.3959361314773559,-0.0384540669620037,0.0745160579681396,0.2298076152801513
1629376491584,0.3610413372516632,-0.1107648909091949,0.1000328436493873,0.2373794317245483
1629376491662,0.3227499425411224,-0.1504410952329635,0.1195500493049621,0.2459039688110351
1629376491709,0.3275332748889923,-0.1701949536800384,0.1248956695199012,0.2546696364879608
1629376491740,0.3321717977523803,-0.1877136677503585,0.1181405931711196,0.2655963003635406
1629376491834,0.3393122255802154,-0.2025441378355026,0.1129857152700424,0.2727467715740204
1629376491961,0.3495795726776123,-0.2027377933263778,0.1394290775060653,0.268885999917984
1629376492070,0.3569352626800537,-0.1843868196010589,0.209477424621582,0.2531619369983673
1629376492133,0.3492542207241058,-0.1535869389772415,0.3048216104507446,0.2338064014911651
1629376492226,0.3323565423488617,-0.1232074350118637,0.3833370804786682,0.2162477672100067
1629376492320,0.3151835501194,-0.101694643497467,0.4271703064441681,0.2018652409315109
1629376492367,0.3035981059074402,-0.092180997133255,0.4398881793022156,0.1857213228940963
1629376492539,0.3008680641651153,-0.0911484211683273,0.435799241065979,0.1681599915027618
1629376492586,0.303561270236969,-0.0953813195228576,0.4281321763992309,0.1507610231637954
1629376492617,0.305027574300766,-0.1023986563086509,0.4204384088516235,0.1342160999774933
1629376492758,0.2995496094226837,-0.1130383163690567,0.4099587202072143,0.1166601330041885
1629376492804,0.2895329594612121,-0.1259568780660629,0.3955001533031463,0.0989365503191948
1629376492898,0.2893037497997284,-0.1268560141324997,0.3833177089691162,0.0836350992321968
1629376492976,0.3135282099246979,-0.0966626927256584,0.3833789229393005,0.0660698115825653
1629376493132,0.3579537570476532,-0.0389710925519466,0.3974055647850036,0.0486094802618026
1629376493164,0.4029257893562317,0.0188981425017118,0.4134410619735718,0.0411036908626556
1629376493320,0.4313378632068634,0.0519562102854251,0.4094097912311554,0.0531123653054237
1629376493398,0.4409140646457672,0.055521797388792,0.3680046796798706,0.0831665471196174
1629376493507,0.4403384923934936,0.0392885506153106,0.288735032081604,0.1209363341331482
1629376493554,0.4432861506938934,0.019084008410573,0.1989583075046539,0.1600090414285659
1629376493679,0.4571073651313782,0.0076021868735551,0.1506114453077316,0.1945226043462753
1629376493775,0.4781438708305359,0.0107857082039117,0.1731308251619339,0.221085250377655
1629376493885,0.4956789910793304,0.0310883875936269,0.251480370759964,0.2372875660657882
1629376493963,0.5027031302452087,0.0658247098326683,0.3498812615871429,0.2459737062454223
1629376494088,0.5009538531303406,0.1046359166502952,0.438334196805954,0.2535825371742248
1629376494166,0.498500794172287,0.136459618806839,0.5023932456970215,0.2625331282615661
1629376494338,0.500293493270874,0.1536341458559036,0.5413985848426819,0.2696857154369354
1629376494400,0.4990372061729431,0.1510880589485168,0.5618496537208557,0.2680115699768066
1629376494557,0.4820488095283508,0.1264310181140899,0.5703545212745667,0.2599753141403198
1629376494650,0.4452908337116241,0.0830835551023483,0.5695978403091431,0.2508870363235473
1629376494697,0.4048327803611755,0.0332610383629798,0.5636680126190186,0.2496670633554458
1629376494775,0.3843447864055633,-0.0048239356838166,0.5623795986175537,0.2574427723884582
1629376494916,0.389938622713089,-0.0232911054044961,0.5721054673194885,0.2658710479736328
1629376494978,0.4053575098514557,-0.0282333251088857,0.5883569121360779,0.2653532028198242
1629376495135,0.4138262867927551,-0.029649693518877,0.6013913154602051,0.2554351091384887
1629376495197,0.409119039773941,-0.0342188738286495,0.6051856875419617,0.2416280508041381
1629376495369,0.398076593875885,-0.0443087629973888,0.5999913811683655,0.2340806573629379
1629376495431,0.39385986328125,-0.0646015480160713,0.5838526487350464,0.2408535629510879
1629376495572,0.4066596627235412,-0.1002153754234314,0.5525651574134827,0.2620179057121277
1629376495681,0.433628499507904,-0.1509836018085479,0.5088320970535278,0.2887377738952636
1629376495778,0.4601627290248871,-0.2110512107610702,0.4628374874591827,0.3111681342124939
1629376495856,0.4742045104503631,-0.2668633759021759,0.4271712303161621,0.3279096782207489
1629376495934,0.4771190881729126,-0.3013233244419098,0.4125751554965973,0.3459168672561645
1629376496043,0.4814560115337372,-0.299313873052597,0.4300195872783661,0.3626973032951355
1629376496106,0.4982113242149353,-0.2564585506916046,0.4949328601360321,0.3688377141952514
1629376496262,0.5221052765846252,-0.1905799806118011,0.5918341279029846,0.3549166917800903
1629376496372,0.5390954613685608,-0.1322985142469406,0.6794097423553467,0.3230458498001098
1629376496418,0.5436047911643982,-0.0969235524535179,0.7318935990333557,0.2890010178089142
1629376496622,0.5424071550369263,-0.0782160311937332,0.7492089867591858,0.2685117423534393
1629376496637,0.542809247970581,-0.0612738542258739,0.7461010217666626,0.2612475454807281
1629376496715,0.545782744884491,-0.0356161333620548,0.7410002946853638,0.2570557296276092
1629376496812,0.5475356578826904,-0.0006839141133241,0.740940511226654,0.2471673488616943
1629376497003,0.5449842810630798,0.0390336737036705,0.7428953647613525,0.2294408679008484
1629376497143,0.5402331352233887,0.0788101926445961,0.7439386248588562,0.2110990583896637
1629376497227,0.5395078063011169,0.1138590946793556,0.7430180311203003,0.208727478981018
1629376497281,0.5495491027832031,0.1405103504657745,0.7410216331481934,0.2346394658088684
1629376497316,0.572977602481842,0.1561793684959411,0.7387545704841614,0.2900940179824829
1629376497447,0.6021370887756348,0.1595568358898162,0.7323535680770874,0.3498753607273102
1629376497603,0.6234201788902283,0.1490032970905304,0.7130492329597473,0.4008484482765198
1629376497693,0.6268243789672852,0.123258426785469,0.6654805541038513,0.4406422674655914
1629376497796,0.6131240129470825,0.0846465155482292,0.5781806111335754,0.4745589792728424
1629376497879,0.6007556915283203,0.0439061932265758,0.4568336606025696,0.5093094110488892
1629376497961,0.5945345163345337,0.0149154402315616,0.3348143994808197,0.5441257357597351
1629376498034,0.6147094964981079,-0.0007747772615402,0.2556323111057281,0.5715920329093933
1629376498198,0.6327686905860901,-0.0124873649328947,0.2261757552623748,0.5901128649711609
1629376498332,0.6390554904937744,-0.0300976820290088,0.2078222930431366,0.6008020639419556
1629376498426,0.6355265974998474,-0.059248499572277,0.177009716629982,0.6075658798217773
1629376498532,0.6263010501861572,-0.1054676547646522,0.1312964111566543,0.6127734184265137
1629376498569,0.609623908996582,-0.1729376912117004,0.0769822373986244,0.6118408441543579
1629376498715,0.5839772820472717,-0.2589816153049469,0.0275414325296878,0.5986034274101257
1629376498796,0.5507082939147949,-0.350561112165451,-0.0051444312557578,0.5717383027076721
1629376498883,0.5111891031265259,-0.4270990788936615,-0.0216120444238185,0.5294297337532043
1629376499015,0.4702086150646209,-0.4706276953220367,-0.0220962706953287,0.4797714352607727
1629376499127,0.4370851814746856,-0.4780687987804413,-0.008523185737431,0.4320731163024902
1629376499195,0.4167720973491668,-0.466740220785141,0.0106357326731085,0.3934722542762756
1629376499246,0.4027649760246277,-0.455474853515625,0.0200809277594089,0.3616867065429687
1629376499450,0.3961016535758972,-0.4533098340034485,0.0099056810140609,0.3280179798603058
1629376499537,0.3929852545261383,-0.4568621218204498,-0.0172553304582834,0.2897197902202606
1629376499655,0.3535431623458862,-0.4586144983768463,-0.0479758381843566,0.2649456560611725
1629376499739,0.3232796490192413,-0.4560132026672363,-0.0721538364887237,0.2709143757820129
1629376499787,0.3086300492286682,-0.4543602764606476,-0.0877650380134582,0.313013881444931
1629376499919,0.3042165637016296,-0.4597705006599426,-0.1006461009383201,0.3715102672576904
1629376500031,0.3054280579090118,-0.4709180891513824,-0.116444781422615,0.4213179051876068
1629376500114,0.3154012858867645,-0.480329692363739,-0.1358049660921096,0.4542086124420166
1629376500238,0.3315470516681671,-0.4833855032920837,-0.1553115546703338,0.475674420595169
1629376500328,0.3445764482021332,-0.4804374873638153,-0.1712325066328048,0.4927623867988586
1629376500386,0.3460143208503723,-0.4736689925193786,-0.1839528828859329,0.5076863765716553
1629376500513,0.3331102132797241,-0.4669794142246246,-0.2024117857217788,0.5187755823135376
1629376500637,0.3101322650909424,-0.4649634063243866,-0.2371846884489059,0.5265505313873291
1629376500690,0.2847538590431213,-0.4667485952377319,-0.2895592451095581,0.5331175327301025
1629376500842,0.2649382352828979,-0.4624809920787811,-0.3461476564407348,0.5405786037445068
1629376500908,0.2522801756858825,-0.4451642632484436,-0.3891200721263885,0.5472280383110046
1629376500997,0.243593156337738,-0.4245754182338714,-0.4160229861736297,0.5496688485145569
1629376501106,0.2369206100702285,-0.4177237749099731,-0.4376678168773651,0.5449034571647644
1629376501202,0.2330479919910431,-0.4312090873718261,-0.4540833830833435,0.5281230211257935
1629376501333,0.231466919183731,-0.4564905166625976,-0.4572427868843078,0.4953575730323791
1629376501420,0.2285185903310775,-0.4764237999916076,-0.4429115951061249,0.4535946249961853
1629376501530,0.2173976898193359,-0.4762458205223083,-0.4191637337207794,0.4196463227272033
1629376501612,0.1936873793601989,-0.4571659862995147,-0.3998113870620727,0.4047279059886932
1629376501744,0.1613748669624328,-0.4312615692615509,-0.3910875916481018,0.4001080989837646
1629376501887,0.1372344940900802,-0.4075494110584259,-0.3896092176437378,0.3955288529396057
1629376501967,0.14097860455513,-0.3861405849456787,-0.3916970193386078,0.3943976163864136
1629376502027,0.1730760931968689,-0.3593587279319763,-0.398447185754776,0.3993899524211883
1629376502125,0.2148285508155822,-0.3277269005775451,-0.4114079177379608,0.4024615883827209
1629376502224,0.251569539308548,-0.3017880320549011,-0.4246333241462707,0.3944355249404907
1629376502345,0.2825224101543426,-0.2922839522361755,-0.4265852868556976,0.3763169944286346
1629376502451,0.3088674545288086,-0.3001070320606231,-0.4118294715881347,0.3564976155757904
1629376502534,0.3266149461269378,-0.3099702596664428,-0.3867317140102386,0.344402939081192
1629376502747,0.3303647339344024,-0.3034886419773102,-0.3638359606266022,0.3447218835353851
1629376502854,0.3215790092945099,-0.2798682451248169,-0.3555240929126739,0.3667530715465545
1629376502920,0.3281756639480591,-0.2554631531238556,-0.366259902715683,0.4137300848960876
1629376502962,0.3453845083713531,-0.2298559546470642,-0.3793558478355407,0.4205259978771209
1629376503055,0.3718321323394775,-0.2183326631784439,-0.3214414715766907,0.4188221991062164
1629376503152,0.4026332199573517,-0.2121348828077316,-0.3411905169486999,0.4092471897602081
1629376503260,0.4312454760074615,-0.2081745117902755,-0.3486047685146332,0.4012543559074402
1629376503353,0.4498944878578186,0.3346501588821411,-0.3435252606868744,0.4002262949943542
1629376503552,0.453085720539093,0.5718290209770203,-0.3318338394165039,0.3997868001461029
1629376503635,0.4419931173324585,0.6935627460479736,-0.3144379556179046,0.3936851918697357
1629376503714,0.4235948920249939,0.7532346248626709,-0.2873092889785766,0.3907462060451507
1629376503841,0.4078930914402008,0.7810909748077393,-0.2507296204566955,0.4079333245754242
1629376503891,0.3916226327419281,0.7935698628425598,-0.213810846209526,0.4496873915195465
1629376503930,0.3916226327419281,0.7985249161720276,-0.1848587691783905,0.5105377435684204
1629376504096,0.3916226327419281,0.8006269335746765,-0.1617488116025924,0.5105377435684204
1629376504184,0.3916226327419281,0.8008428812026978,-0.1296622157096862,0.5105377435684204
1629376504335,0.3916226327419281,0.8001458048820496,-0.1296622157096862,0.5105377435684204
1629376504408,0.3916226327419281,0.7995388507843018,-0.1296622157096862,0.5105377435684204
1629376504442,0.3916226327419281,0.7985178828239441,-0.1296622157096862,0.91977059841156
1629376504575,0.3916226327419281,0.7674451470375061,-0.1296622157096862,0.8700065016746521
1629376504632,0.3916226327419281,0.7674451470375061,-0.1296622157096862,0.8700065016746521
1629376504803,0.3916226327419281,0.7674451470375061,-0.1296622157096862,0.8700065016746521
1629376504979,0.3916226327419281,0.6772367358207703,-0.1296622157096862,0.8700065016746521
1629376505053,0.3916226327419281,0.5350552201271057,-0.1296622157096862,0.8700065016746521
1629376505193,0.3916226327419281,0.3539717495441437,-0.1296622157096862,0.8700065016746521
1629376505256,0.3916226327419281,0.1636270731687545,-0.1296622157096862,0.8700065016746521
1629376505305,0.3916226327419281,-0.0053125484846532,-0.1296622157096862,0.8700065016746521
1629376505365,0.3916226327419281,-0.1237588077783584,-0.1296622157096862,0.8700065016746521
1629376505479,0.3916226327419281,-0.1711519956588745,-0.1296622157096862,0.8700065016746521
1629376505592,0.3916226327419281,-0.1868423968553543,-0.1296622157096862,0.8700065016746521
1629376505742,0.3916226327419281,-0.194340705871582,-0.1296622157096862,0.7980407476425171
1629376505789,0.3916226327419281,-0.194340705871582,-0.1296622157096862,0.7980407476425171
1629376505905,0.3916226327419281,-0.194340705871582,-0.1296622157096862,0.7980407476425171
1629376506044,0.3916226327419281,-0.194340705871582,-0.1296622157096862,0.7980407476425171
1629376506114,0.3916226327419281,-0.194340705871582,-0.1296622157096862,0.7980407476425171
1629376506298,0.3916226327419281,-0.194340705871582,-0.1296622157096862,0.7980407476425171
1629376506335,0.3916226327419281,-0.194340705871582,-0.1296622157096862,0.7980407476425171
1629376506385,0.3916226327419281,-0.194340705871582,-0.1296622157096862,0.7980407476425171
1629376506506,0.3916226327419281,-0.194340705871582,-0.1296622157096862,0.7980407476425171
1629376506570,0.3916226327419281,-0.194340705871582,0.3212133646011352,0.7980407476425171
1629376506687,0.3916226327419281,-0.194340705871582,0.419052243232727,0.7980407476425171
1629376506870,0.3916226327419281,-0.194340705871582,0.5154882073402405,0.7980407476425171
1629376506930,0.3916226327419281,-0.194340705871582,0.5732610821723938,0.7980407476425171
1629376507005,0.3916226327419281,-0.194340705871582,0.5858694911003113,0.7980407476425171
1629376507166,0.3916226327419281,-0.194340705871582,0.5656899809837341,0.7980407476425171
1629376507205,0.3916226327419281,-0.194340705871582,0.5318834781646729,0.7980407476425171
1629376507425,0.3916226327419281,-0.194340705871582,0.4992856979370117,0.7980407476425171
1629376507501,0.3916226327419281,-0.194340705871582,0.4840694665908813,0.7980407476425171
1629376507547,0.3916226327419281,-0.194340705871582,0.5126445293426514,0.7980407476425171
1629376507696,0.3916226327419281,-0.194340705871582,0.5879424810409546,0.7980407476425171
1629376507815,0.3916226327419281,-0.194340705871582,0.6725550889968872,0.7980407476425171
1629376507956,0.3916226327419281,-0.194340705871582,0.7466090321540833,0.7980407476425171
1629376508054,0.3916226327419281,-0.194340705871582,0.7877238988876343,0.7980407476425171
1629376508116,0.3916226327419281,0.9224096536636353,0.8002382516860962,0.7980407476425171
1629376508210,0.3916226327419281,0.8406527638435364,0.7939255237579346,0.7980407476425171
1629376508273,0.3916226327419281,0.7702347636222839,0.8012416362762451,0.7980407476425171
1629376508327,0.3916226327419281,0.7702347636222839,0.8001197576522827,0.7980407476425171
1629376508417,0.3916226327419281,0.7702347636222839,0.7988008856773376,0.7980407476425171
1629376508651,0.3916226327419281,0.7702347636222839,0.8091347217559814,0.7980407476425171
1629376508714,0.3916226327419281,0.7702347636222839,0.8363345265388489,0.7980407476425171
1629376508761,0.3916226327419281,0.7702347636222839,0.8762044906616211,0.7980407476425171
1629376508886,0.3916226327419281,0.7702347636222839,0.9228662848472596,0.7980407476425171
1629376509026,0.3916226327419281,0.7702347636222839,0.9686764478683472,0.7980407476425171
1629376509104,0.3916226327419281,0.7702347636222839,0.9955291152000428,0.7980407476425171
1629376509198,0.3916226327419281,0.7356659770011902,0.9777300953865052,0.7980407476425171
1629376509370,0.3916226327419281,0.6008011698722839,0.8911936283111572,0.7980407476425171
1629376509464,0.3916226327419281,0.6008011698722839,0.8911936283111572,0.7980407476425171
1629376509495,0.3916226327419281,0.6008011698722839,0.8911936283111572,0.7980407476425171
1629376509604,0.3916226327419281,0.6008011698722839,0.8911936283111572,0.7980407476425171
1629376509636,0.3916226327419281,0.6008011698722839,0.8911936283111572,0.7980407476425171
1629376509776,0.3916226327419281,0.6008011698722839,0.8911936283111572,0.7980407476425171
1629376509858,0.3916226327419281,0.6008011698722839,0.8911936283111572,0.7980407476425171
1629376509983,0.3916226327419281,0.6008011698722839,0.8911936283111572,0.7980407476425171
1629376510077,0.3916226327419281,0.6008011698722839,0.8911936283111572,0.7980407476425171
1629376510233,0.3916226327419281,0.6008011698722839,0.8911936283111572,0.7980407476425171
1629376510295,0.3916226327419281,0.6008011698722839,0.8911936283111572,0.7980407476425171
1629376510372,0.3916226327419281,0.6008011698722839,0.8911936283111572,0.7980407476425171
1629376510419,0.3916226327419281,0.6008011698722839,0.8911936283111572,0.7980407476425171
1629376510622,1.1943650245666504,0.6008011698722839,0.8911936283111572,0.7980407476425171
1629376510669,1.327887773513794,0.6008011698722839,0.8911936283111572,0.7980407476425171
1629376510732,1.327887773513794,0.6008011698722839,0.0561878904700279,0.7980407476425171
1629376510875,1.327887773513794,0.6008011698722839,0.0224556680768728,0.7980407476425171
1629376511063,1.327887773513794,0.6008011698722839,-0.0178357828408479,0.7980407476425171
1629376511157,1.327887773513794,0.6008011698722839,-0.05083729326725,0.7980407476425171
1629376511203,1.327887773513794,0.6008011698722839,-0.0745172724127769,0.7980407476425171
1629376511282,1.327887773513794,0.6008011698722839,-0.0940467193722724,0.7980407476425171
1629376511453,1.327887773513794,0.6008011698722839,-0.1162660643458366,0.7980407476425171
1629376511516,1.267362356185913,0.6008011698722839,-0.1433060318231582,0.7980407476425171
1629376511594,1.267362356185913,0.6008011698722839,-0.1706929504871368,0.7980407476425171
1629376511641,1.267362356185913,0.6008011698722839,-0.1874340027570724,0.7980407476425171
1629376511766,1.289684176445007,-0.1051674857735633,-0.185560941696167,0.7980407476425171
1629376511847,1.336035132408142,-0.0893424823880195,-0.1692208498716354,1.093652844429016
1629376512003,1.336035132408142,-0.0625040382146835,-0.1628257930278778,1.0786950588226318
1629376512128,1.336035132408142,-0.0374902822077274,-0.17843659222126,1.0538676977157593
1629376512237,1.336035132408142,-0.0210276003926992,-0.2139711230993271,1.0180609226226809
1629376512300,0.5193537473678589,-0.0163082182407379,-0.2474352270364761,0.97488272190094
1629376512378,0.4620709121227264,-0.0246774479746818,-0.2559889554977417,0.9311845898628236
1629376512456,0.4132764935493469,-0.0422987192869186,-0.2268365323543548,0.8914147019386292
1629376512628,0.3804405033588409,-0.063223622739315,-0.1661532074213028,0.8583049774169922
1629376512706,0.3911101818084717,-0.0836610496044159,-0.0991400331258773,0.8357194662094116
1629376512911,0.4666261374950409,-0.1026089936494827,-0.0517032034695148,0.8281813859939575
1629376512958,0.5720247626304626,-0.1204311475157737,-0.0293811615556478,0.8353135585784912
1629376513020,0.6544399857521057,-0.1488737910985946,-0.0212085582315921,0.8469914197921753
1629376513098,0.7011744379997253,-0.1662841141223907,-0.0130012454465031,0.8409843444824219
1629376513192,0.7088003754615784,-0.1724759191274643,-0.0017351898131892,0.8113209009170532
1629376513286,0.6960080862045288,-0.1669499576091766,0.0096380012109875,0.7715498208999634
1629376513395,0.6779016256332397,-0.1536819189786911,0.0215340033173561,0.7304067015647888
1629376513551,0.6779016256332397,-0.1424464434385299,0.0377728566527366,0.6925884485244751
1629376513708,0.6817241907119751,-0.1363669484853744,0.0602623373270034,0.664710283279419
1629376513786,0.6975240707397461,-0.1294701248407364,0.0895310789346695,0.6602131724357605
1629376513914,0.7229996919631958,-0.1108543649315834,0.1269340217113495,0.6837911605834961
1629376513992,0.7548481225967407,-0.05606135353446,0.1717205345630645,0.7163377404212952
1629376514054,0.7925108671188354,0.0866309031844139,0.1802859902381897,0.7630610466003418
1629376514101,0.8336698412895203,0.3393232524394989,0.1738900393247604,0.8136493563652039
1629376514242,0.8681114315986633,0.6109276413917542,0.1559035181999206,0.8601969480514526
1629376514288,0.8750529885292053,0.6385311484336853,0.1431727260351181,0.8881819844245911
1629376514492,0.8328580260276794,0.6684754490852356,0.1519692838191986,0.8881819844245911
1629376514554,0.7315457463264465,0.7010949850082397,0.1814046204090118,0.8881819844245911
1629376514637,0.7315457463264465,0.7364625930786133,0.2175482809543609,0.8881819844245911
1629376514699,0.7315457463264465,0.7742687463760376,0.2509840130805969,0.8881819844245911
1629376514840,0.7315457463264465,0.81371009349823,0.2784103751182556,0.8881819844245911
1629376514887,0.7315457463264465,0.8555192947387695,0.719780445098877,0.8881819844245911
1629376514999,0.7315457463264465,0.9027690291404724,0.9413204193115234,0.8881819844245911
1629376515124,0.7315457463264465,0.9588899612426758,1.0486314296722412,0.8881819844245911
1629376515265,0.7315457463264465,1.0269804000854492,1.0875608921051023,0.8881819844245911
1629376515327,0.7315457463264465,1.1111847162246704,1.0908732414245603,0.8881819844245911
1629376515437,0.7315457463264465,1.1111847162246704,1.0792851448059082,0.8881819844245911
1629376515546,0.7315457463264465,1.1111847162246704,1.0142593383789062,0.8881819844245911
1629376515624,0.7315457463264465,1.1111847162246704,0.9582217335700988,0.8881819844245911
1629376515734,0.7315457463264465,1.1111847162246704,0.9094483256340028,0.8881819844245911
1629376515874,0.7315457463264465,1.1111847162246704,0.8663151264190674,0.8881819844245911
1629376515937,0.7315457463264465,1.1111847162246704,0.8276633620262146,0.8881819844245911
1629376516080,0.7384153008460999,-0.4968272745609283,0.793267011642456,0.8881819844245911
1629376516174,0.7384153008460999,-0.4313904643058777,0.7641497254371643,0.8881819844245911
1629376516236,0.7384153008460999,-0.3604668378829956,0.7418200969696045,0.8881819844245911
1629376516330,0.7384153008460999,-0.3198873996734619,0.7271846532821655,0.8881819844245911
1629376516439,0.7384153008460999,-0.3004196584224701,0.6196655035018921,0.1899931728839874
1629376516642,0.7384153008460999,-0.2579638361930847,0.4757943153381347,0.1960514932870865
1629376516816,0.7384153008460999,-0.1779507547616958,0.3526740074157715,0.2244028598070144
1629376516863,0.6858939528465271,-0.0852089971303939,0.3077214658260345,0.2589459419250488
1629376516925,0.6430556178092957,-0.0074813216924667,0.3187040984630584,0.2921586632728576
1629376516988,0.6088507771492004,0.0449103638529777,0.3372326195240021,0.321054607629776
1629376517066,0.5853132605552673,0.0721316486597061,0.3505457937717438,0.3408607542514801
1629376517159,0.5687742233276367,0.0811313316226005,0.3582863211631775,0.3476448953151703
1629376517238,0.5174679756164551,0.0988448783755302,0.3666054308414459,0.3398266732692718
1629376517363,0.4522280991077423,0.1094311997294426,0.3839967548847198,0.3277778923511505
1629376517456,0.3840354382991791,0.1174637824296951,0.4274183213710785,0.3413597047328949
1629376517628,0.3285704553127289,0.1223612204194068,0.5086300373077393,0.4055818021297455
1629376517706,0.3396483957767486,0.1227134689688682,0.6094005703926086,0.5106714367866516
1629376517777,0.3667249977588653,0.1197817400097847,0.6952384114265442,0.5953521728515625
1629376517980,0.3967970013618469,0.1192702502012252,0.7459279298782349,0.6508892178535461
1629376518058,0.419342577457428,0.1235904768109321,0.7546819448471069,0.698133647441864
1629376518089,0.4331593811511993,0.1247993409633636,0.7585527896881104,0.7211714386940002
1629376518183,0.4449567198753357,0.1152996867895126,0.7609728574752808,0.7297318577766418
1629376518323,0.4664015769958496,0.0988440588116645,0.7682112455368042,0.7303218245506287
1629376518433,0.4954553544521332,0.0867076963186264,0.7736638188362122,0.726795494556427
1629376518573,0.523335874080658,0.0833231657743454,0.7928766012191772,0.7215771079063416
1629376518620,0.5423392057418823,0.082749918103218,0.8121974468231201,0.7173656225204468
1629376518683,0.558231770992279,0.0777732506394386,0.8265111446380615,0.721359133720398
1629376518761,0.5842090845108032,0.068937063217163,0.8393353223800659,0.7415902614593506
1629376518873,0.6228933930397034,0.0616959482431411,0.8521250486373901,0.7657771706581116
1629376519013,0.6610006093978882,0.0583431348204612,0.8532370328903198,0.7848567962646484
1629376519091,0.6842097640037537,0.0572102591395378,0.8232741355895996,0.7838826179504395
1629376519154,0.6978042125701904,0.0541814528405666,0.7518508434295654,0.7501851916313171
1629376519279,0.7061231732368469,0.0468516126275062,0.6528902053833008,0.681730329990387
1629376519404,0.7114635109901428,0.0339710190892219,0.5674876570701599,0.57449871301651
1629376519591,0.7185054421424866,0.017024278640747,0.5673632621765137,0.4937520027160644
1629376519654,0.7301008105278015,0.0044688489288091,0.5725492835044861,0.4565840661525726
1629376519685,0.7251105308532715,0.0050934040918946,0.5725492835044861,0.4540406167507171
1629376519891,0.7141110897064209,0.0122927678748965,0.5725492835044861,0.4774881899356842
1629376519954,0.6916260123252869,0.0090833185240626,0.568004310131073,0.5163318514823914
1629376519985,0.660079836845398,-0.012601975351572,0.5491958260536194,0.5526039600372314
1629376520126,0.6259945631027222,-0.0421849451959133,0.5173538327217102,0.5721064209938049
1629376520219,0.5882939696311951,-0.0633225217461586,0.4856504201889038,0.5584045648574829
1629376520298,0.5355422496795654,-0.0729394555091857,0.4499415755271911,0.5286489725112915
1629376520376,0.4611878991127014,-0.0803134888410568,0.4015398919582367,0.5017089247703552
1629376520563,0.3797262012958526,-0.091309480369091,0.3474814295768738,0.4868412911891937
1629376520641,0.3214832544326782,-0.1042575761675834,0.3078878223896026,0.4871965944766998
1629376520782,0.3259920477867126,-0.1141695901751518,0.28762286901474,0.4958932101726532
1629376520813,0.3231055438518524,-0.1168391704559326,0.2707083821296692,0.506043553352356
1629376520957,0.3168342709541321,-0.1136401295661926,0.2419576793909073,0.5194828510284424
1629376521004,0.3136008381843567,-0.1086956113576889,0.207749530673027,0.5248408317565918
1629376521113,0.3186325430870056,-0.1136057823896408,0.1756763905286789,0.5283213257789612
1629376521254,0.3177463710308075,-0.1391400694847107,0.2623779773712158,0.5410669445991516
1629376521317,0.3269041180610657,-0.1901437938213348,0.3909928202629089,0.5672722458839417
1629376521410,0.3498193323612213,-0.2676346600055694,0.5134680867195129,0.601250946521759
1629376521504,0.3839421272277832,-0.3485378623008728,0.5987194776535034,0.6330651044845581
1629376521645,0.4000991582870483,-0.4073860049247741,0.6513000130653381,0.6572872996330261
1629376521738,0.4198973774909973,-0.4394822716712951,0.672416090965271,0.6770631074905396
1629376521816,0.437766969203949,-0.4509300887584686,0.6783455610275269,0.6995198130607605
1629376521949,0.4498116374015808,-0.4412752091884613,0.7048156261444092,0.724563479423523
1629376522022,0.4558982253074646,-0.4139840602874756,0.7311819195747375,0.7472372055053711
1629376522178,0.4604546427726745,-0.3797599673271179,0.7579627633094788,0.764464795589447
1629376522225,0.4706743657588959,-0.3449937403202057,0.7640070915222168,0.7782426476478577
1629376522381,0.491290271282196,-0.3123697936534881,0.7699803113937378,0.7921501994132996
1629376522444,0.5225382447242737,-0.2742160856723785,0.7720844149589539,0.8105807304382324
1629376522568,0.5593222379684448,-0.2742160856723785,0.7677285671234131,0.8361178040504456
1629376522647,0.5940329432487488,-0.2742160856723785,0.7549947500228882,0.8668631315231323
1629376522758,0.5846511721611023,-0.2742160856723785,0.721009373664856,0.8438098430633545
1629376522898,0.612526535987854,-0.2742160856723785,0.6463682055473328,0.7931287884712219
1629376522945,0.6472660303115845,-0.2742160856723785,0.5168206691741943,0.7084652185440063
1629376523023,0.647000253200531,0.1651183664798736,0.3428072333335876,0.5993812084197998
1629376523133,0.605546236038208,0.1004658415913581,0.1806206852197647,0.487464040517807
1629376523273,0.5496197938919067,0.0394387617707252,0.106075532734394,0.383240282535553
1629376523351,0.5033804178237915,-0.0109498398378491,0.1019694358110427,0.3497331440448761
1629376523429,0.4807122647762298,-0.0499717071652412,0.1007619798183441,0.3307283222675323
1629376523523,0.4863751232624054,-0.083633616566658,0.0960874408483505,0.3349903523921966
1629376523633,0.5128964185714722,-0.1154409795999527,0.0874421820044517,0.3542355895042419
1629376523775,0.542650043964386,-0.1470978409051895,0.0475747510790824,0.3740739226341247
1629376523838,0.5591977834701538,-0.1777325868606567,-0.0011032858164981,0.3880572617053985
1629376524009,0.557504415512085,-0.202601745724678,-0.042101964354515,0.3998099267482757
1629376524056,0.5430804491043091,-0.2122096270322799,-0.0647646188735961,0.4121734797954559
1629376524150,0.5253551602363586,-0.2009718865156173,-0.0721034184098243,0.4225831031799316
1629376524259,0.5158975720405579,-0.2185749560594558,-0.0743666663765907,0.4250587821006775
1629376524415,0.4948513805866241,-0.2355623096227646,-0.0760435461997985,0.4218262135982513
1629376524540,0.4714475274085998,-0.2410786747932434,-0.0759412124752998,0.4149486124515533
1629376524572,0.4612461626529693,-0.2248007655143737,-0.0730507150292396,0.4090988337993622
1629376524681,0.47161665558815,-0.1934862434864044,-0.0729445815086364,0.4100649952888489
1629376524761,0.4961605370044708,-0.1621497124433517,-0.0848491340875625,0.4245605170726776
1629376524855,0.5256394743919373,-0.1380819380283355,-0.112772911787033,0.4555422365665436
1629376524949,0.5508847236633301,-0.1220418140292167,-0.1510080844163894,0.4946497082710266
1629376525105,0.5615849494934082,-0.1099415197968483,-0.1900089830160141,0.5297155380249023
1629376525230,0.5513529777526855,-0.1002275869250297,-0.2219063490629196,0.5573655962944031
1629376525277,0.5232617855072021,-0.0929098650813102,-0.2424068599939346,0.5804226994514465
1629376525386,0.4895768463611603,-0.0888038277626037,-0.2496668249368667,0.6000555157661438
1629376525495,0.4631880223751068,-0.0896759778261184,-0.2462581992149353,0.6109466552734375
1629376525558,0.4481056332588196,-0.1002787351608276,-0.2370172441005706,0.6105815172195435
1629376525714,0.4396800696849823,-0.1263407617807388,-0.2295995056629181,0.6033053398132324
1629376525764,0.432241141796112,-0.1696984469890594,-0.2291907221078872,0.5966789722442627
1629376525906,0.4263161122798919,-0.2248687744140625,-0.2402125746011734,0.5957276821136475
1629376525969,0.4273429811000824,-0.2798859477043152,-0.2607051432132721,0.6029220223426819
1629376526047,0.4377038776874542,-0.3204622566699981,-0.2815741300582886,0.6169423460960388
1629376526250,0.4509721398353576,-0.3433306813240051,-0.2932825088500976,0.6322119235992432
1629376526312,0.457032561302185,-0.355555921792984,-0.2922924160957336,0.6395033597946167
1629376526453,0.4526391923427582,-0.3654872179031372,-0.27968230843544,0.6327004432678223
1629376526515,0.4444212913513183,-0.374987781047821,-0.2572700083255768,0.6115192770957947
1629376526593,0.4409775733947754,-0.3757772743701935,-0.2293945401906967,0.5803936123847961
1629376526687,0.4465063512325287,-0.3562529385089874,-0.2030716687440872,0.5423029661178589
1629376526816,0.4595294594764709,-0.3174189031124115,-0.1821693032979965,0.4978572726249695
1629376526956,0.478198230266571,-0.2749052941799164,-0.1546407639980316,0.4489163756370544
1629376527050,0.5025693774223328,-0.2418885827064514,-0.1010962650179863,0.4055571556091308
1629376527128,0.5304530262947083,-0.2215740829706192,-0.0252809170633554,0.3768396973609924
1629376527253,0.5553638339042664,-0.2088343054056167,0.0494489148259162,0.36477130651474
1629376527362,0.5785291790962219,-0.1963199824094772,0.1034666374325752,0.3657177090644836
1629376527425,0.5957486629486084,-0.1785219013690948,0.1343352198600769,0.3739042282104492
1629376527534,0.6024469137191772,-0.1591182351112365,0.1511110663414001,0.3797167539596557
1629376527644,0.5980831980705261,-0.1471991240978241,0.1600549072027206,0.3734384477138519
1629376527706,0.5893875956535339,-0.1453807502985,0.1616796404123306,0.3541034460067749
1629376527816,0.5629088878631592,-0.145991712808609,0.1586494445800781,0.3289715051651001
1629376527881,0.5595520734786987,-0.1299848109483719,0.1569323390722274,0.3147885799407959
1629376528084,0.5523421168327332,-0.1231006383895874,0.1664935052394867,0.3086536228656769
1629376528178,0.5379214286804199,-0.1164254695177078,0.2150142788887024,0.3087406754493713
1629376528303,0.5207790732383728,-0.1179053708910942,0.3292218446731567,0.3154243528842926
1629376528403,0.50980144739151,-0.1300740838050842,0.474387913942337,0.3314923346042633
1629376528512,0.5083463788032532,-0.1447830200195312,0.5933340191841125,0.3585329353809356
1629376528590,0.5083463788032532,-0.1496418714523315,0.659895122051239,0.3918890058994293
1629376528825,0.5083463788032532,-0.1378365159034729,0.6786404848098755,0.4265299141407013
1629376528891,0.5083463788032532,-0.1130907461047172,0.6722257137298584,0.456444650888443
1629376528954,0.5083463788032532,-0.0852020680904388,0.6705361008644104,0.4747801721096039
1629376529031,0.5083463788032532,-0.0650552660226821,0.6903753280639648,0.4725461006164551
1629376529063,0.5083463788032532,-0.0560346357524395,0.7270535230636597,0.4725461006164551
1629376529141,0.5083463788032532,0.0215024873614311,0.7675105333328247,0.4725461006164551
1629376529266,0.5083463788032532,0.0542923621833324,0.8024454116821289,0.4725461006164551
1629376529344,0.5083463788032532,0.055594615638256,0.8271147608757019,0.4725461006164551
1629376529438,0.4591321647167206,0.0217075385153293,0.8415694236755371,0.5977531671524048
1629376529578,0.4387394785881042,0.0160228665918111,0.8472592830657959,0.5408439040184021
1629376529672,0.4069806337356567,0.0329275541007518,0.8412227034568787,0.4907407760620117
1629376529781,0.3690163493156433,0.0502402111887931,0.8137741088867188,0.4494428932666778
1629376529875,0.3348815441131592,0.0549866333603858,0.7583997249603271,0.4168075919151306
1629376530035,0.3127027153968811,0.0496895760297775,0.6851792931556702,0.3921167850494385
1629376530191,0.3037587702274322,0.0534786395728588,0.6330804228782654,0.381492555141449
1629376530238,0.3011681139469147,0.0793940797448158,0.6411634087562561,0.3913969993591308
1629376530269,0.295590192079544,0.1164377331733703,0.6938759684562683,0.4128424823284149
1629376530379,0.2818930447101593,0.1439887285232544,0.7428106665611267,0.4302552938461303
1629376530488,0.2616607546806335,0.1512356549501419,0.7602161169052124,0.4324712753295898
1629376530566,0.2407464832067489,0.1407580226659774,0.7427878975868225,0.4190290570259094
1629376530644,0.1890571564435959,0.1174793168902397,0.7029705047607422,0.3576197326183319
1629376530753,0.1568353325128555,0.1000250577926635,0.657251238822937,0.3016140758991241
1629376530961,0.1304667443037033,0.091602586209774,0.6187968254089355,0.260868638753891
1629376531008,0.1054304614663124,0.0860051587224006,0.5925195217132568,0.237617626786232
1629376531211,0.0924537554383277,0.0748905539512634,0.5766919255256653,0.2260747551918029
1629376531274,0.1018379554152488,0.0541258230805397,0.5673668384552002,0.2191004455089569
1629376531305,0.1301690340042114,0.0274502616375684,0.5606899857521057,0.2118610888719558
1629376531336,0.1612372994422912,0.0022288891486823,0.5543615818023682,0.2037163823843002
1629376531524,0.1812626421451568,-0.0199533347040414,0.5457449555397034,0.1939540654420852
1629376531571,0.1866826266050338,-0.0516746565699577,0.522965133190155,0.187805563211441
1629376531680,0.1854946613311767,-0.1082012429833412,0.4740019142627716,0.154547169804573
1629376531776,0.1913229078054428,-0.1903185397386551,0.400778204202652,0.0851051658391952
1629376531888,0.211420252919197,-0.2753726541996002,0.3248429000377655,-0.0146742863580584
1629376531966,0.2387124300003051,-0.3286589980125427,0.2754662632942199,-0.1107800602912902
1629376532154,0.2595578730106354,-0.3389335572719574,0.2628022134304046,-0.1563418507575988
1629376532310,0.2674340307712555,-0.321422815322876,0.272024929523468,-0.1471737474203109
1629376532372,0.2684159874916076,-0.2552230358123779,0.3196214735507965,-0.1239905133843422
1629376532404,0.2723951935768127,-0.119290217757225,0.425595760345459,-0.1093238294124603
1629376532529,0.2795828580856323,0.0513131842017173,0.4520683288574219,-0.1103025898337364
1629376532732,0.2839202582836151,0.2033907622098922,0.4797022342681885,-0.1206117868423461
1629376532828,0.2826586067676544,0.2250722050666809,0.5071565508842468,-0.1206117868423461
1629376533078,0.2739609777927398,0.250298261642456,0.5343573689460754,-0.1206117868423461
1629376533156,0.2611424624919891,0.2790145576000213,0.5638214945793152,-0.1206117868423461
1629376533328,0.2505704462528229,0.3118176758289337,0.5987106561660767,-0.1206117868423461
1629376533391,0.2462492138147354,0.3491407334804535,0.6376425623893738,-0.1206117868423461
1629376533422,0.2443104684352874,0.3896028995513916,0.6692709922790527,-0.1206117868423461
1629376533516,0.2338857948780059,0.5272984504699707,0.6804117560386658,-0.1206117868423461
1629376533562,0.2040867954492569,0.6074118614196777,0.6702330708503723,-0.1206117868423461
1629376533609,0.1555000692605972,0.6630575656890869,0.6605454087257385,-0.1206117868423461
1629376533791,0.1555000692605972,0.7213806509971619,0.6605454087257385,-0.1206117868423461
1629376533909,0.1555000692605972,0.7854759693145752,0.6605454087257385,-0.1206117868423461
1629376533956,0.1555000692605972,0.8364852070808411,0.6605454087257385,-0.1206117868423461
1629376534003,0.1555000692605972,0.8608686327934265,0.6605454087257385,-0.1206117868423461
1629376534065,0.1555000692605972,0.862861156463623,0.6605454087257385,-0.1206117868423461
1629376534143,0.1555000692605972,0.878500759601593,0.6605454087257385,-0.1206117868423461
1629376534284,0.1555000692605972,0.9380385875701904,0.6605454087257385,-0.1206117868423461
1629376534346,0.1555000692605972,1.0115697383880615,0.6605454087257385,-0.1206117868423461
1629376534424,0.1555000692605972,1.0638281106948853,0.6605454087257385,-0.1206117868423461
1629376534518,0.1555000692605972,1.0820481777191162,0.6605454087257385,-0.1206117868423461
1629376534596,0.1555000692605972,1.0727394819259644,0.6605454087257385,-0.1206117868423461
1629376534768,0.1555000692605972,1.050816774368286,0.6605454087257385,-0.1206117868423461
1629376534897,0.1555000692605972,1.0323117971420288,0.6605454087257385,-0.1206117868423461
1629376534944,0.1555000692605972,1.043493628501892,0.6605454087257385,-0.1206117868423461
1629376535163,0.1555000692605972,1.059132099151611,0.6605454087257385,-0.1206117868423461
1629376535194,0.1555000692605972,1.0739076137542725,0.6605454087257385,-0.1206117868423461
1629376535256,0.1555000692605972,1.0857126712799072,0.6605454087257385,-0.1206117868423461
1629376535366,0.1555000692605972,1.0990790128707886,0.6605454087257385,-0.1206117868423461
1629376535491,0.1555000692605972,1.1197000741958618,0.9945926666259766,-0.1206117868423461
1629376535569,0.1555000692605972,1.1471298933029177,1.0235400199890137,-0.1206117868423461
1629376535741,0.1555000692605972,1.1645771265029907,1.0114502906799316,-0.1206117868423461
1629376535819,0.1555000692605972,1.1439801454544067,1.0114502906799316,-0.1206117868423461
1629376535916,0.1555000692605972,1.0593336820602417,1.0114502906799316,-0.1206117868423461
1629376536010,0.1555000692605972,0.8933627605438232,1.0114502906799316,-0.1206117868423461
1629376536073,0.1555000692605972,0.8933627605438232,0.9789646863937378,-0.1206117868423461
1629376536182,0.1555000692605972,0.8933627605438232,0.9789646863937378,-0.1206117868423461
1629376536244,0.1555000692605972,0.8933627605438232,0.9789646863937378,-0.1206117868423461
1629376536323,0.1555000692605972,0.8933627605438232,0.9789646863937378,-0.1206117868423461
1629376536432,0.1555000692605972,0.8933627605438232,0.9789646863937378,-0.1206117868423461
1629376536573,0.1555000692605972,0.8933627605438232,0.9789646863937378,-0.1206117868423461
1629376536666,0.1555000692605972,0.8933627605438232,1.0183521509170532,-0.1206117868423461
1629376536885,0.1555000692605972,0.8933627605438232,1.0410341024398804,-0.1206117868423461
1629376536919,0.1555000692605972,0.8933627605438232,1.024611473083496,-0.1206117868423461
1629376536981,0.1555000692605972,0.8933627605438232,1.024611473083496,-0.1206117868423461
1629376537075,0.1555000692605972,0.8933627605438232,1.024611473083496,-0.1206117868423461
1629376537216,0.1555000692605972,0.8933627605438232,1.024611473083496,-0.1206117868423461
1629376537263,0.1555000692605972,0.8933627605438232,1.024611473083496,0.838800311088562
1629376537403,0.1555000692605972,0.8933627605438232,1.024611473083496,0.844076931476593
1629376537481,0.1555000692605972,0.1524080485105514,1.024611473083496,0.8455511927604675
1629376537591,0.1555000692605972,0.0897953957319259,1.024611473083496,0.8292332291603088
1629376537716,0.1555000692605972,0.0303653720766305,1.024611473083496,0.7994213700294495
1629376537809,0.1432455480098724,0.0071341693401336,0.6715335249900818,0.765122652053833
1629376537937,0.1093316450715065,-0.2732333242893219,0.5861323475837708,0.7318733930587769
1629376537984,0.0804450660943985,-0.2920850217342376,0.5158028602600098,0.7010990381240845
1629376538109,0.0638267323374748,-0.2912317514419555,0.4594616591930389,0.6734272241592407
1629376538140,0.0574357993900775,-0.2795000374317169,0.4174213707447052,0.6503599286079407
1629376538312,0.0527028292417526,-0.2698979079723358,0.3936816453933716,0.6326205730438232
1629376538500,0.0478129796683788,-0.2676427364349365,0.3870030045509338,0.6188343167304993
1629376538547,0.061875894665718,-0.2628002464771271,0.3904525637626648,0.5306522250175476
1629376538562,0.1316194832324981,-0.2374201267957687,0.394309401512146,0.5100184082984924
1629376538719,0.2777748107910156,-0.1925792396068573,0.3964693248271942,0.5181030035018921
1629376538797,0.2777748107910156,-0.1466013491153717,0.397420734167099,0.4973998069763183
1629376538890,0.2777748107910156,-0.129949077963829,0.3955515921115875,0.4505653977394104
1629376539049,0.2867960929870605,-0.1199134066700935,0.2939718961715698,0.3915329873561859
1629376539127,0.2940036952495575,-0.1096125394105911,0.2261810302734375,0.3453236222267151
1629376539205,0.3057999014854431,-0.096915103495121,0.2066185474395752,0.3262361884117126
1629376539314,0.3263686299324035,-0.0846242681145668,0.2127788066864013,0.3290683627128601
1629376539486,0.3572927415370941,-0.0759057700634002,0.223313421010971,0.344126284122467
1629376539548,0.3960351645946502,-0.0737593099474906,0.2292017638683319,0.3680005669593811
1629376539627,0.4402841627597809,-0.0771877840161323,0.2288129031658172,0.3988542258739471
1629376539705,0.4917324483394623,-0.0838365331292152,0.2225988209247589,0.4309614300727844
1629376539861,0.5588041543960571,-0.0906245112419128,0.2066384553909301,0.4594652056694031
1629376539924,0.5588041543960571,-0.0959610119462013,0.1786746829748153,0.4594652056694031
1629376540051,0.5588041543960571,-0.1042599529027938,0.1414104104042053,0.4594652056694031
1629376540160,0.5588041543960571,-0.1261359751224517,0.1067740097641944,0.4594652056694031
1629376540223,0.5588041543960571,-0.1567367911338806,0.0833215788006782,0.4594652056694031
1629376540301,0.5588041543960571,-0.208595260977745,0.0840370655059814,1.089916467666626
1629376540395,0.9444974660873412,-0.2646788358688354,0.1389952152967453,1.1479527950286863
1629376540551,1.0806667804718018,-0.304953783750534,0.2510709166526794,1.257876992225647
1629376540629,1.1974403858184814,-0.3269344270229339,0.3698291182518005,1.257876992225647
1629376540692,1.1974403858184814,-0.3437266647815704,0.4560133218765259,1.257876992225647
1629376540863,1.1974403858184814,-0.3616750240325928,0.5008292198181152,1.257876992225647
1629376540926,1.1974403858184814,-0.3750705122947693,0.516912043094635,1.257876992225647
1629376541004,1.1974403858184814,-0.3777082860469818,0.5230969190597534,1.257876992225647
1629376541191,1.1974403858184814,-0.3776740133762359,0.5317637920379639,1.257876992225647
1629376541238,1.1974403858184814,-0.3848694264888763,0.5457620620727539,1.257876992225647
1629376541332,1.1974403858184814,-0.3848694264888763,0.5638752579689026,1.257876992225647
1629376541426,1.1455698013305664,-0.3848694264888763,0.582288384437561,1.1997112035751345
1629376541535,1.1036213636398315,-0.3848694264888763,0.5986995100975037,1.1667020320892334
1629376541674,1.088036298751831,-0.3848694264888763,0.6125916242599487,1.114038109779358
1629376541736,1.066697120666504,-0.2553224861621856,0.6230156421661377,1.0500915050506592
1629376541783,1.037764310836792,-0.2607855200767517,0.6250541806221008,0.97303706407547
1629376541955,0.977886199951172,-0.2713163495063782,0.6075748205184937,0.8166843056678772
1629376542036,0.831752359867096,-0.2861962914466858,0.5594810247421265,0.0976020991802215
1629376542217,0.4790100753307342,-0.3030773997306824,0.48459193110466,0.0897691622376442
1629376542282,0.4987973868846893,-0.3168863952159881,0.404591828584671,0.0772443041205406
1629376542360,0.509276807308197,-0.3230169415473938,0.3523914217948913,0.0634736344218254
1629376542461,0.5119560360908508,-0.3231472074985504,0.3482570648193359,0.057460531592369
1629376542580,0.5098882913589478,-0.3232198059558868,0.3832440972328186,0.067980408668518
1629376542684,0.5053135752677917,-0.3253430128097534,0.4314674735069275,0.0942040681838989
1629376542800,0.4990053176879883,-0.3249103724956512,0.4695466160774231,0.1226290762424469
1629376542862,0.4913682639598846,-0.315591812133789,0.4858482778072357,0.1413383334875106
1629376542970,0.4889674186706543,-0.317404955625534,0.4867449700832367,0.1222277507185936
1629376543032,0.4824133217334747,-0.3224892318248749,0.4874941706657409,0.1172807291150093
1629376543181,0.4801203310489654,-0.330841064453125,0.4876041114330292,0.1284704059362411
1629376543275,0.488772451877594,-0.3397617638111114,0.4869407415390014,0.1457665413618087
1629376543418,0.505868673324585,-0.3458276391029358,0.4894011616706848,0.1593190729618072
1629376543543,0.5200589299201965,-0.3478335738182068,0.5015809535980225,0.1672438532114029
1629376543602,0.5205587148666382,-0.3430535793304443,0.5277197957038879,0.1762980371713638
1629376543648,0.5050742626190186,-0.3303499817848205,0.564642608165741,0.1936313658952713
1629376543723,0.4799806773662567,-0.313657134771347,0.6084797382354736,0.2226180881261825
1629376543863,0.4531707465648651,-0.3011119067668915,0.6576935052871704,0.2646257579326629
1629376544003,0.4291350841522217,-0.2954676747322082,0.6681220531463623,0.3124743402004242
1629376544097,0.4291350841522217,-0.2954676747322082,0.6558424830436707,0.3124743402004242
1629376544175,0.4291350841522217,-0.2954676747322082,0.6144959926605225,0.3124743402004242
1629376544280,0.4291350841522217,-0.2954676747322082,0.5683051347732544,0.3124743402004242
1629376544352,0.4291350841522217,-0.2954676747322082,0.5683051347732544,0.3124743402004242
1629376544508,0.4291350841522217,-0.2954676747322082,0.5683051347732544,0.3124743402004242
1629376544617,0.4291350841522217,-0.2954676747322082,0.5683051347732544,0.3124743402004242
1629376544711,0.4291350841522217,-0.2954676747322082,0.5683051347732544,0.3124743402004242
1629376544758,0.4291350841522217,-0.2954676747322082,0.5683051347732544,0.3124743402004242
1629376544917,0.4291350841522217,-0.2954676747322082,0.5683051347732544,0.3124743402004242
1629376544963,0.4291350841522217,-0.2954676747322082,0.5683051347732544,0.3124743402004242
1629376545104,0.4291350841522217,-0.2954676747322082,0.5683051347732544,0.3124743402004242
1629376545229,0.4291350841522217,-0.2954676747322082,0.5683051347732544,0.3124743402004242
1629376545323,0.4291350841522217,-0.2954676747322082,0.5683051347732544,0.3124743402004242
1629376545370,0.4291350841522217,-0.2954676747322082,0.5683051347732544,0.3124743402004242
1629376545510,0.4291350841522217,-0.2954676747322082,0.5683051347732544,0.3124743402004242
1629376545588,0.4291350841522217,-0.2954676747322082,0.5683051347732544,0.3124743402004242
1629376545760,0.4291350841522217,-0.2954676747322082,0.5683051347732544,0.3124743402004242
1629376545823,0.4291350841522217,-0.2954676747322082,0.3277195692062378,0.3124743402004242
1629376545887,0.1273456960916519,-0.3068119585514068,0.2617816030979156,0.6310936808586121
1629376546061,0.1771770417690277,-0.3311863839626312,0.2016799449920654,0.5551219582557678
1629376546139,0.2384043931961059,-0.3333224058151245,0.147161990404129,0.4869576692581177
1629376546186,0.2841836512088775,-0.3006555736064911,0.0991812795400619,0.4275164902210235
1629376546295,0.3047676086425781,-0.2281796187162399,0.0613395497202873,0.3765516579151153
1629376546389,0.3035105764865875,-0.1334798485040664,0.0350784175097942,0.3368523120880127
1629376546514,0.2893458306789398,-0.0496335141360759,0.0177584718912839,0.3137727081775665
1629376546686,0.2893458306789398,0.0016217291122302,0.0098296357318758,0.3137727081775665
1629376546857,0.2893458306789398,0.0181724410504102,0.0288435872644186,0.3137727081775665
1629376546904,0.2893458306789398,0.0131481774151325,0.1183163672685623,0.3137727081775665
1629376546982,0.2893458306789398,0.0035393899306654,0.2655985951423645,0.3137727081775665
1629376547045,0.2893458306789398,-0.0021678674966096,0.3992413878440857,0.3137727081775665
1629376547170,0.2946725785732269,0.0077530010603368,0.4977911710739136,0.1962917596101761
1629376547217,0.3147531449794769,0.0111334305256605,0.5517706274986267,0.0383277684450149
1629376547404,0.3446060419082641,0.0090158740058541,0.5724439024925232,-0.1225685626268386
1629376547444,0.3712564706802368,0.0066343937069177,0.5993759036064148,-0.235411450266838
1629376547536,0.3784096837043762,0.007142458576709,0.6306762099266052,-0.276646077632904
1629376547629,0.3560512661933899,0.00948734767735,0.6682976484298706,-0.2629705667495727
1629376547723,0.3560512661933899,0.0121124722063541,0.717662513256073,-0.2629705667495727
1629376547832,0.3560512661933899,0.0110236993059515,0.7606499195098877,-0.2629705667495727
1629376547895,0.3560512661933899,-0.0025129218120127,0.7855759263038635,-0.2629705667495727
1629376547976,0.3560512661933899,-0.0325450040400028,0.7936582565307617,-0.2629705667495727
1629376548179,0.3560512661933899,-0.0721944272518158,0.7930904030799866,-0.2629705667495727
1629376548289,0.3560512661933899,-0.1042642667889595,0.7877232432365417,-0.2629705667495727
1629376548374,0.3560512661933899,-0.1104276701807975,0.7704408168792725,-0.2629705667495727
1629376548406,0.3560512661933899,-0.0850915908813476,0.7303436398506165,-0.2629705667495727
1629376548596,0.3560512661933899,-0.0390950888395309,0.6680094599723816,-0.2629705667495727
1629376548659,0.3560512661933899,0.0067091323435306,0.5988921523094177,-0.2629705667495727
1629376548755,0.3560512661933899,0.0370570383965969,0.5466647148132324,-0.2629705667495727
1629376548903,0.3560512661933899,0.0492688864469528,0.5274453163146973,-0.2629705667495727
1629376548982,0.3560512661933899,0.0498616620898246,0.5053225159645081,-0.2629705667495727
1629376549122,0.3560512661933899,0.0470893792808055,0.4848777055740356,-0.2629705667495727
1629376549185,0.3560512661933899,0.0469511300325393,0.4452752768993377,-0.2629705667495727
1629376549310,0.3560512661933899,0.0522624142467975,0.3768872916698456,-0.2629705667495727
1629376549435,0.3560512661933899,0.0653127133846283,0.3009445369243622,-0.2629705667495727
1629376549497,0.3560512661933899,0.0864199623465538,0.2566472589969635,-0.2629705667495727
1629376549544,0.3560512661933899,0.1101431101560592,0.2594801187515259,-0.2629705667495727
1629376549622,0.3560512661933899,0.129447340965271,0.2831449806690216,-0.2629705667495727
1629376549779,0.3560512661933899,0.1389016211032867,0.2981525957584381,-0.2629705667495727
1629376549982,0.3560512661933899,0.1347837895154953,0.2884660959243774,-0.2629705667495727
1629376550029,0.3560512661933899,0.1145105883479118,0.2488408982753753,-0.2629705667495727
1629376550075,0.3560512661933899,0.0799572616815567,0.1841302067041397,-0.2629705667495727
1629376550138,0.3560512661933899,0.0437933802604675,0.115588329732418,-0.2629705667495727
1629376550310,0.3560512661933899,0.0242421589791774,0.0700405165553093,-0.2629705667495727
1629376550560,0.3560512661933899,0.028042247518897,0.0576707571744918,-0.2629705667495727
1629376550591,0.3560512661933899,0.0451649017632007,0.0656736493110656,-0.2629705667495727
1629376550685,0.3560512661933899,0.0619500465691089,0.0793182402849197,-0.2629705667495727
1629376550716,0.2335690259933471,0.070060022175312,0.0922295898199081,0.5137136578559875
1629376550778,0.253548264503479,0.0646860152482986,0.102319486439228,0.4586697816848755
1629376550952,0.248808816075325,0.0417777597904205,0.1112300530076026,0.4232057631015777
1629376551155,0.2229418754577636,0.0032084758859127,0.1239600032567977,0.4093530774116516
1629376551311,0.190938115119934,-0.0386754311621189,0.1431918442249298,0.4144287109375
1629376551343,0.1654478907585144,-0.0672357454895973,0.1659722179174423,0.4324319958686828
1629376551374,0.1493527740240097,-0.0760980322957038,0.187265083193779,0.4538687169551849
1629376551436,0.1366432905197143,-0.0762993246316909,0.2026608437299728,0.4683284759521484
1629376551742,0.1207571849226951,-0.0820926576852798,0.2103026211261749,0.4710469245910644
1629376551869,0.1016463115811348,-0.0998448207974433,0.2107151001691818,0.4625817239284515
1629376551931,0.0856088325381279,-0.1281155198812484,0.2061901092529297,0.4466473758220672
1629376551978,0.078742392361164,-0.1608483046293258,0.1988465338945388,0.4283086061477661
1629376552041,0.068275973200798,-0.1916353404521942,0.1878308653831482,0.3769441545009613
1629376552244,0.0657548084855079,-0.2175671458244323,0.1702250987291336,0.3422536253929138
1629376552291,0.0679689794778823,-0.2369651049375534,0.1468892395496368,0.3407489955425262
1629376552384,0.0441528223454952,-0.2411140650510788,0.1247041150927543,0.3513971865177154
1629376552432,0.0126060871407389,-0.2129312455654144,0.109237715601921,0.366049200296402
1629376552557,-0.0107444208115339,-0.1532974541187286,0.0978779643774032,0.3794460594654083
1629376552682,-0.0139963533729314,-0.0894730538129806,0.079366959631443,0.3853572309017181
1629376552878,-0.0030556432902812,-0.0473131015896797,0.0604639425873756,0.377753883600235
1629376552934,0.0083181848749518,-0.0259257853031158,0.0937529727816581,0.3495740890502929
1629376552965,0.0129886884242296,0.0139581300318241,0.0523808375000953,0.2952856719493866
1629376552996,0.0170271173119545,0.0290969517081975,0.0321507900953292,0.2180741131305694
1629376553153,0.0347974821925163,0.052076831459999,0.0377068445086479,0.1304670870304107
1629376553309,0.0732802897691726,0.0809374451637268,0.059093315154314,0.0546231269836425
1629376553371,0.1219474002718925,0.1133289709687233,0.0864670574665069,0.0546231269836425
1629376553465,0.1219474002718925,0.1474139988422393,0.1168030798435211,0.0546231269836425
1629376553512,0.1219474002718925,0.1827143430709839,0.1510076522827148,0.0546231269836425
1629376553606,0.1219474002718925,0.2201490551233291,0.192325010895729,0.0546231269836425
1629376553637,0.1219474002718925,0.2605111598968506,0.2435003817081451,0.0546231269836425
1629376553762,0.1219474002718925,0.3002873659133911,0.3049907684326172,0.0546231269836425
1629376553902,0.1219474002718925,0.3264359533786773,0.3363372981548309,0.0546231269836425
1629376553974,0.1219474002718925,0.3242720067501068,0.3466002643108368,0.0546231269836425
1629376554099,0.1219474002718925,0.237518697977066,0.3408675789833069,0.0546231269836425
1629376554146,0.1219474002718925,0.127613216638565,0.3050805628299713,0.0546231269836425
1629376554255,0.1219474002718925,0.0333511792123317,0.1281018704175949,0.0546231269836425
1629376554411,0.1219474002718925,-0.1598856747150421,0.1117016598582267,0.7025423645973206
1629376554489,0.1219474002718925,-0.1658902764320373,0.0837719812989234,0.6928223371505737
1629376554583,0.1219474002718925,-0.1554640680551529,0.05640584602952,0.6939266324043274
1629376554630,0.1219474002718925,-0.136034220457077,0.0360444523394107,0.7120566368103027
1629376554727,0.1219474002718925,-0.1202515661716461,0.020199766382575,0.7120566368103027
1629376554853,0.9469009637832642,-0.1160129159688949,0.0085682645440101,0.7120566368103027
1629376555008,1.0637662410736084,-0.1219468563795089,0.0013021343620494,0.7120566368103027
1629376555071,1.142363429069519,-0.1280452758073806,-0.0010355084668844,0.7120566368103027
1629376555133,1.142363429069519,-0.1286519318819046,0.0053098681382834,0.7120566368103027
1629376555258,1.142363429069519,-0.1215390786528587,0.0370359942317009,0.7564319968223572
1629376555305,1.142363429069519,-0.1094202995300293,0.0958389788866043,0.7609880566596985
1629376555446,1.142363429069519,-0.0987813174724578,0.1703939139842987,0.7609880566596985
1629376555555,1.142363429069519,-0.1000803560018539,0.2254748493432998,0.7439332604408264
1629376555791,1.142363429069519,-0.0888830795884132,0.2487768083810806,0.726107656955719
1629376555823,1.142363429069519,-0.0735374242067337,0.2514830231666565,0.6972205638885498
1629376555963,1.084628701210022,-0.0589558221399784,0.2527225911617279,0.6620528697967529
1629376556041,1.0338026285171509,-0.0504088513553142,0.2589177787303924,0.6259194016456604
1629376556120,1.0161131620407104,-0.0509744547307491,0.2670241594314575,0.6157934069633484
1629376556151,1.041142821311951,-0.0598178282380104,0.2759652137756347,0.5799633264541626
1629376556245,1.0534429550170898,-0.0717735663056373,0.2915850877761841,0.5799633264541626
1629376556385,1.0214909315109253,-0.0816840305924415,0.3143726289272308,0.5799633264541626
1629376556494,0.8754279017448425,-0.0883414894342422,0.338733434677124,0.5799633264541626
1629376556541,0.8754279017448425,-0.0990878716111183,0.357190728187561,0.5799633264541626
1629376556635,0.8754279017448425,-0.118877463042736,0.3637975752353668,0.5799633264541626
1629376556744,0.8754279017448425,-0.1456445306539535,0.3498079478740692,0.4528895914554596
1629376556856,0.8754279017448425,-0.1676520705223083,0.3077292144298553,0.333413690328598
1629376556967,0.8754279017448425,-0.1702233403921127,0.2424245178699493,0.333413690328598
1629376557067,0.8754279017448425,-0.1537807881832122,0.1760806292295456,0.2290672659873962
1629376557148,0.26898854970932,-0.1365886628627777,0.1336460709571838,0.2290672659873962
1629376557314,0.2749602198600769,-0.1350763887166977,0.1209730356931686,0.2290672659873962
1629376557381,0.2607271373271942,-0.1530454456806183,0.1208349466323852,0.2290672659873962
1629376557493,0.2565921247005462,-0.1824683547019958,0.1208282634615898,0.2290672659873962
1629376557603,0.2532937824726105,-0.2133585512638092,0.1165410205721855,0.2290672659873962
1629376557684,0.2407523542642593,-0.2401085197925567,0.1055969297885894,0.014577804133296
1629376557750,0.2321676909923553,-0.2564356625080108,0.0865542367100715,0.0333976671099662
1629376557947,0.2220517992973327,-0.2505019009113312,0.0642082318663597,0.0765605270862579
1629376558008,0.2220517992973327,-0.2194244861602783,0.0476704239845275,0.1216155290603637
1629376558165,0.2220517992973327,-0.1721363216638565,0.0506207719445228,0.1490127295255661
1629376558233,0.2220517992973327,-0.1261628270149231,0.0908168032765388,0.1681341975927353
1629376558308,0.2738502621650696,-0.0946942418813705,0.1665234416723251,0.2003203183412552
1629376558392,0.3383131027221679,-0.0844911858439445,0.248814657330513,0.2003203183412552
1629376558574,0.3383131027221679,-0.0960027351975441,0.3117098212242126,0.2003203183412552
1629376558636,0.3383131027221679,-0.124655857682228,0.352178543806076,0.2003203183412552
1629376558713,0.3249634206295013,-0.1571133583784103,0.3879300057888031,0.2003203183412552
1629376558782,0.3282123208045959,-0.17469522356987,0.4306455254554748,0.2003203183412552
1629376558909,0.3466830849647522,-0.1681492924690246,0.4737334847450256,0.1972868889570236
1629376559009,0.3748411238193512,-0.1451641321182251,0.5036121010780334,0.2187621742486953
1629376559191,0.4093824028968811,-0.115971453487873,0.5164798498153687,0.2538424432277679
1629376559247,0.4528562724590301,-0.0855935961008071,0.5189732909202576,0.290927529335022
1629376559313,0.4528562724590301,-0.060046799480915,0.5189452767372131,0.3206011354923248
1629376559433,0.4528562724590301,-0.0479553416371345,0.5187197327613831,0.337656021118164
1629376559518,0.4528562724590301,-0.0512150637805461,0.5159722566604614,0.337656021118164
1629376559615,0.4528562724590301,-0.0599054209887981,0.5064559578895569,0.337656021118164
1629376559708,0.4528562724590301,-0.0606333725154399,0.4841611683368683,0.337656021118164
1629376559793,0.4528562724590301,-0.0458940006792545,0.4460429847240448,0.337656021118164
1629376559982,0.4528562724590301,-0.0123345144093036,0.3998165428638458,0.337656021118164
1629376560047,0.4528562724590301,0.0370599552989006,0.3630203902721405,0.337656021118164
1629376560133,0.4528562724590301,0.0911156386137008,0.343123197555542,0.337656021118164
1629376560240,0.4528562724590301,0.1356182396411895,0.3219453990459442,0.337656021118164
1629376560319,0.4528562724590301,0.164011001586914,0.2776728272438049,0.337656021118164
1629376560494,0.4528562724590301,0.1795525401830673,0.2105501294136047,0.337656021118164
1629376560561,0.4528562724590301,0.1889185905456543,0.1475095152854919,0.337656021118164
1629376560631,0.4528562724590301,0.1922666579484939,0.1137420535087585,0.337656021118164
1629376560720,0.4528562724590301,0.186936616897583,0.1048740744590759,0.337656021118164
1629376560786,0.4528562724590301,0.1732691824436187,0.0988643020391464,0.337656021118164
1629376561021,0.4528562724590301,0.1560590267181396,0.0863236412405967,0.337656021118164
1629376561095,0.4528562724590301,0.1411388218402862,0.0740542933344841,0.337656021118164
1629376561127,0.4528562724590301,0.1347139924764633,0.0799300223588943,0.337656021118164
1629376561254,0.4528562724590301,0.1472197473049163,0.1184501051902771,0.337656021118164
1629376561361,0.4528562724590301,0.1814619600772857,0.1868029236793518,0.337656021118164
1629376561483,0.4528562724590301,0.2204099893569946,0.2663733065128326,0.337656021118164
1629376561574,0.4528562724590301,0.2457361072301864,0.2706779837608337,0.337656021118164
1629376561636,0.4528562724590301,0.2515588998794555,0.2674963176250458,0.337656021118164
1629376561756,0.4528562724590301,0.2450828701257705,0.2634308934211731,0.337656021118164
1629376561884,0.4528562724590301,0.2354455739259719,0.3458527326583862,0.337656021118164
1629376561952,0.4528562724590301,0.2248986959457397,0.3867378234863281,0.337656021118164
1629376562069,0.4528562724590301,0.2128275036811828,0.3995917737483978,0.337656021118164
1629376562160,0.4528562724590301,0.2035159319639206,0.4013943970203399,0.337656021118164
1629376562251,0.4528562724590301,0.2003175020217895,0.4025962948799133,0.337656021118164
1629376562352,0.4528562724590301,0.2027556151151657,0.4055081009864807,0.337656021118164
1629376562470,0.4528562724590301,0.2070704102516174,0.4080641567707062,0.337656021118164
1629376562547,0.4528562724590301,0.20889912545681,0.4069149792194366,0.337656021118164
1629376562777,0.4528562724590301,0.2012081295251846,0.3954518437385559,0.337656021118164
1629376562820,0.4528562724590301,0.1729485541582107,0.3636490702629089,0.337656021118164
1629376563031,0.2651411592960357,0.1142938584089279,0.299209326505661,-0.104362815618515
1629376563112,0.2342167794704437,0.0258620977401733,0.1898929327726364,0.0210313647985458
1629376563206,0.2397783398628235,-0.0813957378268241,0.1680073589086532,0.1560542732477188
1629376563304,0.2705734074115753,-0.185006558895111,0.1542636156082153,0.2702599465847015
1629376563438,0.3151077330112457,-0.2566904425621032,0.1430897116661071,0.3580906689167022
1629376563487,0.3673771023750305,-0.2693866789340973,0.0083070835098624,0.4272035658359527
1629376563577,0.4237849414348602,-0.2172612100839615,-0.09858950227499,0.4824543595314026
1629376563645,0.4836232364177704,-0.137199267745018,-0.1513803899288177,0.52571040391922
1629376563696,0.5532920360565186,-0.0695602148771286,-0.1649789363145828,0.52571040391922
1629376563784,0.5532920360565186,-0.0210953950881958,-0.1533355861902237,0.52571040391922
1629376563892,0.5532920360565186,0.0208457056432962,-0.1175117865204811,0.52571040391922
1629376563978,0.5532920360565186,0.0693540722131729,-0.064286008477211,0.52571040391922
1629376564105,0.5620574355125427,0.1236790046095848,-0.0066282064653933,0.556407630443573
1629376564192,0.5791917443275452,0.1726549863815307,0.0479841753840446,0.595966637134552
1629376564284,0.6086362600326538,0.2073602825403213,0.0971634909510612,0.6396666169166565
1629376564436,0.6475797295570374,0.2248675525188446,0.1366967111825943,0.6833168268203735
1629376564505,0.6905443072319031,0.2293400019407272,0.1607562899589538,0.722338080406189
1629376564637,0.7334660291671753,0.2283593863248825,0.1705134361982345,0.7530054450035095
1629376564716,0.7759706974029541,0.2282395958900451,0.1731724441051483,0.77568519115448
1629376564801,0.8191232681274414,0.2281855642795562,0.1761078536510467,0.77568519115448
1629376564864,0.8191232681274414,0.2227455526590347,0.1817408204078674,0.77568519115448
1629376564993,0.8191232681274414,0.2065901756286621,0.187182143330574,0.77568519115448
1629376565114,0.8191232681274414,0.1831824779510498,0.1908977180719375,0.77568519115448
1629376565241,0.8191232681274414,0.1625638455152511,0.1934882998466491,0.77568519115448
1629376565333,0.1082040220499038,0.1500363498926162,0.1890170276165008,0.0416864976286888
1629376565429,0.1366679072380066,0.1389411091804504,0.1675630211830139,0.0376923643052578
1629376565569,0.1560027599334716,0.119199514389038,0.127397209405899,0.0691321790218353
1629376565603,0.1978572010993957,0.0921587273478508,0.0878282710909843,0.1519282311201095
1629376565705,0.3159438073635101,0.0826846584677696,0.1003540307283401,0.2944715023040771
1629376565865,0.4787061214447021,0.1171268820762634,0.1940944045782089,0.4515363872051239
1629376566019,0.6146649718284607,0.1857817620038986,0.3204928934574127,0.5755849480628967
1629376566146,0.6945515871047974,0.2520993053913116,0.4224902689456939,0.6501111388206482
1629376566236,0.7214022278785706,0.2939672172069549,0.4793496429920196,0.681278645992279
1629376566276,0.7142501473426819,0.3106583058834076,0.4981886446475982,0.6868486404418945
1629376566513,0.6941450238227844,0.3136005401611328,0.4974051117897033,0.6834716200828552
1629376566614,0.6737273335456848,0.3108736276626587,0.4931401312351227,0.679013729095459
1629376566672,0.6777345538139343,0.3043948113918304,0.4915120899677276,0.6925415992736816
1629376566712,0.6832670569419861,0.2935552597045898,0.4918241202831268,0.7011126279830933
1629376566755,0.6880674958229065,0.2805010676383972,0.4909168481826782,0.7055603861808777
1629376566846,0.6894399523735046,0.2697998881340027,0.4877358376979828,0.7078346610069275
1629376566912,0.6868928670883179,0.2663618922233581,0.4846817851066589,0.7094240784645081
1629376567116,0.6819165945053101,0.2705467641353607,0.4831604659557342,0.7095900177955627
1629376567179,0.671886682510376,0.2752718925476074,0.4795074462890625,0.7039190530776978
1629376567220,0.642184853553772,0.2649737298488617,0.4612754583358764,0.6806000471115112
1629376567339,0.5745577812194824,0.2244357019662857,0.4117140173912048,0.6284441351890564
1629376567443,0.4629224836826324,0.1503563225269317,0.3223893940448761,0.5468361973762512
1629376567536,0.3254158496856689,0.0606354959309101,0.2053925544023513,0.4516057074069977
1629376567706,0.2090241611003875,-0.0098781827837228,0.0996650382876396,0.3691110014915466
1629376567802,0.1464183926582336,-0.0372112467885017,0.0433994382619857,0.3120901882648468
1629376567946,0.1164634302258491,-0.0338307730853557,0.0356888957321643,0.2717558443546295
1629376568086,0.0871947482228279,-0.0224598459899425,0.0515092797577381,0.2367039173841476
1629376568164,0.046781051903963,-0.0132053140550851,0.0768265575170517,0.2074212431907653
1629376568196,-0.0048041562549769,-0.0073913037776947,0.1013768315315246,0.1861023008823394
1629376568321,-0.0581622384488582,-0.0040764021687209,0.119945615530014,0.168204590678215
1629376568412,-0.0964696556329727,-0.0045214719139039,0.1337688565254211,0.1499605327844619
1629376568487,-0.1100586950778961,-0.0142520172521471,0.146438255906105,0.1302792429924011
1629376568596,-0.1084474325180053,-0.0396832153201103,0.1569533944129943,0.1075746938586235
1629376568659,-0.109128400683403,-0.0826296955347061,0.1571027785539627,0.0828184410929679
1629376568862,-0.1212555691599845,-0.134599432349205,0.1353819668292999,0.0602652467787265
1629376568975,-0.1464562863111496,-0.1779030561447143,0.0877574756741523,0.0409481450915336
1629376569069,-0.1812491565942764,-0.1976920217275619,0.0272055231034755,0.0226983856409788
1629376569115,-0.2131828963756561,-0.194035992026329,-0.0160958524793386,0.0033357494976371
1629376569147,-0.2482669353485107,-0.1805599182844162,-0.0187752060592174,-2.2406831703847278e-05
1629376569272,-0.2678744494915008,-0.1694108843803405,0.0094491057097911,-0.0097622266039252
1629376569428,-0.2651146948337555,-0.1554193198680877,0.037678625434637,-0.0336511917412281
1629376569538,-0.2450162768363952,-0.1224713325500488,0.0468406677246093,-0.0778797417879104
1629376569600,-0.2151381969451904,-0.0700292587280273,0.0342545583844184,-0.1370566040277481
1629376569647,-0.1833003610372543,-0.0162252970039844,0.0105852568522095,-0.1886568963527679
1629376569818,-0.1613072454929351,0.0199121665209531,-0.0102219814434647,-0.2043968588113784
1629376569928,-0.1601340919733047,0.0334589332342147,-0.0212236605584621,-0.1861290037631988
1629376569990,-0.1845344752073288,0.0319912731647491,-0.0242147464305162,-0.1582538336515426
1629376570147,-0.2266922146081924,0.0268472731113433,-0.0201030857861042,-0.1441536396741867
1629376570225,-0.2626293003559112,0.02693647518754,-0.0075895022600889,-0.1622443497180938
1629376570303,-0.2626293003559112,0.0359856933355331,0.008684417232871,-0.1622443497180938
1629376570366,-0.2626293003559112,0.0494329705834388,0.0185850746929645,-0.1622443497180938
1629376570537,-0.2626293003559112,0.059445384889841,0.0146797625347971,-0.1622443497180938
1629376570662,-0.2626293003559112,0.0607033222913742,-0.0063155638054013,-0.1622443497180938
1629376570725,-0.2626293003559112,0.0529383718967437,-0.0444902293384075,-0.1622443497180938
1629376570850,-0.2626293003559112,0.0387256443500518,-0.0977007150650024,-0.1622443497180938
1629376570993,-0.2626293003559112,0.0153494933620095,-0.1583625376224517,-0.1622443497180938
1629376571102,0.3052093088626861,-0.026266373693943,-0.2133502513170242,-0.0372622609138488
1629376571164,0.2903479933738708,-0.0901171118021011,-0.2455335855484008,-0.0260860677808523
1629376571228,0.2718226611614227,-0.165921151638031,-0.2476452738046646,-0.0257011521607637
1629376571431,0.2548930943012237,-0.2290740609169006,-0.2318376153707504,-0.0356418266892433
1629376571556,0.2417393624782562,-0.2623686492443084,-0.2172708660364151,-0.0498824045062065
1629376571634,0.2310360074043274,-0.2728210985660553,-0.2161158770322799,-0.0474248044192791
1629376571681,0.2310360074043274,-0.2766708731651306,-0.2289915978908538,-0.0474248044192791
1629376571775,0.2310360074043274,-0.2818237543106079,-0.2446031421422958,-0.0474248044192791
1629376571822,0.2310360074043274,-0.2912798523902893,-0.2451384216547012,-0.0474248044192791
1629376572028,0.2310360074043274,-0.3029471039772033,-0.2181596904993057,-0.0474248044192791
1629376572185,0.2310360074043274,-0.3090387284755707,-0.1699665486812591,-0.0474248044192791
1629376572263,0.2310360074043274,-0.303261250257492,-0.119811937212944,-0.0474248044192791
1629376572325,0.2305573374032974,-0.2878330647945404,-0.0823371335864067,-0.0459420084953308
1629376572466,0.2137526571750641,-0.2732025384902954,-0.059723787009716,-0.0420079194009304
1629376572559,0.1866532415151596,-0.2661201357841491,-0.0463811680674552,-0.0447321571409702
1629376572591,0.1609688550233841,-0.2662557363510132,-0.0382962562143802,-0.0557296127080917
1629376572778,0.1433004736900329,-0.2685014903545379,-0.0378523506224155,-0.0756628289818763
1629376572888,0.1433004736900329,-0.2709543704986572,-0.0488758869469165,-0.0756628289818763
1629376572966,0.1433004736900329,-0.2743241786956787,-0.0666757449507713,-0.0756628289818763
1629376573031,0.1433004736900329,-0.2808184623718261,-0.0766697078943252,-0.0756628289818763
1629376573062,0.1433004736900329,-0.2881130576133728,-0.063123844563961,-0.0756628289818763
1629376573234,0.1433004736900329,-0.2877495288848877,-0.0273399483412504,-0.0756628289818763
1629376573343,0.1433004736900329,-0.2680852711200714,0.0116030694916844,-0.0756628289818763
1629376573640,0.1433004736900329,-0.2335591465234756,0.0336081683635711,-0.0756628289818763
1629376573703,0.1433004736900329,-0.2020731717348098,0.0304198320955038,-0.0756628289818763
