timestamp,TP9,AF7,AF8,TP10
1629376437348,0.0,0.0,0.0,0.0
1629376437453,0.0,0.0,0.0,0.0
1629376437526,0.0,0.0,0.0,0.0
1629376437607,0.0,0.0,0.0,0.0
1629376437724,0.0,0.0,0.0,0.0
1629376437910,0.0,0.0,0.0,0.0
1629376437993,0.0,0.0,0.0,0.0
1629376438077,0.0,0.0,0.0,0.0
1629376438118,0.0,0.0,0.0,0.0
1629376438198,0.0,0.0,0.0,0.0
1629376438344,0.0,0.0,0.0,0.0
1629376438522,0.0,0.0,0.0,0.0
1629376438561,0.0,0.0,0.0,0.0
1629376438669,0.0,0.0,0.0,0.0
1629376438745,0.0,0.0,0.0,0.0
1629376438815,0.0,0.0,0.0,0.0
1629376438917,0.0,0.0,0.0,0.0
1629376439099,0.0,0.0,0.0,0.0
1629376439152,0.0,0.0,0.0,0.0
1629376439271,0.0,0.0,0.0,0.0
1629376439380,0.0,0.0,0.0,0.0
1629376439519,0.0,0.0,0.0,0.0
1629376439632,0.4423064589500427,0.0,0.0161439049988985,0.8266394734382629
1629376439685,0.4328217506408691,0.1518735140562057,0.0214865859597921,0.7940976619720459
1629376439774,0.4228567779064178,0.1288643032312393,0.0189643427729606,0.7589814066886902
1629376439863,0.4140241146087646,0.1163402050733566,0.0118550220504403,0.7254468202590942
1629376439965,0.4075450599193573,0.1141732186079025,0.0036443427670747,0.6964572072029114
1629376440123,0.4040277600288391,0.1209573373198509,-0.0038882775697857,0.6738759279251099
1629376440214,0.4028442800045013,0.1324704438447952,-0.0092516588047146,0.6578489542007446
1629376440434,0.4025704562664032,0.1437247842550277,-0.0095904190093278,0.6470727324485779
1629376440520,0.4039021134376526,0.1519097834825515,-0.0040238318033516,0.6401590704917908
1629376440553,0.4092599153518677,0.1574764400720596,0.0077081890776753,0.6360520720481873
1629376440589,0.418999582529068,0.1605098247528076,0.0264639612287282,0.6342158913612366
1629376440671,0.4289477467536926,0.159660518169403,0.0516557246446609,0.6342993378639221
1629376440783,0.4357698857784271,0.1543371528387069,0.0847399905323982,0.6171656250953674
1629376440885,0.4356477260589599,0.1408107727766037,0.1157715693116188,0.5991348624229431
1629376441080,0.431052029132843,0.1272990703582763,0.1375562697649002,0.5847102403640747
1629376441124,0.4268582463264465,0.1214230507612228,0.1479022651910781,0.5803337097167969
1629376441246,0.4270223975181579,0.1241682842373848,0.150928646326065,0.5872143507003784
1629376441308,0.4331293106079101,0.1322015225887298,0.1509484499692917,0.6014851331710815
1629376441372,0.4437133967876434,0.1423642486333847,0.1505274474620819,0.6192508935928345
1629376441524,0.4548748433589935,0.151387482881546,0.1499697268009185,0.6368238925933838
1629376441619,0.462412029504776,0.1553005576133728,0.1486778259277343,0.6496325731277466
1629376441772,0.4645256400108337,0.1529365479946136,0.1453942209482193,0.6553651690483093
1629376441871,0.4620959460735321,0.1479593217372894,0.1378294676542282,0.6562673449516296
1629376441933,0.4553728997707367,0.1454129517078399,0.1259090453386306,0.6561398506164551
1629376442049,0.444063127040863,0.1461847424507141,0.1100971400737762,0.6566490530967712
1629376442154,0.4373086392879486,0.148237720131874,0.089764729142189,0.6557506322860718
1629376442185,0.4274447858333587,0.1514661312103271,0.0628558024764061,0.6514860391616821
1629376442324,0.4189722239971161,0.158186137676239,0.028972003608942,0.6441881060600281
1629376442458,0.4157388508319855,0.1681750267744064,-0.0077962367795407,0.6371786594390869
1629376442534,0.4183394610881805,0.177642673254013,-0.0397279150784015,0.6331802606582642
1629376442649,0.446440041065216,0.1824046075344085,-0.0593445636332035,0.6307163238525391
1629376442764,0.4517655968666076,0.1819234788417816,-0.0670776814222335,0.6268409490585327
1629376442852,0.4502606391906738,0.179039180278778,-0.0665216222405433,0.6197684407234192
1629376442938,0.4400739371776581,0.1765976548194885,-0.0631189867854118,0.613028883934021
1629376443082,0.4235498011112213,0.1759774684906005,-0.0610536970198154,0.61207515001297
1629376443195,0.4948083162307739,0.1785241067409515,-0.0618481040000915,0.6200453042984009
1629376443236,0.5809633135795593,0.1846179515123367,-0.0648711845278739,0.633952260017395
1629376443360,0.6606714725494385,0.1915781944990158,-0.0677637904882431,0.6488044857978821
1629376443478,0.7218612432479858,0.1958495676517486,-0.0692065879702568,0.6646968126296997
1629376443588,0.7604464292526245,0.1968739926815033,-0.0610651262104511,0.685762882232666
1629376443697,0.7336907982826233,0.1976692676544189,-0.0570073015987873,0.713747501373291
1629376443745,0.7012552618980408,0.1999226957559585,-0.0582405515015125,0.7445157170295715
1629376443812,0.672565221786499,0.2015706747770309,-0.0643511265516281,0.7735523581504822
1629376444027,0.6555012464523315,0.2031906545162201,-0.0734282433986663,0.8001031279563904
1629376444113,0.649976909160614,0.2064031660556793,-0.0841107815504074,0.8237054944038391
1629376444168,0.6533763408660889,0.2132812440395355,-0.0967173427343368,0.843381941318512
1629376444318,0.6533763408660889,0.2095711678266525,-0.1139768287539482,0.857796847820282
1629376444423,0.6533763408660889,0.2140552401542663,-0.1394072026014328,0.8690117001533508
1629376444602,0.6533763408660889,0.2302199751138687,-0.1744449585676193,0.8818307518959045
1629376444681,0.6533763408660889,0.2545478343963623,-0.1835734844207763,0.8931117653846741
1629376444719,0.6391156911849976,0.2547194957733154,-0.1703971773386001,0.902413845062256
1629376444831,0.61125648021698,0.2536025047302246,-0.141831949353218,0.91244775056839
1629376444894,0.5725486278533936,0.2523261308670044,-0.1129210516810417,0.9253485202789308
1629376444976,0.5312896966934204,0.2522353231906891,-0.1129210516810417,0.93863445520401
1629376445078,0.5007873773574829,0.2541804611682892,-0.1129210516810417,0.9468432068824768
1629376445191,0.4957370162010193,0.2575814127922058,-0.1129210516810417,0.9473761320114136
1629376445374,0.5237129926681519,0.2633779942989349,-0.1129210516810417,0.9433178901672364
1629376445419,0.5237129926681519,0.2768803238868713,-0.1129210516810417,0.9389644265174866
1629376445464,0.5237129926681519,0.2768803238868713,-0.1129210516810417,0.9311565160751344
1629376445738,0.5237129926681519,0.2768803238868713,-0.1129210516810417,0.9311565160751344
1629376445830,0.5237129926681519,0.2768803238868713,-0.1129210516810417,0.9311565160751344
1629376445901,0.5237129926681519,0.2768803238868713,-0.1129210516810417,0.9311565160751344
1629376446036,0.5237129926681519,0.2768803238868713,-0.1129210516810417,0.9311565160751344
1629376446122,0.5237129926681519,0.2768803238868713,-0.1129210516810417,0.9311565160751344
1629376446246,0.5237129926681519,0.2768803238868713,-0.1129210516810417,0.9311565160751344
1629376446310,0.4294700920581817,0.2768803238868713,-0.1129210516810417,0.9311565160751344
1629376446384,0.4801851809024811,0.2768803238868713,-0.1129210516810417,0.9311565160751344
1629376446436,0.5253596305847168,0.2768803238868713,-0.1129210516810417,0.9311565160751344
1629376446470,0.5568176507949829,0.2768803238868713,-0.1129210516810417,0.9311565160751344
1629376446548,0.5778135657310486,0.2225239276885986,-0.1129210516810417,0.9311565160751344
1629376446669,0.5924015641212463,0.2490136623382568,-0.1129210516810417,0.8103681802749634
1629376446769,0.600612998008728,0.2662158012390136,-0.1129210516810417,0.8000437021255493
1629376446923,0.5999148488044739,0.2709513902664184,0.0453497804701328,0.787934422492981
1629376447077,0.5901312232017517,0.2655982673168182,0.0218740869313478,0.787934422492981
1629376447158,0.5750792026519775,0.2551487386226654,-0.0018909827340394,0.787934422492981
1629376447208,0.5603746175765991,0.2551487386226654,-0.0237019229680299,0.787934422492981
1629376447254,0.5492794513702393,0.2551487386226654,-0.0440761260688304,0.787934422492981
1629376447346,0.5474422574043274,0.2551487386226654,-0.0654191970825195,0.787934422492981
1629376447490,0.5538133382797241,0.2551487386226654,-0.088063083589077,0.787934422492981
1629376447609,0.561688244342804,0.2440844178199768,-0.1102464124560356,0.7896546125411987
1629376447700,0.5658902525901794,0.2367714941501617,-0.1268823146820068,0.8052560687065125
1629376447794,0.5642118453979492,0.2378416955471038,-0.1352217942476272,0.827028751373291
1629376447856,0.5593057870864868,0.2372119426727295,-0.1359958350658416,0.8522844314575195
1629376447953,0.5583187937736511,0.232534110546112,-0.1319394409656524,0.8607145547866821
1629376448119,0.5629114508628845,0.2212727069854736,-0.1420011669397354,0.8541713356971741
1629376448188,0.5672484040260315,0.2031592726707458,-0.1526226997375488,0.8412734270095825
1629376448349,0.5656799077987671,0.1824601143598556,-0.1712702363729477,0.8297195434570312
1629376448418,0.5636709332466125,0.1689730882644653,-0.1861199736595153,0.8183419108390808
1629376448527,0.5704179406166077,0.1621284633874893,-0.1954733431339264,0.8183419108390808
1629376448621,0.5852523446083069,0.1622642427682876,-0.2003354877233505,0.8183419108390808
1629376448683,0.603742778301239,0.1622642427682876,-0.2019784450531005,0.8183419108390808
1629376448811,0.6223366260528564,0.1622642427682876,-0.1998043805360794,0.8183419108390808
1629376448921,0.6404561996459961,0.1622642427682876,-0.1897981166839599,0.8183419108390808
1629376449014,0.6575977206230164,0.1622642427682876,-0.1689107418060302,0.8183419108390808
1629376449108,0.6727553606033325,0.1667739301919937,-0.1371505260467529,0.8206008076667786
1629376449233,0.6855507493019104,0.1685522943735122,-0.1024509295821189,0.807774543762207
1629376449280,0.6980476379394531,0.1693023741245269,-0.0722129419445991,0.7735839486122131
1629376449420,0.710885226726532,0.1676044762134552,-0.0722129419445991,0.7055030465126038
1629376449514,0.6468223333358765,0.0892559438943862,-0.0722129419445991,0.6459582448005676
1629376449655,0.5575934648513794,0.0043611214496195,-0.0722129419445991,0.604505181312561
1629376449687,0.4595049917697906,-0.0794088616967201,-0.0722129419445991,0.5780863165855408
1629376449782,0.3989265263080597,-0.1567074805498123,-0.1913638710975647,0.5601556301116943
1629376450048,0.4273127019405365,-0.1207023859024047,-0.1795192509889602,0.5540353655815125
1629376450111,0.4509855508804321,-0.0772055089473724,-0.1682990789413452,0.559794545173645
1629376450157,0.464709997177124,-0.0326515771448612,-0.1543672829866409,0.5729478597640991
1629376450345,0.4689845144748688,0.0008168797940015,-0.1369858235120773,0.5857771039009094
1629376450439,0.4678599536418915,0.0174547974020242,-0.119609884917736,0.5922238826751709
1629376450595,0.4676823019981384,0.0200027786195278,-0.1079833656549453,0.5922840237617493
1629376450673,0.4705944061279297,0.0160587728023529,-0.105272889137268,0.5894203782081604
1629376450735,0.4752000570297241,0.0107849985361099,-0.1111228689551353,0.5867310762405396
1629376450860,0.478270947933197,0.0057302685454487,-0.1192297935485839,0.5838930010795593
1629376450892,0.4776693284511566,0.0016653955681249,-0.1221547946333885,0.5814483761787415
1629376450923,0.472972959280014,-0.0013652546331286,-0.1171352341771125,0.5784896612167358
1629376451079,0.4727844297885895,0.0088221374899148,-0.1023153737187385,0.5812966227531433
1629376451157,0.469530314207077,0.0169634353369474,-0.0899211019277572,0.5915842056274414
1629376451251,0.4633906185626983,0.0214088708162307,-0.0839908495545387,0.6051347851753235
1629376451391,0.4540104269981384,0.0212207306176424,-0.0822408944368362,0.6167356371879578
1629376451438,0.4417194426059723,0.017051413655281,-0.0816515460610389,0.6245924830436707
1629376451563,0.4286846816539764,0.0115162367001175,-0.0835046991705894,0.6320294737815857
1629376451720,0.4181473851203918,0.0075367479585111,-0.0909595787525177,0.6420002579689026
1629376451813,0.4102912843227386,0.0086454590782523,-0.1048646122217178,0.6530303955078125
1629376451877,0.4033051133155823,-0.001629504840821,-0.121460773050785,0.6608284115791321
1629376451987,0.3960346281528473,-0.0051989429630339,-0.1330643743276596,0.6624475121498108
1629376452049,0.3908288776874542,-0.0035503529943525,-0.1344554871320724,0.6588082313537598
1629376452174,0.3881428837776184,0.0005888846935704,-0.1250658333301544,0.6533390283584595
1629376452236,0.3852277994155884,0.0062089394778013,-0.1110747680068016,0.6601231694221497
1629376452315,0.3790293037891388,0.0125029701739549,-0.1007399931550026,0.6677930951118469
1629376452596,0.3773970603942871,0.0193103998899459,-0.0984103679656982,0.6745214462280273
1629376452627,0.3806237280368805,0.0265512429177761,-0.0999270305037498,0.6776653528213501
1629376452658,0.3869029879570007,0.0355680659413337,-0.0979943946003913,0.6760784387588501
1629376452752,0.3946387767791748,0.0503113754093647,-0.0908323526382446,0.6631422638893127
1629376452846,0.4379149675369262,0.0771073997020721,-0.0841471701860427,0.6558256149291992
1629376453002,0.4679994583129883,0.0771073997020721,-0.083424799144268,0.6527660489082336
1629376453080,0.4799973368644714,0.0771073997020721,-0.0877054035663604,0.6457496285438538
1629376453158,0.4794449508190155,0.0771073997020721,-0.091785617172718,0.628254771232605
1629376453330,0.4775879085063934,0.0771073997020721,-0.0936998128890991,0.604495108127594
1629376453392,0.4826841354370117,0.0686461552977562,-0.0958495438098907,0.5895019173622131
1629376453455,0.4934232234954834,0.0859176740050315,-0.1024112701416015,0.5906933546066284
1629376453549,0.5024217367172241,0.1160691156983375,-0.1144613847136497,0.6009069681167603
1629376453674,0.5042594075202942,0.1444362103939056,-0.1307876855134964,0.6064395904541016
1629376453814,0.499691903591156,0.1625398397445678,-0.1496148109436035,0.5910857915878296
1629376453879,0.4934075772762298,0.1708561927080154,-0.1675600558519363,0.5773842930793762
1629376454020,0.473211795091629,0.1737691909074783,-0.1802287250757217,0.5729347467422485
1629376454098,0.4534174501895904,0.1753655076026916,-0.1879085898399353,0.5792502760887146
1629376454145,0.438391238451004,0.1767851114273071,-0.1973018646240234,0.5887448787689209
1629376454301,0.4307550191879272,0.1786573976278305,-0.21481753885746,0.5958712697029114
1629376454395,0.4046351313591003,0.1803871244192123,-0.238030806183815,0.5966817736625671
1629376454520,0.3852308392524719,0.1799959987401962,-0.2585663795471191,0.5972333550453186
1629376454598,0.37515389919281,0.178496241569519,-0.2719957530498504,0.6020321846008301
1629376454692,0.3723428845405578,0.1743115335702896,-0.2809696793556213,0.6106033325195312
1629376454786,0.3737303018569946,0.1677121818065643,-0.2838386297225952,0.6194616556167603
1629376455013,0.3762148022651672,0.1583545506000518,-0.2752660512924194,0.6246318221092224
1629376455075,0.3759194314479828,0.1456055343151092,-0.2556878924369812,0.6265848278999329
1629376455185,0.3707950711250305,0.1311272382736206,-0.2349973618984222,0.6293095350265503
1629376455278,0.3643485307693481,0.1193573996424675,-0.2216610163450241,0.6372581720352173
1629376455388,0.3625414073467254,0.1123289987444877,-0.2159015089273452,0.6497517228126526
1629376455560,0.3675532937049866,0.1073300689458847,-0.2138733118772506,0.6611878275871277
1629376455669,0.3774327635765075,0.1022259891033172,-0.2141482383012771,0.6659038066864014
1629376455700,0.3903283178806305,0.0996374785900116,-0.215812936425209,0.6639973521232605
1629376455872,0.4033825099468231,0.1034919917583465,-0.2149637192487716,0.6626772880554199
1629376455903,0.4112313985824585,0.1116889044642448,-0.2067013680934906,0.6679784059524536
1629376455983,0.4104335010051727,0.1189677342772483,-0.1927996277809143,0.6791526079177856
1629376456077,0.4041234850883484,0.1247054040431976,-0.1784728914499282,0.6912379860877991
1629376456217,0.4001204073429107,0.1346926540136337,-0.1666954606771469,0.7006027102470398
1629376456295,0.4023359715938568,0.1544817984104156,-0.1563325673341751,0.7063133120536804
1629376456327,0.4075156152248382,0.1830004751682281,-0.1477807760238647,0.7093414068222046
1629376456436,0.4099302887916565,0.2137308567762375,-0.1456876695156097,0.7102006077766418
1629376456498,0.4062560796737671,0.2385621070861816,-0.1529876738786697,0.7090582251548767
1629376456623,0.3961812257766723,0.2517975270748138,-0.1662350296974182,0.704980194568634
1629376456782,0.3821479678153991,0.2533670365810394,-0.1787334084510803,0.6979094743728638
1629376456845,0.3690155446529388,0.2506645619869232,-0.1868592053651809,0.6898027062416077
1629376456985,0.362097293138504,0.2525032460689544,-0.1914441585540771,0.681816577911377
1629376457016,0.3629686832427978,0.2600410282611847,-0.1958884596824646,0.6737827658653259
1629376457127,0.3672220706939697,0.2665026187896728,-0.204219713807106,0.6647180318832397
1629376457221,0.3692795634269714,0.2672054469585418,-0.218813806772232,0.6541435718536377
1629376457362,0.3673470318317413,0.2651150226593017,-0.239303633570671,0.6437242031097412
1629376457469,0.3632915019989013,0.2663012444972992,-0.2608865797519684,0.635278582572937
1629376457565,0.3601489663124084,0.2725469768047333,-0.2773724496364593,0.6288590431213379
1629376457625,0.3594073951244354,0.2805421650409698,-0.2834618985652923,0.6235459446907043
1629376457806,0.3602766394615173,0.2862208485603332,-0.2795458137989044,0.620005190372467
1629376457851,0.360188364982605,0.286729097366333,-0.2730935215950012,0.6188899278640747
1629376458133,0.3584470450878143,0.2819600999355316,-0.2699036002159118,0.623046338558197
1629376458226,0.3584080636501312,0.2741526067256927,-0.2692282795906067,0.6336899995803833
1629376458400,0.3632653951644897,0.2672393321990967,-0.2660228013992309,0.6488077044487
1629376458479,0.3704800307750702,0.2636422216892242,-0.2569805085659027,0.6633878946304321
1629376458510,0.373075932264328,0.2612526714801788,-0.2423724979162216,0.6736107468605042
1629376458697,0.3683212399482727,0.2562976777553558,-0.223138615489006,0.6802592873573303
1629376458776,0.3596093952655792,0.2471787631511688,-0.2001608312129974,0.6845362186431885
1629376458842,0.3522530496120453,0.2349908053874969,-0.1761671751737594,0.6853427886962891
1629376458873,0.3497856557369232,0.221156507730484,-0.1538687795400619,0.6814648509025574
1629376458998,0.3550684452056885,0.205623373389244,-0.1336700469255447,0.6732526421546936
1629376459045,0.3693666756153106,0.1878050416707992,-0.1135572269558906,0.6610672473907471
1629376459139,0.3873091042041778,0.1685611605644226,-0.0928400158882141,0.6451438069343567
1629376459232,0.3982905745506286,0.1495094448328018,-0.075499452650547,0.6266295909881592
1629376459279,0.393905371427536,0.1310074627399444,-0.064469575881958,0.6071066856384277
1629376459560,0.3748042583465576,0.1133968383073806,-0.057838924229145,0.5888665914535522
1629376459607,0.3489615023136139,0.0975118428468704,-0.0493850894272327,0.571381688117981
1629376459654,0.3261210322380066,0.0862315893173217,-0.0356328412890434,0.5537019371986389
1629376459685,0.3129188418388366,0.0815595686435699,-0.0193389225751161,0.538352906703949
1629376459811,0.3108710050582886,0.0819726735353469,-0.0050203930586576,0.5326927900314331
1629376459923,0.3181193470954895,0.0833067595958709,0.004977379925549,0.5410202741622925
1629376459970,0.3314324617385864,0.085989125072956,0.009502500295639,0.5592281222343445
1629376460111,0.3474538028240204,0.0971816405653953,0.007873186841607,0.5794153213500977
1629376460251,0.3621972203254699,0.1212370842695236,0.0020810256246477,0.5942927598953247
1629376460370,0.3718222975730896,0.1511086374521255,-0.0013680248521268,0.6000221967697144
1629376460557,0.3737969398498535,0.1750556081533432,0.0025260234251618,0.5963470339775085
1629376460651,0.3678658604621887,0.1880227029323578,0.0105312215164303,0.5872628688812256
1629376460682,0.3563748002052307,0.1917250752449035,0.0135855581611394,0.5783836841583252
1629376460745,0.3453539311885834,0.1899908930063247,0.0082893902435898,0.5753813982009888
1629376460844,0.3437015414237976,0.186126634478569,-0.0027005390729755,0.578833281993866
1629376460920,0.3557910621166229,0.1842368990182876,-0.0152031956240534,0.5858259201049805
1629376461060,0.3756003081798553,0.1872888207435608,-0.0280206091701984,0.5927423238754272
1629376461123,0.392827033996582,0.1945996731519699,-0.0404675640165805,0.5981019735336304
1629376461232,0.4018188416957855,0.2026902288198471,-0.0492302253842353,0.6012803316116333
1629376461310,0.404756635427475,0.2089035212993621,-0.0539897084236145,0.5998521447181702
1629376461420,0.4075473546981811,0.2123995572328567,-0.0589595660567283,0.5926573872566223
1629376461513,0.4115774631500244,0.2102244645357132,-0.0688574686646461,0.5818397402763367
1629376461716,0.4126824736595154,0.1974856704473495,-0.081200897693634,0.5717564821243286
1629376461872,0.407435804605484,0.1727019995450973,-0.0897284522652626,0.5670351386070251
1629376461954,0.398012101650238,0.1417401880025863,-0.0950727984309196,0.5685634016990662
1629376461985,0.391499251127243,0.1141678020358085,-0.1042381301522255,0.5756322741508484
1629376462017,0.3952130079269409,0.0947648882865905,-0.1187550574541091,0.5873625874519348
1629376462126,0.4112113714218139,0.0819712057709693,-0.1288058310747146,0.6013053059577942
1629376462220,0.4338223040103912,0.0729420334100723,-0.1253847181797027,0.6114140152931213
1629376462298,0.453546404838562,0.0675984397530555,-0.1117818132042884,0.6138182282447815
1629376462423,0.4653596580028534,0.0661925598978996,-0.0998011082410812,0.6074730157852173
1629376462533,0.4696396589279175,0.0688986480236053,-0.0977859869599342,0.5962691307067871
1629376462595,0.4700560271739959,0.0739438161253929,-0.104639247059822,0.5865904092788696
1629376462876,0.4692652225494385,0.078792817890644,-0.1150570586323738,0.5839372873306274
1629376463144,0.4675784111022949,0.0820222944021225,-0.1226029470562934,0.5878585577011108
1629376463238,0.4644361138343811,0.0848095491528511,-0.1214520782232284,0.5917391180992126
1629376463285,0.4603035748004913,0.0908023864030838,-0.1070787981152534,0.5847867727279663
1629376463410,0.4601286351680755,0.1009963527321815,-0.1008948981761932,0.5773646831512451
1629376463456,0.4613425433635711,0.1147437542676925,-0.0953542813658714,0.5727719664573669
1629376463628,0.4657536745071411,0.1287247240543365,-0.0933068320155143,0.5752052664756775
1629376463691,0.4704000651836395,0.1396648585796356,-0.0925979688763618,0.584273099899292
1629376463722,0.4681921005249023,0.1521500498056411,-0.0906826257705688,0.5942736268043518
1629376463785,0.4534921944141388,0.1673580557107925,-0.0898511186242103,0.5988181233406067
1629376463925,0.4275439381599426,0.1845143884420395,-0.0954397246241569,0.5978825688362122
1629376463990,0.3988600075244903,0.2003156691789627,-0.1079049184918403,0.5981268286705017
1629376464084,0.3730723559856415,0.2103840708732605,-0.1161186397075653,0.6114434599876404
1629376464256,0.352857768535614,0.2111331075429916,-0.1037046387791633,0.6426317095756531
1629376464303,0.3385054767131805,0.2031955271959304,-0.069895751774311,0.6426317095756531
1629376464396,0.3385054767131805,0.1910484731197357,-0.069895751774311,0.6426317095756531
1629376464459,0.3385054767131805,0.1801237612962722,-0.069895751774311,0.6426317095756531
1629376464553,0.3385054767131805,0.1736787259578704,-0.069895751774311,0.6426317095756531
1629376464616,0.3385054767131805,0.1621923595666885,-0.069895751774311,0.6426317095756531
1629376464678,0.6756570339202881,0.1326857358217239,-0.069895751774311,0.6426317095756531
1629376464774,0.6968039870262146,0.0836384519934654,-0.069895751774311,0.6426317095756531
1629376464868,0.7021130323410034,0.0185849629342556,-0.069895751774311,0.6426317095756531
1629376464977,0.7009178400039673,0.0008802735246717,-0.069895751774311,0.7125893235206604
1629376465071,0.70255446434021,-0.0003928481019102,0.1504418551921844,0.7052552103996277
1629376465133,0.7055372595787048,0.0074760233983397,0.0967258661985397,0.6841326951980591
1629376465336,0.7041735649108887,0.0137792294844985,0.0498662889003753,0.6841326951980591
1629376465383,0.6968462467193604,0.0142972227185964,0.0152611443772912,0.6841326951980591
1629376465508,0.6866070628166199,0.012524570338428,-0.0020890925079584,0.6709801554679871
1629376465649,0.6767050623893738,0.0126823363825678,-0.0040691839531064,0.6807277798652649
1629376465808,0.6704224944114685,0.0162880364805459,1.620061266294215e-05,0.7009298801422119
1629376465855,0.6704134941101074,0.022070039063692,0.0002673242124728,0.7175619602203369
1629376465917,0.6817129254341125,0.0299639571458101,-0.0071017267182469,0.7253274321556091
1629376466120,0.6948733925819397,0.0409857481718063,-0.0195108242332935,0.7231021523475647
1629376466183,0.6996042728424072,0.0502678416669368,-0.0321194343268871,0.7134106755256653
1629376466214,0.6901940703392029,0.0739236921072006,-0.0420852154493331,0.7019578814506531
1629376466402,0.6717415452003479,0.1070993989706039,-0.0801021158695221,0.6845066547393799
1629376466464,0.6530002951622009,0.1413229554891586,-0.1166817247867584,0.665242075920105
1629376466558,0.6370298862457275,0.1683726757764816,-0.1413172334432602,0.6519747972488403
1629376466651,0.6208511590957642,0.1844651401042938,-0.1514878273010254,0.650282084941864
1629376466761,0.6056020855903625,0.1921932846307754,-0.149748295545578,0.6607627868652344
1629376466858,0.5957543253898621,0.1983095705509185,-0.1365407705307006,0.6652368903160095
1629376466920,0.5942315459251404,0.2077116072177887,-0.1159670278429985,0.6685293912887573
1629376467029,0.5984359979629517,0.2198080569505691,-0.0996492952108383,0.6758603453636169
1629376467139,0.6047276258468628,0.2306979745626449,-0.097886137664318,0.6722538471221924
1629376467186,0.6064938306808472,0.2369738221168518,-0.1112760603427887,0.6602746248245239
1629376467420,0.6011754870414734,0.2391571104526519,-0.1303283125162124,0.6477681398391724
1629376467467,0.5836679339408875,0.2397858798503875,-0.1428705900907516,0.6428202986717224
1629376467545,0.5563095808029175,0.2402981519699096,-0.1436251699924469,0.6508095860481262
1629376467576,0.5296466946601868,0.2398978024721145,-0.1337183713912964,0.6698031425476074
1629376467670,0.5180303454399109,0.2344848662614822,-0.1285867094993591,0.6819767355918884
1629376467877,0.5251014232635498,0.2226904034614563,-0.1249439939856529,0.6979535818099976
1629376467939,0.5429389476776123,0.2071197628974914,-0.1218360289931297,0.7133603692054749
1629376467971,0.5629442930221558,0.1932033002376556,-0.1170364767313003,0.7246888875961304
1629376468143,0.5828975439071655,0.1859465539455413,-0.1085719764232635,0.7312266826629639
1629376468189,0.6005456447601318,0.1858091652393341,-0.0996866077184677,0.7342467904090881
1629376468293,0.6005456447601318,0.1881535798311233,-0.1007726192474365,0.7360484600067139
1629376468493,0.6005456447601318,0.1873749345541,-0.1215082630515098,0.7393534779548645
1629376468555,0.6005456447601318,0.1809621900320053,-0.1610827893018722,0.7455595135688782
1629376468696,0.6005456447601318,0.1723877042531967,-0.202361062169075,0.7550537586212158
1629376468759,0.6005456447601318,0.1711625456809997,-0.2188030481338501,0.7693030834197998
1629376468805,0.6005456447601318,0.1711625456809997,-0.2188030481338501,0.7693030834197998
1629376468902,0.6005456447601318,0.1711625456809997,-0.2188030481338501,0.7693030834197998
1629376469011,0.6005456447601318,0.1711625456809997,-0.2188030481338501,0.7693030834197998
1629376469089,0.6005456447601318,0.1711625456809997,-0.2188030481338501,0.7693030834197998
1629376469230,0.6005456447601318,0.7997871041297913,-0.2188030481338501,0.7693030834197998
1629376469339,0.6005456447601318,0.7997871041297913,-0.2188030481338501,0.7693030834197998
1629376469575,0.6005456447601318,0.7997871041297913,-0.2188030481338501,0.7693030834197998
1629376469716,0.6005456447601318,0.7997871041297913,-0.2188030481338501,0.7693030834197998
1629376469794,0.6005456447601318,0.7997871041297913,-0.2188030481338501,0.7693030834197998
1629376469825,0.6005456447601318,0.7997871041297913,-0.2188030481338501,0.7693030834197998
1629376469856,0.6005456447601318,0.7997871041297913,-0.2188030481338501,0.7693030834197998
1629376469952,0.6005456447601318,0.7997871041297913,-0.2188030481338501,0.7693030834197998
1629376470062,0.6005456447601318,0.9572648406028748,-0.2188030481338501,0.7693030834197998
1629376470202,0.6005456447601318,1.0333499908447266,-0.2188030481338501,0.7693030834197998
1629376470311,0.6005456447601318,1.0519359111785889,-0.2188030481338501,0.7693030834197998
1629376470405,0.6005456447601318,1.0320802927017212,-0.2188030481338501,0.7693030834197998
1629376470468,0.6005456447601318,1.0297415256500244,-0.2188030481338501,0.7693030834197998
1629376470499,0.6005456447601318,1.0101417303085327,-0.2188030481338501,0.7693030834197998
1629376470639,0.6005456447601318,0.9741833806037904,-0.2188030481338501,0.7693030834197998
1629376470749,0.6005456447601318,0.9175540804862976,-0.2188030481338501,0.7693030834197998
1629376470908,0.6005456447601318,0.873046338558197,-0.2188030481338501,0.7693030834197998
1629376470955,0.6005456447601318,0.8341175317764282,-0.2188030481338501,0.7693030834197998
1629376471049,0.6005456447601318,0.7987256646156311,-0.2188030481338501,0.7693030834197998
1629376471158,0.6005456447601318,0.7661852240562439,-0.2188030481338501,0.7693030834197998
1629376471221,0.5749123692512512,0.7368226051330566,-0.2958722412586212,0.6681590676307678
1629376471564,0.5505999326705933,0.7106951475143433,-0.2885003983974457,0.6312529444694519
1629376471627,0.5101196765899658,0.6871339082717896,-0.2873309254646301,0.6018732190132141
1629376471720,0.4670775532722473,0.5559885501861572,-0.2972717881202698,0.5850046277046204
1629376471767,0.4317633807659149,0.3745986223220825,-0.3115724623203277,0.5777817964553833
1629376471892,0.4072007536888122,0.1764708161354065,-0.3194953799247741,0.577629566192627
1629376471974,0.391578197479248,0.0392933450639247,-0.3125424087047577,0.5847518444061279
1629376472036,0.3814704120159149,-0.0025682260747998,-0.2902683615684509,0.5968760848045349
1629376472192,0.3736418783664703,0.0028862899634987,-0.2597985565662384,0.6087216138839722
1629376472255,0.3648971617221832,0.0177010726183652,-0.2323808521032333,0.6145709156990051
1629376472349,0.353730708360672,0.0262222699820995,-0.2162908166646957,0.6121594309806824
1629376472411,0.342218816280365,0.0291486494243145,-0.2136812061071396,0.6034371852874756
1629376472505,0.3200750052928924,0.0366040654480457,-0.2235970795154571,0.5809856653213501
1629376472708,0.299448013305664,0.0572512745857238,-0.2278508841991424,0.5553670525550842
1629376472755,0.282706081867218,0.0876524150371551,-0.2294355779886245,0.5311214327812195
1629376472833,0.2733417451381683,0.1162662059068679,-0.2331291437149047,0.5132629871368408
1629376472975,0.2750252187252044,0.1358345299959182,-0.2392239272594452,0.5044531226158142
1629376473085,0.2888759076595306,0.1472544968128204,-0.2442056983709335,0.5033805966377258
1629376473133,0.3099481165409088,0.1547431796789169,-0.2462932020425796,0.5073989629745483
1629376473198,0.3291355073451996,0.1611444652080536,-0.2447527647018432,0.5154942274093628
1629376473291,0.3400916457176208,0.1676146835088729,-0.24005126953125,0.5251515507698059
1629376473401,0.342678040266037,0.1754516512155532,-0.2344744652509689,0.5302558541297913
1629376473494,0.3418617844581604,0.1860914230346679,-0.2332925349473953,0.5270524621009827
1629376473635,0.3427862226963043,0.1988146901130676,-0.241234689950943,0.5163206458091736
1629376473729,0.3490869402885437,0.2059601545333862,-0.2657988667488098,0.5036012530326843
1629376473822,0.3600218296051025,0.2156153470277786,-0.2880984842777252,0.4967283308506012
1629376473901,0.374301552772522,0.2268151044845581,-0.2985914349555969,0.4979388117790222
1629376473994,0.3858217895030975,0.2347814589738845,-0.2946956753730774,0.5071752667427063
1629376474119,0.3870621919631958,0.2340941727161407,-0.2829522490501404,0.5240837931632996
1629376474198,0.3867765069007873,0.2236131280660629,-0.2705905735492706,0.5496025681495667
1629376474260,0.382960706949234,0.2086685895919799,-0.2585029900074005,0.5804470181465149
1629376474385,0.3782022893428802,0.1976808160543441,-0.2447317838668823,0.6082356572151184
1629376474541,0.3744992911815643,0.1959352493286132,-0.2266900092363357,0.6250047087669373
1629376474650,0.3703391253948211,0.2035143226385116,-0.1953954696655273,0.6280009150505066
1629376474744,0.3373672366142273,0.2187502384185791,-0.1762753576040268,0.6191238760948181
1629376474807,0.3087382614612579,0.2187502384185791,-0.1775888502597808,0.6015534400939941
1629376474900,0.2873967289924621,0.2187502384185791,-0.2044409215450287,0.5795981884002686
1629376475043,0.264635294675827,0.2187502384185791,-0.2514084875583648,0.5573300719261169
1629376475121,0.2354510575532913,0.2187502384185791,-0.3002956509590149,0.5416340231895447
1629376475200,0.2241241931915283,-0.085271306335926,-0.2974596619606018,0.5382133722305298
1629376475309,0.2335418313741684,-0.0649404749274253,-0.2852386236190796,0.5451104044914246
1629376475403,0.2612482607364654,-0.0217592511326074,-0.2684990763664245,0.5553600192070007
1629376475512,0.2970146834850311,0.019096054136753,-0.2493819296360016,0.5631535649299622
1629376475653,0.331150621175766,0.0438879542052745,-0.2283878475427627,0.5675371289253235
1629376475762,0.3484923541545868,0.0559339933097362,-0.2075843065977096,0.5697021484375
1629376475828,0.3642856180667877,0.0650420263409614,-0.1887446492910385,0.5702736377716064
1629376476000,0.385434091091156,0.0776198133826255,-0.1703170835971832,0.5699140429496765
1629376476078,0.4108323752880096,0.0924410745501518,-0.1468051224946975,0.57398921251297
1629376476203,0.4350140988826751,0.1058261767029762,-0.1120825260877609,0.5885540246963501
1629376476265,0.4705203175544739,0.1151857674121856,-0.0688833743333816,0.6118067502975464
1629376476312,0.4962669610977173,0.1219148933887481,-0.055853184312582,0.6358397603034973
1629376476437,0.512980580329895,0.1394888013601303,-0.0390751622617244,0.6528935432434082
1629376476562,0.5262030959129333,0.1615269780158996,-0.0161250587552785,0.6614395380020142
1629376476796,0.5382930636405945,0.187179684638977,-0.0073325079865753,0.6623410582542419
1629376476870,0.5468114018440247,0.2083386182785034,-0.0061567965894937,0.6572855710983276
1629376476909,0.5479258894920349,0.2171047925949096,-0.0081337243318557,0.6490474939346313
1629376477003,0.5404250621795654,0.2134990841150283,-0.0114863822236657,0.6427046656608582
1629376477284,0.5270287394523621,0.2054571211338043,-0.0166142415255308,0.642977237701416
1629376477362,0.5111353397369385,0.2009634524583816,-0.0230134259909391,0.649296224117279
1629376477393,0.4948900043964386,0.2012026607990265,-0.0276235342025756,0.656349241733551
1629376477565,0.4790433645248413,0.2022377550601959,-0.0302919931709766,0.6627935171127319
1629376477612,0.4633246660232544,0.1998259574174881,-0.0354112163186073,0.6706144213676453
1629376477706,0.4467124938964844,0.1935235559940338,-0.051015455275774,0.6786025166511536
1629376477737,0.431225448846817,0.1848641335964203,-0.0809115245938301,0.6819224953651428
1629376477768,0.4186045229434967,0.175257533788681,-0.121032103896141,0.6777886152267456
1629376477898,0.4109712541103363,0.1644655466079712,-0.1175430566072464,0.6694451570510864
1629376477975,0.4068898856639862,0.15023173391819,-0.1160511523485183,0.6627084016799927
1629376478115,0.4033096432685852,0.1307847052812576,-0.1267427653074264,0.6598014235496521
1629376478240,0.3990742862224579,0.10931047052145,-0.1234116405248642,0.6587367057800293
1629376478385,0.3951990008354187,0.0929079726338386,-0.1153725981712341,0.6581041812896729
1629376478432,0.3936606645584106,0.0874211639165878,-0.1108691692352294,0.6579651236534119
1629376478650,0.3957410156726837,0.0929966196417808,-0.1112665012478828,0.6581573486328125
1629376478697,0.3993934392929077,0.1052938476204872,-0.1129066869616508,0.654208242893219
1629376478950,0.4022806286811828,0.12006825953722,-0.1141189634799957,0.6414178013801575
1629376479091,0.4046680927276611,0.1335305720567703,-0.117735631763935,0.6196278929710388
1629376479215,0.4075894653797149,0.1418900340795517,-0.1244923844933509,0.5930455327033997
1629376479293,0.4088407158851623,0.1451429724693298,-0.1338204592466354,0.5691075325012207
1629376479481,0.4041126668453216,0.1487501859664917,-0.1418299823999405,0.5432659387588501
1629376479559,0.3889774680137634,0.158820241689682,-0.1446748524904251,0.5157500505447388
1629376479684,0.3666486144065857,0.1788561195135116,-0.1353160291910171,0.4908292591571808
1629376479751,0.3456519246101379,0.2074666172266006,-0.1047949716448783,0.4720997810363769
1629376479936,0.3346096575260162,0.2403027862310409,-0.0552626438438892,0.4632302820682525
1629376479999,0.3337121903896332,0.2710064649581909,-0.0019514033338055,0.6561694145202637
1629376480077,0.3385954201221466,0.2942276000976562,0.041097056120634,0.773520827293396
1629376480202,0.3385954201221466,0.3089434504508972,0.0710910633206367,0.8342886567115784
1629376480311,0.3385954201221466,0.3178919851779938,0.0938925296068191,0.8634575009346008
1629376480405,0.3385954201221466,0.3235709369182586,0.1168214157223701,0.888993501663208
1629376480436,0.3385954201221466,0.325276643037796,0.143254816532135,0.916598379611969
1629376480467,0.3385954201221466,0.3231263756752014,0.4059322476387024,0.9517154693603516
1629376480592,0.3385954201221466,0.3196443915367126,0.4240766763687134,0.9984777569770812
1629376480670,0.3385954201221466,0.3179874420166015,0.4427443742752075,1.0567671060562134
1629376480813,0.3385954201221466,0.3183667361736297,0.4615704417228699,1.125280261039734
1629376480845,0.5311424136161804,0.3179356157779693,0.4794932603836059,1.125280261039734
1629376480892,0.5763689875602722,0.3145149052143097,0.49507936835289,1.125280261039734
1629376480970,0.5907650589942932,0.3070112764835357,0.5059543251991272,1.125280261039734
1629376481126,0.5804491639137268,0.29439178109169,0.5093957185745239,1.125280261039734
1629376481188,0.5589424967765808,0.2764246463775635,0.5037451982498169,1.125280261039734
1629376481329,0.5387116074562073,0.2572603821754455,0.4914385676383972,1.125280261039734
1629376481376,0.5256159901618958,0.2439515143632888,0.4772741496562958,1.125280261039734
1629376481454,0.519303560256958,0.2400493919849395,0.4659165441989898,1.125280261039734
1629376481516,0.5168535709381104,0.2408520877361297,0.4583684504032135,1.125280261039734
1629376481548,0.5150367617607117,0.2391339838504791,0.452072411775589,1.125280261039734
1629376481610,0.5126277804374695,0.2326723039150238,0.4432231187820434,0.6535890698432922
1629376481735,0.5103039145469666,0.2236652821302414,0.2120177894830703,0.6462128162384033
1629376481847,0.5157235264778137,0.215985968708992,0.1803616285324096,0.6455714702606201
1629376481956,0.5165553689002991,0.2123399823904037,0.140747919678688,0.6505345106124878
1629376482019,0.5042683482170105,0.2142760306596756,0.0955957248806953,0.6549544930458069
1629376482097,0.4774427115917206,0.2200238406658172,0.0468348786234855,0.6554271578788757
1629376482222,0.4453521370887756,0.2254431694746017,-0.0047384337522089,0.6555459499359131
1629376482347,0.4233665764331817,0.2273448258638382,-0.0580679588019847,0.6594482064247131
1629376482425,0.4186176061630249,0.2262178063392639,-0.1078933626413345,0.6658236384391785
1629376482518,0.4240447878837585,0.2246972620487213,-0.1444955170154571,0.6689139008522034
1629376482638,0.428554892539978,0.2234885990619659,-0.1647455692291259,0.6656097769737244
1629376482700,0.4269809424877167,0.2209066748619079,-0.1730279177427292,0.65727299451828
1629376482810,0.4199573397636413,0.21491739153862,-0.177935853600502,0.647262454032898
1629376482969,0.4097981452941894,0.2051801234483719,-0.1824484467506408,0.6361650824546814
1629376483032,0.3982093930244446,0.1926637291908264,-0.1851444840431213,0.6268475651741028
1629376483125,0.3852713108062744,0.1795434653759002,-0.1840756237506866,0.6205159425735474
1629376483219,0.369863212108612,0.1669415533542633,-0.1785070598125457,0.6159471869468689
1629376483391,0.3532100915908813,0.1548694223165512,-0.1693559437990188,0.6112975478172302
1629376483609,0.3402335047721863,0.1432519704103469,-0.1585439890623092,0.6101726293563843
1629376483688,0.3345910906791687,0.1315985172986984,-0.149855375289917,0.6173356771469116
1629376483719,0.3329802751541137,0.1197539418935775,-0.1456979662179947,0.6314283013343811
1629376483844,0.3284333050251007,0.107870914041996,-0.1467362940311432,0.6443329453468323
1629376483891,0.3154073059558868,0.0965379253029823,-0.1511613428592682,0.649473249912262
1629376483937,0.2950401902198791,0.0860483273863792,-0.1555019617080688,0.6478196978569031
1629376484047,0.2734151482582092,0.0770253464579582,-0.1576523333787918,0.6465877294540405
1629376484187,0.2564861476421356,0.0693965628743171,-0.1562332063913345,0.650206983089447
1629376484234,0.2449739426374435,0.0611629784107208,-0.1508248001337051,0.6570854783058167
1629376484313,0.2356229573488235,0.049108363687992,-0.1442487090826034,0.6618940234184265
1629376484437,0.2259055823087692,0.0350890457630157,-0.1422632485628128,0.6624125838279724
1629376484531,0.2182626724243164,0.028846014291048,-0.1487948298454284,0.6619642972946167
1629376484765,0.2169961929321289,0.038008090108633,-0.1611634343862533,0.6649343371391296
1629376484828,0.2238797098398208,0.0578142181038856,-0.1748894900083542,0.6713957190513611
1629376484875,0.2400397509336471,0.0773048177361488,-0.1830713301897049,0.6763436198234558
1629376485033,0.2628645896911621,0.0889570862054824,-0.182928666472435,0.6731389760971069
1629376485111,0.2877492606639862,0.0920132398605346,-0.1751502007246017,0.660646915435791
1629376485299,0.3114895224571228,0.0892638489603996,-0.1647747457027435,0.6426640748977661
1629376485377,0.3328160941600799,0.0837478637695312,-0.1552605479955673,0.6244075298309326
1629376485424,0.3525616824626922,0.0771692991256713,-0.1472460925579071,0.6110543012619019
1629376485518,0.3702984750270843,0.070119135081768,-0.1399843990802765,0.6066956520080566
1629376485564,0.3845930695533752,0.0614943243563175,-0.1342135369777679,0.6105575561523438
1629376485627,0.3945212662220001,0.0531051605939865,-0.1295328587293625,0.6171466708183289
1629376485721,0.4016252160072326,0.0517709515988826,-0.1249565705657005,0.6221339702606201
1629376485830,0.4075329005718231,0.0645196214318275,-0.1178274303674697,0.6266626119613647
1629376486036,0.4135584831237793,0.0889507010579109,-0.1075546592473983,0.634226381778717
1629376486146,0.4196237623691559,0.1127610653638839,-0.0964968204498291,0.6445240378379822
1629376486208,0.424575001001358,0.1250652372837066,-0.0880551189184188,0.6528688669204712
1629376486302,0.4273855984210968,0.1243431493639946,-0.0839117839932441,0.6553235054016113
1629376486473,0.4255497455596924,0.1166751533746719,-0.0845992341637611,0.6541309952735901
1629376486520,0.417790949344635,0.1098555997014045,-0.0873849093914032,0.6557048559188843
1629376486598,0.4054660201072693,0.1077281013131141,-0.0888836458325386,0.6648727059364319
1629376486723,0.3923852443695068,0.1089340075850486,-0.087596409022808,0.6811509728431702
1629376486755,0.3818450272083282,0.1127790361642837,-0.0862446948885917,0.6987878084182739
1629376486864,0.3751989603042602,0.1210405603051185,-0.0861800163984298,0.7124607563018799
1629376486973,0.3728549182415008,0.1341815143823623,-0.0860094875097274,0.7194803357124329
1629376487167,0.3762144744396209,0.1488179862499237,-0.0780555084347724,0.7202550768852234
1629376487245,0.3855564296245575,0.15839284658432,-0.0587139949202537,0.7170146703720093
1629376487323,0.3987738490104675,0.15780770778656,-0.0323999598622322,0.7106209397315979
1629376487510,0.4118436276912689,0.1466026753187179,-0.0107492795214056,0.7010117769241333
1629376487557,0.4201477169990539,0.1288890093564987,-0.0018755110213533,0.6879478693008423
1629376487604,0.4213339388370514,0.1111842170357704,-0.0043776896782219,0.6713593602180481
1629376487651,0.4167008697986603,0.0992288738489151,-0.0109300026670098,0.652624785900116
1629376487838,0.4111894369125366,0.0951653718948364,-0.0128065859898924,0.6350818276405334
1629376488010,0.4103095233440399,0.0964406505227088,-0.0086493249982595,0.6205479502677917
1629376488139,0.4153932631015777,0.0990073755383491,-0.0023517771624028,0.6049255132675171
1629376488202,0.4232340455055237,0.1005499213933944,0.0016467015957459,0.5813590288162231
1629376488264,0.4293419420719147,0.1018780246376991,0.0030683218501508,0.5500562787055969
1629376488371,0.4327574074268341,0.1025329604744911,0.0058342181146144,0.5227847099304199
1629376488527,0.436690092086792,0.10052952170372,0.0123135214671492,0.5105921030044556
1629376488605,0.4453281760215759,0.0967240929603576,0.0217547733336687,0.5112693309783936
1629376488684,0.4589804112911224,0.0974753573536872,0.0292005613446235,0.5167862772941589
1629376488762,0.4740862250328064,0.1103152558207511,0.0297090429812669,0.5269015431404114
1629376488824,0.4866442382335663,0.1349360793828964,0.0249688141047954,0.5461481213569641
1629376488903,0.4952177107334137,0.1629776954650879,0.0223645567893981,0.5739682912826538
1629376489077,0.4976392090320587,0.1861329823732376,0.0287090204656124,0.6020201444625854
1629376489233,0.5064340829849243,0.2012417614459991,0.0313773564994335,0.6236302852630615
1629376489295,0.5211877226829529,0.209327682852745,0.0427954979240894,0.6367427706718445
1629376489405,0.5226136445999146,0.2147321850061416,0.056850790977478,0.6452086567878723
1629376489498,0.525361180305481,0.2200427949428558,0.0694808438420295,0.6545860767364502
1629376489530,0.5283043384552002,0.2244817465543747,0.0798654034733772,0.6678805351257324
1629376489670,0.5291643738746643,0.2243233025074005,0.0903775915503501,0.6816138029098511
1629376489845,0.5282954573631287,0.2178173214197158,0.1052070185542106,0.6904256939888
1629376489923,0.5275201201438904,0.2078527808189392,0.1263558864593505,0.6916719079017639
1629376489970,0.5336071252822876,0.1991066634654998,0.1513603031635284,0.6858981251716614
1629376490095,0.5332595109939575,0.1935451030731201,0.1749793142080307,0.6738872528076172
1629376490330,0.5222941637039185,0.1882438212633133,0.1926684975624084,0.6555055379867554
1629376490408,0.5006794333457947,0.1772560030221939,0.1926684975624084,0.6310957074165344
1629376490454,0.4710946977138519,0.1566036492586136,0.1926684975624084,0.6053342223167419
1629376490548,0.4225226044654846,0.127434566617012,0.1926684975624084,0.5840150713920593
1629376490673,0.4174882173538208,0.0954962074756622,0.1926684975624084,0.5711245536804199
1629376490720,0.4155538976192474,0.0665183514356613,0.1926684975624084,0.5650620460510254
1629376490879,0.4095829725265503,0.042308259755373,-0.3310000002384186,0.56336909532547
1629376490942,0.4091613590717315,0.0190770532935857,-0.2868865728378296,0.5622922778129578
1629376491084,0.4025554656982422,-0.005578517448157,-0.2331797629594802,0.5578354597091675
1629376491178,0.4018276929855346,-0.0289054624736309,-0.1889564841985702,0.550034761428833
1629376491224,0.418621152639389,-0.0424824617803096,-0.163193330168724,0.5450536608695984
1629376491584,0.4492718577384949,-0.0413990244269371,-0.1542232930660247,0.5472787022590637
1629376491662,0.4793382883071899,-0.0313516445457935,-0.1550384163856506,0.5531617999076843
1629376491709,0.4927399754524231,-0.0235498454421758,-0.1585760712623596,0.5548920631408691
1629376491740,0.4949472844600677,-0.0259792283177375,-0.1616582125425338,0.551945686340332
1629376491834,0.4887720644474029,-0.0379016660153865,-0.1632286608219146,0.5500101447105408
1629376491961,0.4789143800735473,-0.0504749231040477,-0.1625629216432571,0.5552111268043518
1629376492070,0.4702278673648834,-0.0527767948806285,-0.1562520712614059,0.567517101764679
1629376492133,0.4737131595611572,-0.0392122641205787,-0.1326246708631515,0.5830145478248596
1629376492226,0.4744022190570831,-0.0137699590995907,-0.1044349446892738,0.5974351763725281
1629376492320,0.4730812609195709,0.0144631126895546,-0.0756742358207702,0.610339343547821
1629376492367,0.4721724390983581,0.0382618121802806,-0.0547823682427406,0.6230069398880005
1629376492539,0.4724433124065399,0.054292757064104,-0.0471767336130142,0.6369464993476868
1629376492586,0.471294105052948,0.0623528771102428,-0.0515102185308933,0.6506448984146118
1629376492617,0.4630568325519562,0.0644307136535644,-0.0632098838686943,0.6591304540634155
1629376492758,0.4450948238372803,0.0628318339586258,-0.0760068148374557,0.6589241027832031
1629376492804,0.4184094071388244,0.0607280768454074,-0.0862036123871803,0.6511030197143555
1629376492898,0.3889369070529938,0.0625165030360221,-0.0929752513766288,0.6419475674629211
1629376492976,0.3665758073329925,0.0707069113850593,-0.0976357460021972,0.6380452513694763
1629376493132,0.3655551373958587,0.0845100656151771,-0.100726768374443,0.6416065692901611
1629376493164,0.3910266458988189,0.0993610918521881,-0.1029934585094451,0.6487746834754944
1629376493320,0.4286562204360962,0.1091825366020202,-0.1065960153937339,0.6516699194908142
1629376493398,0.456804484128952,0.109841912984848,-0.1165867894887924,0.6430059671401978
1629376493507,0.46475949883461,0.1017177775502204,-0.1351573169231414,0.6206248998641968
1629376493554,0.4567345976829529,0.0910775288939476,-0.1587304919958114,0.5887973308563232
1629376493679,0.4436513483524322,0.0869296938180923,-0.1792580187320709,0.5531324148178101
1629376493775,0.4344969093799591,0.093077003955841,-0.1887728571891784,0.5193850994110107
1629376493885,0.4321490228176117,0.107908621430397,-0.1808351427316665,0.4917753934860229
1629376493963,0.4366859197616577,0.1289262324571609,-0.1539730429649353,0.4766232669353485
1629376494088,0.4478521645069122,0.1533351242542266,-0.1119879037141799,0.4781258702278137
1629376494166,0.4638853967189789,0.1765260547399521,-0.0662293210625648,0.4922969043254852
1629376494323,0.4823129177093506,0.1928082257509231,-0.0273544546216726,0.5086498856544495
1629376494400,0.4988492429256439,0.2006544172763824,-8.50615615490824e-05,0.5178546905517578
1629376494557,0.507796585559845,0.204773336648941,0.0168083980679512,0.5220786333084106
1629376494650,0.5025408267974854,0.2097159773111343,0.0268874783068895,0.5294113159179688
1629376494697,0.4815281629562378,0.2144437581300735,0.034423004835844,0.546596884727478
1629376494775,0.4544534683227539,0.2157182097434997,0.0452063456177711,0.5717998147010803
1629376494916,0.4395292997360229,0.2135567367076873,0.0616677924990654,0.5973988771438599
1629376494978,0.4463329017162323,0.2117025703191757,0.0799798443913459,0.6187434196472168
1629376495135,0.4654564559459686,0.2130037397146225,0.0945434719324112,0.6369181871414185
1629376495197,0.481864333152771,0.2156563550233841,0.1025241762399673,0.6553615927696228
1629376495369,0.4895918667316437,0.2174010872840881,0.1040439829230308,0.674299418926239
1629376495431,0.4910839796066284,0.2170633375644683,0.0981792733073234,0.6896811723709106
1629376495572,0.4879274070262909,0.2137746214866638,0.0823641121387481,0.6962449550628662
1629376495681,0.4793437719345093,0.207140639424324,0.0549566000699996,0.6933534741401672
1629376495762,0.4658601582050323,0.1991600543260574,0.0204205326735973,0.6862578392028809
1629376495856,0.4511927664279938,0.1942048221826553,-0.0120465625077486,0.6834357380867004
1629376495934,0.4405635297298431,0.1943506151437759,-0.0317867659032344,0.689782440662384
1629376496043,0.4369178116321563,0.1968069970607757,-0.0332793332636356,0.7009605765342712
1629376496106,0.43896484375,0.1984252333641052,-0.0174798313528299,0.7089415192604065
1629376496262,0.443545788526535,0.1999580860137939,0.0052968505769968,0.7097607254981995
1629376496372,0.4453209042549133,0.2037735134363174,0.0210064817219972,0.7049994468688965
1629376496418,0.4407450556755066,0.2097714990377426,0.0221770927309989,0.6989836096763611
1629376496622,0.4320223927497864,0.2143119871616363,0.0111516639590263,0.6932657957077026
1629376496637,0.4293686747550964,0.2144892513751983,-0.0043249018490314,0.6877481341362
1629376496715,0.4413219392299652,0.2103417366743087,-0.0182192474603652,0.6824845671653748
1629376496812,0.4638011157512665,0.2028249353170395,-0.0283917728811502,0.6790304183959961
1629376497000,0.4839550852775574,0.1927125006914138,-0.0343754775822162,0.6774813532829285
1629376497142,0.4935342967510223,0.1807027757167816,-0.0361634753644466,0.6764561533927917
1629376497225,0.4923043549060821,0.168328508734703,-0.0358741991221904,0.6736835241317749
1629376497280,0.4851162731647491,0.1570264250040054,-0.0371790900826454,0.6679300665855408
1629376497315,0.4765456020832062,0.1464355289936065,-0.0411355644464492,0.6587880849838257
1629376497445,0.4698013663291931,0.1337080150842666,-0.0483544282615184,0.6459027528762817
1629376497601,0.4684557020664215,0.1157483682036399,-0.0595572926104068,0.6288353204727173
1629376497691,0.4742117524147033,0.0917842984199523,-0.0772398486733436,0.606906533241272
1629376497795,0.4860545098781585,0.0647093206644058,-0.1006625145673751,0.5802469849586487
1629376497877,0.4879279136657715,0.0396319478750228,-0.1254510134458542,0.5533171892166138
1629376497959,0.4894903302192688,0.0206486135721206,-0.1466470807790756,0.5353100895881653
1629376498033,0.5139187574386597,0.0087765362113714,-0.1615353375673294,0.5323219299316406
1629376498197,0.5307307243347168,0.0002876375510822,-0.1711650043725967,0.5380858778953552
1629376498329,0.5358597040176392,-0.0086058750748634,-0.1785789579153061,0.541482150554657
1629376498425,0.5340459942817688,-0.0181492362171411,-0.1865173131227493,0.5354139804840088
1629376498530,0.5335760712623596,-0.0258745905011892,-0.1960799992084503,0.5235347151756287
1629376498568,0.5379345417022705,-0.028921365737915,-0.2046675682067871,0.5139064788818359
1629376498714,0.544679582118988,-0.0247041657567024,-0.2063379734754562,0.5134994387626648
1629376498796,0.550172746181488,-0.0110849356278777,-0.1971426904201507,0.5235924124717712
1629376498881,0.5551917552947998,0.0101066138595342,-0.1809147894382476,0.5406120419502258
1629376499008,0.5611851215362549,0.0326705537736415,-0.1666453927755355,0.5595083832740784
1629376499126,0.5655778050422668,0.0508290827274322,-0.162056565284729,0.5766081213951111
1629376499194,0.5647987127304077,0.0646304190158844,-0.1702003926038742,0.5920531749725342
1629376499245,0.5571375489234924,0.077571727335453,-0.1879463344812393,0.6084271669387817
1629376499446,0.5535994172096252,0.0908292979001998,-0.2088373601436615,0.6251106262207031
1629376499530,0.5505561232566833,0.1013304591178894,-0.226218432188034,0.636684000492096
1629376499653,0.5317584872245789,0.1079431846737861,-0.2363189458847046,0.639236569404602
1629376499738,0.5120102763175964,0.1147976145148277,-0.2389668226242065,0.6357461810112
1629376499785,0.4946533143520355,0.1272298246622085,-0.2350197732448578,0.6336121559143066
1629376499916,0.4808163046836853,0.1457971632480621,-0.2267095148563385,0.6378355622291565
1629376500021,0.4719856083393097,0.1656742990016937,-0.2190327644348144,0.6470804214477539
1629376500112,0.4726279079914093,0.1810256987810135,-0.2174080461263656,0.6581664681434631
1629376500237,0.4844148755073547,0.1877301335334777,-0.2245888262987136,0.668024480342865
1629376500326,0.5012014508247375,0.183908462524414,-0.240554928779602,0.6735270023345947
1629376500385,0.5115076303482056,0.1702355146408081,-0.2623404264450073,0.6720805168151855
1629376500511,0.5081526637077332,0.1507991254329681,-0.2830692827701568,0.6645481586456299
1629376500635,0.4928799271583557,0.1309150755405426,-0.2941933572292328,0.6551573276519775
1629376500687,0.4723422229290008,0.1130899116396904,-0.2932748198509216,0.6479293704032898
1629376500838,0.4525579810142517,0.096084177494049,-0.2855584025382995,0.6423113346099854
1629376500907,0.4356479048728943,0.0784870237112045,-0.2754709720611572,0.6353282332420349
1629376500995,0.4226007461547851,0.0624447427690029,-0.2599680721759796,0.6263925433158875
1629376501099,0.4148207902908325,0.0494619272649288,-0.2351523339748382,0.6192009449005127
1629376501201,0.4115660190582275,0.0365355350077152,-0.206961989402771,0.6153855323791504
1629376501332,0.4085832834243774,0.0197813231498003,-0.1857524514198303,0.6122646927833557
1629376501416,0.4029493927955627,-0.0002077920362353,-0.1766635626554489,0.6073761582374573
1629376501528,0.3949018716812134,-0.0176609642803668,-0.174038752913475,0.6017551422119141
1629376501611,0.3833991587162018,-0.0255161579698324,-0.1685696244239807,0.5953702926635742
1629376501743,0.3664663732051849,-0.0187881272286176,-0.1565495729446411,0.5874187350273132
1629376501886,0.3461258113384247,0.0024306171108037,-0.1409465074539184,0.5770061016082764
1629376501966,0.3315765261650085,0.0319709740579128,-0.1267341673374176,0.5655755996704102
1629376502025,0.330952912569046,0.0605704896152019,-0.118590623140335,0.5541819334030151
1629376502122,0.3416217267513275,0.0820065066218376,-0.1179985180497169,0.5423554182052612
1629376502223,0.3547139763832092,0.0948248878121376,-0.1216435134410858,0.5296186208724976
1629376502343,0.3635114133358001,0.101258598268032,-0.1237179562449455,0.5176881551742554
1629376502450,0.3658829927444458,0.1049128994345665,-0.1218725591897964,0.5098174214363098
1629376502533,0.3611007034778595,0.1080286651849746,-0.1209502294659614,0.5075319409370422
1629376502746,0.3507908582687378,0.1110501140356063,-0.1276928931474685,0.5078299641609192
1629376502854,0.3430803120136261,0.1146225258708,-0.1401859521865844,0.5088235139846802
1629376502920,0.342266321182251,0.1201986968517303,-0.1475367844104766,0.5126780271530151
1629376502961,0.3429639339447021,0.1266967207193374,-0.1422417610883712,0.5119826793670654
1629376503054,0.3401458263397217,0.1241909712553024,-0.1305921673774719,0.5052973628044128
1629376503151,0.3298633992671966,0.1189950481057167,-0.1275286674499511,0.4927921891212463
1629376503257,0.3143757581710815,0.1092373728752136,-0.1271844059228897,0.4780692756175995
1629376503351,0.2999813556671142,0.1021502465009689,-0.1293971091508865,0.4672724604606628
1629376503547,0.288628488779068,0.0935082584619522,-0.1310727447271347,0.4631724953651428
1629376503634,0.2758451998233795,0.0844878628849983,-0.1286084055900573,0.4648844599723816
1629376503712,0.2587711811065674,0.0765318796038627,-0.121921107172966,0.4713074862957001
1629376503839,0.2405854761600494,0.0702078863978385,-0.1135764718055725,0.481068342924118
1629376503887,0.2271803468465805,0.0655220672488212,-0.1054283082485199,0.4903222322463989
1629376503929,0.2271803468465805,0.0636902600526809,-0.0963348895311355,0.4952594935894012
1629376504095,0.2271803468465805,0.0675601810216903,-0.0825106874108314,0.4952594935894012
1629376504182,0.2271803468465805,0.0751676186919212,-0.0607729330658912,0.4952594935894012
1629376504333,0.2271803468465805,0.0797351151704788,-0.0607729330658912,0.4952594935894012
1629376504407,0.2271803468465805,0.074836142361164,-0.0607729330658912,0.4952594935894012
1629376504440,0.2271803468465805,0.0612401887774467,-0.0607729330658912,0.7618523240089417
1629376504572,0.2271803468465805,0.0600237920880317,-0.0607729330658912,0.7115671038627625
1629376504631,0.2271803468465805,0.0600237920880317,-0.0607729330658912,0.7115671038627625
1629376504802,0.2271803468465805,0.0600237920880317,-0.0607729330658912,0.7115671038627625
1629376504976,0.2271803468465805,0.0447431467473506,-0.0607729330658912,0.7115671038627625
1629376505052,0.2271803468465805,0.0230336785316467,-0.0607729330658912,0.7115671038627625
1629376505189,0.2271803468465805,0.0011819086503237,-0.0607729330658912,0.7115671038627625
1629376505254,0.2271803468465805,-0.0115479379892349,-0.0607729330658912,0.7115671038627625
1629376505304,0.2271803468465805,-0.0095243025571107,-0.0607729330658912,0.7115671038627625
1629376505364,0.2271803468465805,0.0056448811665177,-0.0607729330658912,0.7115671038627625
1629376505478,0.2271803468465805,0.0262389816343784,-0.0607729330658912,0.7115671038627625
1629376505591,0.2271803468465805,0.0413148626685142,-0.0607729330658912,0.7115671038627625
1629376505741,0.2271803468465805,0.0478851944208145,-0.0607729330658912,0.6545771956443787
1629376505787,0.2271803468465805,0.0478851944208145,-0.0607729330658912,0.6545771956443787
1629376505904,0.2271803468465805,0.0478851944208145,-0.0607729330658912,0.6545771956443787
1629376506041,0.2271803468465805,0.0478851944208145,-0.0607729330658912,0.6545771956443787
1629376506113,0.2271803468465805,0.0478851944208145,-0.0607729330658912,0.6545771956443787
1629376506295,0.2271803468465805,0.0478851944208145,-0.0607729330658912,0.6545771956443787
1629376506334,0.2271803468465805,0.0478851944208145,-0.0607729330658912,0.6545771956443787
1629376506384,0.2271803468465805,0.0478851944208145,-0.0607729330658912,0.6545771956443787
1629376506504,0.2271803468465805,0.0478851944208145,-0.0607729330658912,0.6545771956443787
1629376506569,0.2271803468465805,0.0478851944208145,-0.0617617145180702,0.6545771956443787
1629376506686,0.2271803468465805,0.0478851944208145,-0.0426710918545722,0.6545771956443787
1629376506864,0.2271803468465805,0.0478851944208145,-0.0230098348110914,0.6545771956443787
1629376506929,0.2271803468465805,0.0478851944208145,-0.0146972313523292,0.6545771956443787
1629376507003,0.2271803468465805,0.0478851944208145,-0.0187346078455448,0.6545771956443787
1629376507162,0.2271803468465805,0.0478851944208145,-0.0273297186940908,0.6545771956443787
1629376507204,0.2271803468465805,0.0478851944208145,-0.0336208269000053,0.6545771956443787
1629376507424,0.2271803468465805,0.0478851944208145,-0.0376493670046329,0.6545771956443787
1629376507500,0.2271803468465805,0.0478851944208145,-0.0373627506196498,0.6545771956443787
1629376507545,0.2271803468465805,0.0478851944208145,-0.0292260590940713,0.6545771956443787
1629376507690,0.2271803468465805,0.0478851944208145,-0.0157169736921787,0.6545771956443787
1629376507815,0.2271803468465805,0.0478851944208145,-0.0057468651793897,0.6545771956443787
1629376507956,0.2271803468465805,0.0478851944208145,-0.0016741362633183,0.6545771956443787
1629376508054,0.2271803468465805,0.0478851944208145,-0.0110459942370653,0.6545771956443787
1629376508116,0.2271803468465805,0.0969051197171211,-0.0279615074396133,0.6545771956443787
1629376508210,0.2271803468465805,0.0833233743906021,-0.0478796176612377,0.6545771956443787
1629376508257,0.2271803468465805,0.0814900174736976,-0.05369333922863,0.6545771956443787
1629376508325,0.2271803468465805,0.0814900174736976,-0.0641997009515762,0.6545771956443787
1629376508417,0.2271803468465805,0.0814900174736976,-0.0732772275805473,0.6545771956443787
1629376508651,0.2271803468465805,0.0814900174736976,-0.0756402537226677,0.6545771956443787
1629376508714,0.2271803468465805,0.0814900174736976,-0.0729966163635253,0.6545771956443787
1629376508761,0.2271803468465805,0.0814900174736976,-0.0706442669034004,0.6545771956443787
1629376508886,0.2271803468465805,0.0814900174736976,-0.0694724917411804,0.6545771956443787
1629376509026,0.2271803468465805,0.0814900174736976,-0.0747501701116561,0.6545771956443787
1629376509089,0.2271803468465805,0.0814900174736976,-0.10145765542984,0.6545771956443787
1629376509183,0.2271803468465805,0.0678190365433693,-0.1672940850257873,0.6545771956443787
1629376509370,0.2271803468465805,0.049342755228281,-0.2796075344085693,0.6545771956443787
1629376509464,0.2271803468465805,0.049342755228281,-0.2796075344085693,0.6545771956443787
1629376509495,0.2271803468465805,0.049342755228281,-0.2796075344085693,0.6545771956443787
1629376509604,0.2271803468465805,0.049342755228281,-0.2796075344085693,0.6545771956443787
1629376509636,0.2271803468465805,0.049342755228281,-0.2796075344085693,0.6545771956443787
1629376509776,0.2271803468465805,0.049342755228281,-0.2796075344085693,0.6545771956443787
1629376509858,0.2271803468465805,0.049342755228281,-0.2796075344085693,0.6545771956443787
1629376509983,0.2271803468465805,0.049342755228281,-0.2796075344085693,0.6545771956443787
1629376510077,0.2271803468465805,0.049342755228281,-0.2796075344085693,0.6545771956443787
1629376510233,0.2271803468465805,0.049342755228281,-0.2796075344085693,0.6545771956443787
1629376510280,0.2271803468465805,0.049342755228281,-0.2796075344085693,0.6545771956443787
1629376510372,0.2271803468465805,0.049342755228281,-0.2796075344085693,0.6545771956443787
1629376510419,0.2271803468465805,0.049342755228281,-0.2796075344085693,0.6545771956443787
1629376510622,0.3576861023902893,0.049342755228281,-0.2796075344085693,0.6545771956443787
1629376510669,0.3927392959594726,0.049342755228281,-0.2796075344085693,0.6545771956443787
1629376510732,0.3927392959594726,0.049342755228281,0.1400225162506103,0.6545771956443787
1629376510875,0.3927392959594726,0.049342755228281,0.1303856819868087,0.6545771956443787
1629376511063,0.3927392959594726,0.049342755228281,0.1046355590224266,0.6545771956443787
1629376511157,0.3927392959594726,0.049342755228281,0.0788187086582183,0.6545771956443787
1629376511203,0.3927392959594726,0.049342755228281,0.0589411295950412,0.6545771956443787
1629376511282,0.3927392959594726,0.049342755228281,0.0431929118931293,0.6545771956443787
1629376511453,0.3927392959594726,0.049342755228281,0.029084337875247,0.6545771956443787
1629376511516,0.3716782331466675,0.049342755228281,0.0161503199487924,0.6545771956443787
1629376511594,0.3716782331466675,0.049342755228281,0.0050179194658994,0.6545771956443787
1629376511641,0.3716782331466675,0.049342755228281,-0.0037081795744597,0.6545771956443787
1629376511766,0.388083279132843,0.1448578834533691,-0.0090772630646824,0.6545771956443787
1629376511847,0.4084463119506836,0.1398302763700485,-0.0110436119139194,0.640734851360321
1629376512003,0.4084463119506836,0.138821542263031,-0.010082053951919,0.621701180934906
1629376512128,0.4084463119506836,0.1421093344688415,-0.0213520340621471,0.6068785190582275
1629376512222,0.4084463119506836,0.1463304162025451,-0.0436878092586994,0.5948275923728943
1629376512300,0.5557299852371216,0.1495726555585861,-0.0660007819533348,0.5844215154647827
1629376512378,0.5470594167709351,0.1520520150661468,-0.0778944939374923,0.5750895738601685
1629376512456,0.5258581042289734,0.1539747864007949,-0.0790270790457725,0.5656086802482605
1629376512628,0.4999615252017975,0.1532967686653137,-0.075529046356678,0.5559450387954712
1629376512706,0.4798901379108429,0.1475725322961807,-0.070105105638504,0.5482263565063477
1629376512911,0.4749548137187958,0.1363967955112457,-0.0609081424772739,0.5463193655014038
1629376512958,0.4858482480049133,0.1222695186734199,-0.0467064678668975,0.5529998540878296
1629376513020,0.5244124531745911,0.1039381548762321,-0.030132308602333,0.5659992098808289
1629376513098,0.5438540577888489,0.0893824622035026,-0.0171070955693721,0.5705718994140625
1629376513192,0.561937153339386,0.0795615166425705,-0.0114307105541229,0.5623500347137451
1629376513286,0.5804142951965332,0.0777079686522483,-0.0120913432911038,0.5581784844398499
1629376513395,0.5992523431777954,0.0853330343961715,-0.0144922006875276,0.5575882792472839
1629376513551,0.5992523431777954,0.0966663509607315,-0.0115845315158367,0.5595042109489441
1629376513708,0.5968021750450134,0.103924810886383,-0.0002019375824602,0.5628936290740967
1629376513786,0.592812716960907,0.1035506054759025,0.0160338170826435,0.5679501891136169
1629376513914,0.592345654964447,0.0981099605560302,0.0307192280888557,0.5753597021102905
1629376513992,0.5997390747070312,0.090384617447853,0.0408190414309501,0.610101044178009
1629376514038,0.6171178817749023,0.0816571936011314,0.0477495305240154,0.6269355416297913
1629376514101,0.6443620324134827,0.0735216289758682,0.0553655326366424,0.6510021090507507
1629376514242,0.6767492294311523,0.0708285793662071,0.0619320981204509,0.6817163825035095
1629376514288,0.706747829914093,0.0779398679733276,0.0654042214155197,0.7137817144393921
1629376514492,0.7291457653045654,0.0912691131234169,0.0645687654614448,0.7137817144393921
1629376514554,0.7440557479858398,0.1074650883674621,0.0608993582427501,0.7137817144393921
1629376514637,0.7440557479858398,0.1233486011624336,0.0609826631844043,0.7137817144393921
1629376514699,0.7440557479858398,0.1355968415737152,0.0722129493951797,0.7137817144393921
1629376514840,0.7440557479858398,0.1390063613653183,0.095027320086956,0.7137817144393921
1629376514887,0.7440557479858398,0.1287927031517028,0.0952285453677177,0.7137817144393921
1629376514999,0.7440557479858398,0.1051893308758735,0.0887041911482811,0.7137817144393921
1629376515124,0.7440557479858398,0.0763192027807235,0.0662630945444107,0.7137817144393921
1629376515265,0.7440557479858398,0.0548912733793258,0.0268352422863245,0.7137817144393921
1629376515327,0.7440557479858398,0.0429240316152572,-0.0217609722167253,0.7137817144393921
1629376515437,0.7440557479858398,0.0429240316152572,-0.0645657181739807,0.7137817144393921
1629376515546,0.7440557479858398,0.0429240316152572,-0.0653482750058174,0.7137817144393921
1629376515624,0.7440557479858398,0.0429240316152572,-0.0467525534331798,0.7137817144393921
1629376515734,0.7440557479858398,0.0429240316152572,-0.0168920792639255,0.7137817144393921
1629376515874,0.7440557479858398,0.0429240316152572,0.012923264876008,0.7137817144393921
1629376515937,0.7440557479858398,0.0429240316152572,0.035640899091959,0.7137817144393921
1629376516080,0.6538377404212952,0.0770720317959785,0.0498695597052574,0.7137817144393921
1629376516174,0.6538377404212952,0.0967328548431396,0.0584370344877243,0.7137817144393921
1629376516220,0.6538377404212952,0.1177028119564056,0.0628782287240028,0.7137817144393921
1629376516330,0.6538377404212952,0.1386116445064544,0.0634849220514297,0.7137817144393921
1629376516423,0.6538377404212952,0.1537003219127655,0.0679223611950874,0.7115362882614136
1629376516642,0.6538377404212952,0.1580804586410522,0.0656641274690628,0.6785606145858765
1629376516816,0.6538377404212952,0.1527159661054611,0.0605581328272819,0.6503307819366455
1629376516863,0.6474665403366089,0.1434198468923568,0.0566361881792545,0.6258519291877747
1629376516925,0.6504672765731812,0.1360889822244644,0.055962711572647,0.6055046916007996
1629376516988,0.659862756729126,0.1344168186187744,0.056877676397562,0.5902990102767944
1629376517066,0.6747170686721802,0.1420305073261261,0.0550352483987808,0.5810524821281433
1629376517159,0.6944661736488342,0.1587364673614502,0.0453854203224182,0.5779532194137573
1629376517238,0.7119293808937073,0.1827014535665512,0.026984691619873,0.5809012055397034
1629376517363,0.7287819385528564,0.2034114152193069,-0.0001604222488822,0.5917981266975403
1629376517456,0.7423451542854309,0.2109827995300293,-0.0278094056993722,0.600661039352417
1629376517628,0.7517836093902588,0.2075050473213195,-0.0455507785081863,0.6169854402542114
1629376517706,0.7339731454849243,0.2017248570919037,-0.0507113523781299,0.6324443221092224
1629376517777,0.714584469795227,0.1984161287546157,-0.0500919632613658,0.6436176300048828
1629376517980,0.6954278945922852,0.1965090036392212,-0.0522933229804039,0.6401029825210571
1629376518042,0.6801967620849609,0.1940413415431976,-0.0567859336733818,0.6346701383590698
1629376518089,0.673413097858429,0.1913501024246215,-0.0561066903173923,0.6333287954330444
1629376518183,0.6760537624359131,0.1892001330852508,-0.0519354529678821,0.6377979516983032
1629376518323,0.6894780993461609,0.1871240437030792,-0.0458278618752956,0.6479277014732361
1629376518433,0.7041204571723938,0.1841182559728622,-0.0446080900728702,0.6625263690948486
1629376518573,0.7142353653907776,0.1792086958885193,-0.0389964245259761,0.6795971989631653
1629376518620,0.7135071158409119,0.168632835149765,-0.0332008637487888,0.6940557956695557
1629376518683,0.6979184150695801,0.1487278044223785,-0.0291610993444919,0.7013538479804993
1629376518761,0.669394850730896,0.1230138838291168,-0.0252171382308006,0.7070803046226501
1629376518873,0.6368498802185059,0.102934680879116,-0.0165380388498306,0.7072510719299316
1629376519013,0.6098920106887817,0.0972834378480911,-0.0102616865187883,0.6968486309051514
1629376519091,0.5925989747047424,0.1020644679665565,-0.0187873411923646,0.6742338538169861
1629376519154,0.5968272686004639,0.1056302934885025,-0.0428327918052673,0.64736008644104
1629376519279,0.6063203811645508,0.1008689180016517,-0.0675201565027237,0.6316984295845032
1629376519388,0.6199053525924683,0.0894448906183242,-0.075969785451889,0.6626733541488647
1629376519591,0.6332474946975708,0.0774000063538551,-0.0702192783355712,0.6901543736457825
1629376519654,0.6387534737586975,0.0693847090005874,-0.0686564669013023,0.7061126232147217
1629376519685,0.6229451894760132,0.0662426054477691,-0.0686564669013023,0.7115880250930786
1629376519891,0.590979278087616,0.0671322867274284,-0.0686564669013023,0.7115640640258789
1629376519954,0.5448789000511169,0.0713323950767517,-0.0654078498482704,0.7118499875068665
1629376519985,0.4965420961380005,0.077546052634716,-0.0210762917995452,0.7131576538085938
1629376520110,0.4637397527694702,0.0840817987918853,0.013245821930468,0.7144184708595276
1629376520219,0.4535635113716125,0.0906320661306381,0.0317052789032459,0.7148377895355225
1629376520298,0.4572508633136749,0.0979380011558532,0.0337456502020359,0.7053102850914001
1629376520376,0.4619784355163574,0.1066576316952705,0.0244195312261581,0.6977033615112305
1629376520563,0.4634515345096588,0.1164840012788772,0.0104332724586129,0.6958323121070862
1629376520641,0.4617247283458709,0.1256719231605529,-0.0005945792654529,0.6962534189224243
1629376520766,0.4464027881622314,0.1319828927516937,-0.0084713660180568,0.6936380863189697
1629376520813,0.4369998574256897,0.1350298821926117,-0.0172474235296249,0.6862308979034424
1629376520957,0.4403984844684601,0.1367414593696594,-0.0292774178087711,0.6652323007583618
1629376521004,0.4581404626369476,0.1399369984865188,-0.0403018295764923,0.6527050733566284
1629376521113,0.4841891229152679,0.1465150415897369,-0.0442138127982616,0.6508198380470276
1629376521254,0.5076748132705688,0.155974879860878,-0.0399170145392417,0.6582253575325012
1629376521317,0.5309911966323853,0.1654727905988693,-0.0264577660709619,0.6709960699081421
1629376521410,0.5500710010528564,0.1726393401622772,-0.0100839445367455,0.6827698349952698
1629376521504,0.5607109069824219,0.1769141256809234,-0.0257053934037685,0.689412534236908
1629376521645,0.5624793767929077,0.1787396669387817,-0.0383195281028747,0.6918292045593262
1629376521738,0.5656816959381104,0.1792800724506378,-0.0327682122588157,0.6943151950836182
1629376521816,0.5746696591377258,0.1782574504613876,-0.0048641986213624,0.6998358368873596
1629376521945,0.5907819867134094,0.173437088727951,0.0067931120283901,0.7058320045471191
1629376522022,0.6121151447296143,0.1629809588193893,0.0245157126337289,0.7083283066749573
1629376522178,0.637768030166626,0.1494393199682235,0.0451855808496475,0.7089638710021973
1629376522225,0.6685446500778198,0.1395860612392425,0.0650182515382766,0.7137353420257568
1629376522381,0.7016530632972717,0.1399216502904892,0.0765909329056739,0.7273877859115601
1629376522444,0.729735255241394,0.1500529199838638,0.0823549777269363,0.7478184103965759
1629376522553,0.7456396818161011,0.1500529199838638,0.0828698575496673,0.7690522074699402
1629376522647,0.7462794184684753,0.1500529199838638,0.0789836645126342,0.7865748405456543
1629376522758,0.7269664406776428,0.1500529199838638,0.069583460688591,0.7748547792434692
1629376522898,0.701418936252594,0.1500529199838638,0.0532801412045955,0.735360324382782
1629376522945,0.6701124310493469,0.1500529199838638,0.0311677753925323,0.6707305312156677
1629376523008,0.6402348875999451,0.1609088629484176,0.0051516634412109,0.5960688591003418
1629376523133,0.6103528141975403,0.1436353176832199,-0.0239565391093492,0.5376201868057251
1629376523273,0.5881932973861694,0.1279987692832946,-0.060131836682558,0.5147035717964172
1629376523351,0.5746026039123535,0.1146627217531204,-0.1076806485652923,0.5475479364395142
1629376523429,0.5711981058120728,0.1046738252043724,-0.1055444553494453,0.5725698471069336
1629376523523,0.5788442492485046,0.0960271656513214,-0.103151150047779,0.582214891910553
1629376523633,0.5913691520690918,0.0853431522846221,-0.0994460433721542,0.5774099230766296
1629376523775,0.5990216135978699,0.0715495198965072,-0.1022453904151916,0.564599335193634
1629376523838,0.5969761610031128,0.0576440058648586,-0.0926136821508407,0.5515034794807434
1629376524009,0.5872734785079956,0.0468178279697895,-0.0745728835463523,0.542339026927948
1629376524056,0.5753604769706726,0.0395559519529342,-0.0522147081792354,0.5364997386932373
1629376524150,0.5644876956939697,0.0341849513351917,-0.0309404861181974,0.533100962638855
1629376524259,0.5420364141464233,0.0159995276480913,-0.016996981576085,0.5250324010848999
1629376524400,0.5195389986038208,0.0028473583515733,-0.0134025579318404,0.5319945812225342
1629376524540,0.5009463429450989,0.0021533870603889,-0.0183382648974657,0.5473259091377258
1629376524572,0.4885130226612091,0.0127332182601094,-0.026806816458702,0.559077799320221
1629376524681,0.4822722375392914,0.0274201389402151,-0.0358893610537052,0.5605873465538025
1629376524761,0.4829407930374145,0.0412820167839527,-0.0461871512234211,0.5535447597503662
1629376524839,0.4902793765068054,0.053409855812788,-0.0591305494308471,0.5430333614349365
1629376524949,0.4990891814231872,0.0632314458489418,-0.0738322883844375,0.5320612192153931
1629376525105,0.5006778240203857,0.0698845237493515,-0.0891823321580886,0.5212745666503906
1629376525214,0.4929007887840271,0.0737453401088714,-0.1057621464133262,0.5108110308647156
1629376525277,0.4841384291648865,0.0779938399791717,-0.1253572106361389,0.5027601718902588
1629376525386,0.4857671558856964,0.0851520523428917,-0.1485853642225265,0.4996472001075744
1629376525495,0.4993967711925506,0.0969851836562156,-0.1740382015705108,0.5026329755783081
1629376525558,0.516556978225708,0.1141312196850776,-0.1987851411104202,0.5099582672119141
1629376525714,0.5310513973236084,0.1351468861103058,-0.2190491706132888,0.516031801700592
1629376525764,0.542191207408905,0.156411200761795,-0.2301433831453323,0.5146980285644531
1629376525906,0.5521064400672913,0.1720664203166961,-0.2300118803977966,0.5041201114654541
1629376525969,0.5637826919555664,0.1783163994550705,-0.222265675663948,0.4887629151344299
1629376526047,0.58040452003479,0.1767437011003494,-0.2139760255813598,0.4764589667320251
1629376526234,0.6042811870574951,0.1717287003993988,-0.2099162340164184,0.4721568524837494
1629376526297,0.6322347521781921,0.1666873395442962,-0.2106363922357559,0.4759081304073334
1629376526453,0.6564797163009644,0.1616086214780807,-0.2131883352994918,0.4880829453468323
1629376526515,0.6706088781356812,0.1556102186441421,-0.2145812809467315,0.5101801753044128
1629376526593,0.6743565797805786,0.1507100909948349,-0.2130976617336273,0.5402665734291077
1629376526687,0.6717050075531006,0.1512541323900222,-0.2087909430265426,0.5725640654563904
1629376526816,0.6672337055206299,0.1585922688245773,-0.2033655941486358,0.600111722946167
1629376526956,0.6645042300224304,0.1713024824857711,-0.1958349496126175,0.619911253452301
1629376527050,0.6660534739494324,0.1847600191831588,-0.1854878813028335,0.6350453495979309
1629376527128,0.6720079779624939,0.192947655916214,-0.1760359704494476,0.6511439681053162
1629376527253,0.676344633102417,0.1920350790023803,-0.1737100929021835,0.6699874997138977
1629376527362,0.6835600137710571,0.1816469877958297,-0.1808013468980789,0.6874526143074036
1629376527425,0.6937788724899292,0.1652127653360366,-0.1929848790168762,0.6984924674034119
1629376527534,0.7052814960479736,0.1468162983655929,-0.2012479305267334,0.7029313445091248
1629376527644,0.7132903337478638,0.1286024302244186,-0.199860543012619,0.7036893963813782
1629376527706,0.6920817494392395,0.1111699044704437,-0.1896962523460388,0.701653003692627
1629376527816,0.6533253788948059,0.0950021967291832,-0.1740984916687011,0.6944630146026611
1629376527881,0.6198241710662842,0.0817057713866233,-0.1516663879156112,0.6937455534934998
1629376528084,0.585223376750946,0.0830459296703338,-0.1191331371665,0.6844211220741272
1629376528178,0.5644904375076294,0.0868073031306266,-0.0747133120894432,0.6700546741485596
1629376528303,0.5653144717216492,0.0895548686385154,-0.0242643728852272,0.6567292809486389
1629376528403,0.5807093977928162,0.0861224010586738,0.0200493652373552,0.6488824486732483
1629376528512,0.5898754000663757,0.0696411207318306,0.0469161383807659,0.6450603604316711
1629376528590,0.5898754000663757,0.0351357571780681,0.0527419671416282,0.6360983848571777
1629376528825,0.5898754000663757,-0.0159734096378088,0.0435676760971546,0.6100251078605652
1629376528891,0.5898754000663757,-0.074278675019741,0.0316797271370887,0.5606719255447388
1629376528954,0.5898754000663757,-0.1253449618816375,0.0283363386988639,0.4952395260334015
1629376529031,0.5898754000663757,-0.158608466386795,0.0360093340277671,0.4355706572532654
1629376529063,0.5898754000663757,-0.173184797167778,0.048113215714693,0.4355706572532654
1629376529141,0.5898754000663757,-0.1099183037877082,0.0578717999160289,0.4355706572532654
1629376529266,0.5898754000663757,-0.0415125153958797,0.0633358731865882,0.4355706572532654
1629376529344,0.5898754000663757,0.0184610392898321,0.0660014003515243,0.4355706572532654
1629376529438,0.4962693750858307,0.0677114725112915,0.06451216340065,0.6611688733100891
1629376529578,0.5061662793159485,0.0804927572607994,0.0545645169913768,0.7000477313995361
1629376529672,0.5111921429634094,0.1033453419804573,0.0307031236588954,0.7363477349281311
1629376529781,0.5124348998069763,0.1288407146930694,-0.0091977203264832,0.7570971846580505
1629376529875,0.5077517032623291,0.1490471363067627,-0.0583324767649173,0.7603543400764465
1629376530035,0.49687060713768,0.1622138768434524,-0.1025897935032844,0.7524023652076721
1629376530175,0.4879017770290375,0.1721825152635574,-0.1245305389165878,0.7409750819206238
1629376530222,0.490010917186737,0.1823100447654724,-0.1180682107806205,0.7302347421646118
1629376530269,0.5029972791671753,0.1910669356584549,-0.0942538604140281,0.7218632102012634
1629376530379,0.5181330442428589,0.1955693811178207,-0.0721253901720047,0.7171183824539185
1629376530472,0.5271869897842407,0.1950399130582809,-0.0634818151593208,0.7158781886100769
1629376530550,0.5286985039710999,0.1911453306674957,-0.068388894200325,0.7155376076698303
1629376530644,0.5327141880989075,0.1941245645284652,-0.0799415484070777,0.7174589037895203
1629376530753,0.5339755415916443,0.1948977708816528,-0.0912155359983444,0.715081512928009
1629376530956,0.5369372367858887,0.1946172267198562,-0.0998692959547042,0.7072163820266724
1629376531008,0.545030415058136,0.1955347806215286,-0.1045654416084289,0.6941403150558472
1629376531211,0.5570540428161621,0.1989688128232956,-0.1024624556303024,0.6801866888999939
1629376531274,0.5684674382209778,0.2027384340763092,-0.0931633710861206,0.6711515784263611
1629376531305,0.5762916803359985,0.2027689665555954,-0.0788318738341331,0.669161856174469
1629376531336,0.5825825333595276,0.1962714940309524,-0.0639624670147895,0.6699392795562744
1629376531508,0.5918051600456238,0.184102326631546,-0.0532337613403797,0.6675921678543091
1629376531571,0.6043673753738403,0.1698950678110122,-0.0518117323517799,0.6706845164299011
1629376531680,0.6159044504165649,0.1566426008939743,-0.0601600259542465,0.6753438115119934
1629376531776,0.6224100589752197,0.1466878950595855,-0.0741374194622039,0.6798528432846069
1629376531888,0.6236149072647095,0.1412643939256668,-0.0867033377289772,0.6819811463356018
1629376531966,0.6222450137138367,0.1397860050201416,-0.0925707072019577,0.6801976561546326
1629376532154,0.6203693151473999,0.1401772052049636,-0.0899598523974418,0.6766673922538757
1629376532294,0.6181766390800476,0.1426490545272827,-0.0795521810650825,0.6775598526000977
1629376532372,0.6146117448806763,0.1490528285503387,-0.060508981347084,0.6900655627250671
1629376532404,0.607431173324585,0.1594051867723465,-0.0324578061699867,0.7167274355888367
1629376532529,0.6038738489151001,0.1670764237642288,-0.0239481702446937,0.750669538974762
1629376532732,0.5958415865898132,0.1656620800495147,-0.0206070579588413,0.7740845680236816
1629376532828,0.5872319340705872,0.1584819704294204,-0.022818399593234,0.7740845680236816
1629376533078,0.5825728178024292,0.1498881429433822,-0.0279948096722364,0.7740845680236816
1629376533156,0.5828516483306885,0.1475623697042465,-0.0309827849268913,0.7740845680236816
1629376533328,0.584026575088501,0.1546991765499115,-0.0251746270805597,0.7740845680236816
1629376533391,0.5786122679710388,0.1659684777259826,-0.0075430166907608,0.7740845680236816
1629376533422,0.5606606602668762,0.1744373589754104,0.0161310881376266,0.7740845680236816
1629376533516,0.5294142961502075,0.1611577868461609,0.0367694459855556,0.7740845680236816
1629376533562,0.4906975030899048,0.1481848955154419,0.0497751161456108,0.7740845680236816
1629376533609,0.4550490975379944,0.1457905322313308,0.0594841986894607,0.7740845680236816
1629376533789,0.4550490975379944,0.1595950126647949,0.0594841986894607,0.7740845680236816
1629376533893,0.4550490975379944,0.1817572116851806,0.0594841986894607,0.7740845680236816
1629376533956,0.4550490975379944,0.1961527466773986,0.0594841986894607,0.7740845680236816
1629376533987,0.4550490975379944,0.1983456462621688,0.0594841986894607,0.7740845680236816
1629376534065,0.4550490975379944,0.1979635208845138,0.0594841986894607,0.7740845680236816
1629376534143,0.4550490975379944,0.2086818665266037,0.0594841986894607,0.7740845680236816
1629376534284,0.4550490975379944,0.2206582129001617,0.0594841986894607,0.7740845680236816
1629376534346,0.4550490975379944,0.2330236434936523,0.0594841986894607,0.7740845680236816
1629376534424,0.4550490975379944,0.2412056624889373,0.0594841986894607,0.7740845680236816
1629376534518,0.4550490975379944,0.2449062764644622,0.0594841986894607,0.7740845680236816
1629376534596,0.4550490975379944,0.2447554022073745,0.0594841986894607,0.7740845680236816
1629376534768,0.4550490975379944,0.2418103665113449,0.0594841986894607,0.7740845680236816
1629376534897,0.4550490975379944,0.249421551823616,0.0594841986894607,0.7740845680236816
1629376534944,0.4550490975379944,0.2607618570327759,0.0594841986894607,0.7740845680236816
1629376535163,0.4550490975379944,0.2684099972248077,0.0594841986894607,0.7740845680236816
1629376535178,0.4550490975379944,0.269830584526062,0.0594841986894607,0.7740845680236816
1629376535256,0.4550490975379944,0.2655321657657623,0.0594841986894607,0.7740845680236816
1629376535366,0.4550490975379944,0.2621244490146637,0.0594841986894607,0.7740845680236816
1629376535475,0.4550490975379944,0.2640773952007293,0.1538014262914657,0.7740845680236816
1629376535569,0.4550490975379944,0.2701190412044525,0.1761101186275482,0.7740845680236816
1629376535725,0.4550490975379944,0.2717631757259369,0.1697983145713806,0.7740845680236816
1629376535819,0.4550490975379944,0.2639772295951843,0.1697983145713806,0.7740845680236816
1629376535916,0.4550490975379944,0.2469169199466705,0.1697983145713806,0.7740845680236816
1629376536010,0.4550490975379944,0.2258330583572387,0.1697983145713806,0.7740845680236816
1629376536073,0.4550490975379944,0.2258330583572387,0.1526504307985305,0.7740845680236816
1629376536182,0.4550490975379944,0.2258330583572387,0.1526504307985305,0.7740845680236816
1629376536244,0.4550490975379944,0.2258330583572387,0.1526504307985305,0.7740845680236816
1629376536323,0.4550490975379944,0.2258330583572387,0.1526504307985305,0.7740845680236816
1629376536432,0.4550490975379944,0.2258330583572387,0.1526504307985305,0.7740845680236816
1629376536573,0.4550490975379944,0.2258330583572387,0.1526504307985305,0.7740845680236816
1629376536651,0.4550490975379944,0.2258330583572387,0.1892537176609039,0.7740845680236816
1629376536885,0.4550490975379944,0.2258330583572387,0.2070847600698471,0.7740845680236816
1629376536919,0.4550490975379944,0.2258330583572387,0.1951009184122085,0.7740845680236816
1629376536981,0.4550490975379944,0.2258330583572387,0.1951009184122085,0.7740845680236816
1629376537060,0.4550490975379944,0.2258330583572387,0.1951009184122085,0.7740845680236816
1629376537216,0.4550490975379944,0.2258330583572387,0.1951009184122085,0.7740845680236816
1629376537263,0.4550490975379944,0.2258330583572387,0.1951009184122085,0.75794917345047
1629376537403,0.4550490975379944,0.2258330583572387,0.1951009184122085,0.7553676962852478
1629376537481,0.4550490975379944,0.21781025826931,0.1951009184122085,0.7537183165550232
1629376537591,0.4550490975379944,0.2603363990783691,0.1951009184122085,0.758087694644928
1629376537716,0.4550490975379944,0.2854206562042236,0.1951009184122085,0.7667025327682495
1629376537794,0.6402603983879089,0.3241786360740661,-0.0584436915814876,0.7706342339515686
1629376537937,0.6307235956192017,0.3410467207431793,-0.0603993833065032,0.7630677223205566
1629376537984,0.6153548359870911,0.3183777928352356,-0.0601807385683059,0.745520293712616
1629376538109,0.6005833745002747,0.2921129763126373,-0.0532017797231674,0.724798321723938
1629376538140,0.5885864496231079,0.2642840147018432,-0.0409606471657753,0.7060046792030334
1629376538312,0.575802206993103,0.2358430922031402,-0.0278402678668499,0.6905202865600586
1629376538500,0.5599083304405212,0.2082722783088684,-0.017243143171072,0.6792269945144653
1629376538547,0.5438160300254822,0.1832958459854126,-0.0109981819987297,0.6649110913276672
1629376538562,0.537320077419281,0.1630237996578216,-0.0098262876272201,0.6578111052513123
1629376538719,0.5477041602134705,0.147750124335289,-0.0118958363309502,0.6583696603775024
1629376538797,0.5477041602134705,0.1357132047414779,-0.014438409358263,0.6508611440658569
1629376538890,0.5477041602134705,0.1117804199457168,-0.0168234668672084,0.6427098512649536
1629376539033,0.5394335389137268,0.0771157369017601,-0.0216775108128786,0.6329495906829834
1629376539127,0.5295616984367371,0.0329432263970375,-0.029727928340435,0.6162860989570618
1629376539205,0.5155569314956665,-0.0155653748661279,-0.0427216291427612,0.5890310406684875
1629376539314,0.4992507994174957,-0.0611711479723453,-0.0585643239319324,0.5575820803642273
1629376539486,0.4863951802253723,-0.0973574742674827,-0.0746392831206321,0.538087785243988
1629376539548,0.479934811592102,-0.1185051575303077,-0.090158961713314,0.5413333177566528
1629376539611,0.4765802323818207,-0.1222719177603721,-0.106368601322174,0.5621427297592163
1629376539705,0.4730509519577026,-0.1088314279913902,-0.1220392137765884,0.5912326574325562
1629376539845,0.4769273400306701,-0.0832455679774284,-0.1348062753677368,0.626282811164856
1629376539924,0.4769273400306701,-0.0534430034458637,-0.1443731039762497,0.626282811164856
1629376540051,0.4769273400306701,-0.0238303672522306,-0.1526455134153366,0.626282811164856
1629376540160,0.4769273400306701,0.0088715096935629,-0.1610794365406036,0.626282811164856
1629376540223,0.4769273400306701,0.0169803723692893,-0.1708257645368576,0.626282811164856
1629376540285,0.4769273400306701,0.0237011853605508,-0.1813228875398636,0.7373587489128113
1629376540395,0.540361225605011,0.0316800400614738,-0.1869009286165237,0.7285634875297546
1629376540551,0.5823894739151001,0.0421117320656776,-0.1802221238613128,0.7182376980781555
1629376540629,0.6247667670249939,0.0550710931420326,-0.1605051606893539,0.7182376980781555
1629376540692,0.6247667670249939,0.0707083195447921,-0.1350973397493362,0.7182376980781555
1629376540863,0.6247667670249939,0.0900628790259361,-0.1113914623856544,0.7182376980781555
1629376540926,0.6247667670249939,0.1132593527436256,-0.0921831950545311,0.7182376980781555
1629376541004,0.6247667670249939,0.1379406154155731,-0.0782026946544647,0.7182376980781555
1629376541191,0.6247667670249939,0.1606148481369018,-0.0714637860655784,0.7182376980781555
1629376541238,0.6247667670249939,0.1773077249526977,-0.0736506730318069,0.7182376980781555
1629376541332,0.6247667670249939,0.1773077249526977,-0.0818884521722793,0.7182376980781555
1629376541426,0.6242027282714844,0.1773077249526977,-0.0911528244614601,0.7076945900917053
1629376541535,0.6359370350837708,0.1773077249526977,-0.094483844935894,0.7082273364067078
1629376541674,0.6654879450798035,0.1773077249526977,-0.0867769718170166,0.7037320733070374
1629376541736,0.6767906546592712,0.0592707470059394,-0.067742258310318,0.6873071193695068
1629376541783,0.6691824197769165,0.055280715227127,-0.0426847115159034,0.6641594171524048
1629376541955,0.6483631730079651,0.0495178401470184,-0.0199074875563383,0.6445389986038208
1629376542035,0.6151278018951416,0.0507683344185352,-0.0041495254263281,0.6319729685783386
1629376542216,0.5688837766647339,0.0689867734909057,0.0046808854676783,0.6351374387741089
1629376542280,0.5641661286354065,0.101535715162754,0.0091593926772475,0.6502841711044312
1629376542359,0.5706347227096558,0.133820965886116,0.0120782330632209,0.6734879016876221
1629376542460,0.5851386189460754,0.1544347256422042,0.0163697861135005,0.6989792585372925
1629376542579,0.5982221961021423,0.1622516363859176,0.023003127425909,0.7187899351119995
1629376542683,0.6024627685546875,0.1629286855459213,0.030184481292963,0.727136492729187
1629376542800,0.5975854992866516,0.1629639565944671,0.0354898832738399,0.7234212160110474
1629376542862,0.5889900326728821,0.1652989536523819,0.0370211713016033,0.7119937539100647
1629376542969,0.5866259336471558,0.172284260392189,0.0488566905260086,0.7168012857437134
1629376543030,0.5754838585853577,0.179556742310524,0.0577436871826648,0.7189321517944336
1629376543176,0.5619896650314331,0.188076302409172,0.0616090558469295,0.7203153371810913
1629376543271,0.5566819906234741,0.1982283741235733,0.0586731322109699,0.7250812649726868
1629376543408,0.5633631944656372,0.2113618552684784,0.0483321100473403,0.7363301515579224
1629376543542,0.5775958299636841,0.2282611578702926,0.0317829251289367,0.7533621788024902
1629376543601,0.5940825939178467,0.245504155755043,0.011054528877139,0.7716485857963562
1629376543648,0.6108835339546204,0.2542539536952972,-0.0101021882146596,0.7858454585075378
1629376543721,0.6237524747848511,0.2462233901023864,-0.027182538062334,0.7906996607780457
1629376543857,0.6235253214836121,0.2221400737762451,-0.0398197509348392,0.7800652384757996
1629376544003,0.5994085669517517,0.1938458830118179,-0.0373055450618267,0.7458944320678711
1629376544097,0.5994085669517517,0.1938458830118179,-0.0200026426464319,0.7458944320678711
1629376544175,0.5994085669517517,0.1938458830118179,0.0009246948175132,0.7458944320678711
1629376544278,0.5994085669517517,0.1938458830118179,0.0218105670064687,0.7458944320678711
1629376544352,0.5994085669517517,0.1938458830118179,0.0218105670064687,0.7458944320678711
1629376544493,0.5994085669517517,0.1938458830118179,0.0218105670064687,0.7458944320678711
1629376544617,0.5994085669517517,0.1938458830118179,0.0218105670064687,0.7458944320678711
1629376544711,0.5994085669517517,0.1938458830118179,0.0218105670064687,0.7458944320678711
1629376544758,0.5994085669517517,0.1938458830118179,0.0218105670064687,0.7458944320678711
1629376544917,0.5994085669517517,0.1938458830118179,0.0218105670064687,0.7458944320678711
1629376544963,0.5994085669517517,0.1938458830118179,0.0218105670064687,0.7458944320678711
1629376545104,0.5994085669517517,0.1938458830118179,0.0218105670064687,0.7458944320678711
1629376545229,0.5994085669517517,0.1938458830118179,0.0218105670064687,0.7458944320678711
1629376545323,0.5994085669517517,0.1938458830118179,0.0218105670064687,0.7458944320678711
1629376545370,0.5994085669517517,0.1938458830118179,0.0218105670064687,0.7458944320678711
1629376545510,0.5994085669517517,0.1938458830118179,0.0218105670064687,0.7458944320678711
1629376545588,0.5994085669517517,0.1938458830118179,0.0218105670064687,0.7458944320678711
1629376545760,0.5994085669517517,0.1938458830118179,0.0218105670064687,0.7458944320678711
1629376545823,0.5994085669517517,0.1938458830118179,-0.1214215010404586,0.7458944320678711
1629376545884,0.5317761301994324,0.1838575899600982,-0.1316805034875869,0.8208291530609131
1629376546061,0.5252675414085388,0.1777043342590332,-0.1497662812471389,0.800179660320282
1629376546139,0.5137021541595459,0.184927687048912,-0.173579528927803,0.7761075496673584
1629376546186,0.5028702616691589,0.1995850652456283,-0.1947694569826126,0.7518656253814697
1629376546295,0.4963420033454895,0.2139005362987518,-0.2057446241378784,0.7322911024093628
1629376546389,0.4918963313102722,0.2226487398147583,-0.2053095698356628,0.7188258171081543
1629376546514,0.4851288795471191,0.2241362929344177,-0.2000679671764373,0.7087534666061401
1629376546686,0.4851288795471191,0.2198168635368347,-0.1955815702676773,0.7087534666061401
1629376546857,0.4851288795471191,0.2129992842674255,-0.1908891499042511,0.7087534666061401
1629376546889,0.4851288795471191,0.206964761018753,-0.1797691881656646,0.7087534666061401
1629376546982,0.4851288795471191,0.2019475400447845,-0.1625771671533584,0.7087534666061401
1629376547045,0.4851288795471191,0.1959990113973617,-0.1495586335659027,0.7087534666061401
1629376547170,0.4776079356670379,0.1846137195825576,-0.1405346095561981,0.6902943253517151
1629376547217,0.4718919694423675,0.1767866611480713,-0.139321431517601,0.6648076772689819
1629376547388,0.4633456766605377,0.1775241941213607,-0.1392869353294372,0.638523519039154
1629376547442,0.4509920477867126,0.1866051703691482,-0.1366346776485443,0.6138577461242676
1629376547536,0.4408991932868957,0.1981283128261566,-0.1281740367412567,0.5928032994270325
1629376547629,0.4384016394615173,0.205399602651596,-0.0954926609992981,0.582862913608551
1629376547723,0.4384016394615173,0.2058710604906082,-0.0569187477231025,0.582862913608551
1629376547832,0.4384016394615173,0.2002504169940948,-0.0250330977141857,0.582862913608551
1629376547895,0.4384016394615173,0.190414696931839,-0.007476644590497,0.582862913608551
1629376547976,0.4384016394615173,0.1793047487735748,-0.0036013440694659,0.582862913608551
1629376548179,0.4384016394615173,0.1705013811588287,-0.0095812147483229,0.582862913608551
1629376548289,0.4384016394615173,0.1659240275621414,-0.0233676228672266,0.582862913608551
1629376548373,0.4384016394615173,0.1640679389238357,-0.0477719977498054,0.582862913608551
1629376548406,0.4384016394615173,0.1636282503604889,-0.0826223716139793,0.582862913608551
1629376548596,0.4384016394615173,0.1662715673446655,-0.1210069060325622,0.582862913608551
1629376548659,0.4384016394615173,0.1736932843923568,-0.1512704938650131,0.582862913608551
1629376548755,0.4384016394615173,0.1831700801849365,-0.1669935435056686,0.582862913608551
1629376548888,0.4384016394615173,0.1887071877717971,-0.1736760437488556,0.582862913608551
1629376548982,0.4384016394615173,0.1875974684953689,-0.1788709759712219,0.582862913608551
1629376549122,0.4384016394615173,0.1822553277015686,-0.1844722926616668,0.582862913608551
1629376549185,0.4384016394615173,0.1769960522651672,-0.2114356756210327,0.582862913608551
1629376549294,0.4384016394615173,0.1731848418712616,-0.2420297861099243,0.582862913608551
1629376549435,0.4384016394615173,0.1702513694763183,-0.2599719762802124,0.582862913608551
1629376549497,0.4384016394615173,0.1678430289030075,-0.250913143157959,0.582862913608551
1629376549544,0.4384016394615173,0.1657300442457199,-0.2151977866888046,0.582862913608551
1629376549622,0.4384016394615173,0.1624423861503601,-0.1682581007480621,0.582862913608551
1629376549763,0.4384016394615173,0.1557953208684921,-0.1257102340459823,0.582862913608551
1629376549966,0.4384016394615173,0.1456436067819595,-0.0923491865396499,0.582862913608551
1629376550029,0.4384016394615173,0.13363678753376,-0.0647579357028007,0.582862913608551
1629376550075,0.4384016394615173,0.1217955648899078,-0.0384383462369442,0.582862913608551
1629376550138,0.4384016394615173,0.1118292137980461,-0.0133095467463135,0.582862913608551
1629376550310,0.4384016394615173,0.105227805674076,0.0097567252814769,0.582862913608551
1629376550560,0.4384016394615173,0.1021777540445327,0.0325657241046428,0.582862913608551
1629376550591,0.4384016394615173,0.0995050370693206,0.0569687113165855,0.582862913608551
1629376550685,0.4384016394615173,0.0927260518074035,0.0807989612221717,0.582862913608551
1629376550716,0.6811942458152771,0.0801146477460861,0.0980980917811393,0.7777503132820129
1629376550778,0.6775397658348083,0.0652849152684211,0.1038457602262497,0.7618619203567505
1629376550952,0.66396564245224,0.0547082275152206,0.096295990049839,0.7485300898551941
1629376551140,0.6453261375427246,0.0550623349845409,0.0769649744033813,0.7409294843673706
1629376551311,0.6300971508026123,0.0687587112188339,0.0493496321141719,0.738346517086029
1629376551343,0.62454754114151,0.0917457714676857,0.0192049164324998,0.7366231679916382
1629376551374,0.628731906414032,0.1161362528800964,-0.0072096805088222,0.7329016923904419
1629376551436,0.6369720697402954,0.136310800909996,-0.0286187827587127,0.7286153435707092
1629376551742,0.6434096097946167,0.1521097123622894,-0.0499856136739254,0.7268193364143372
1629376551869,0.6446740627288818,0.1647101938724517,-0.0769894048571586,0.7272379398345947
1629376551931,0.6405360102653503,0.1727828681468963,-0.1097801923751831,0.7258057594299316
1629376551978,0.633168637752533,0.1742385625839233,-0.1453976333141327,0.7189341187477112
1629376552041,0.6224278211593628,0.1715135425329208,-0.1840479969978332,0.697018563747406
1629376552244,0.6165627241134644,0.1705847978591919,-0.227605253458023,0.6704211831092834
1629376552291,0.6134272813796997,0.1762003600597381,-0.2715549170970917,0.6632804870605469
1629376552384,0.6074489951133728,0.1890199482440948,-0.3017629981040954,0.6581272482872009
1629376552432,0.6029011607170105,0.2052571475505828,-0.307994544506073,0.6552026867866516
1629376552557,0.6040483713150024,0.2187207490205764,-0.2964218258857727,0.653363049030304
1629376552666,0.6114721298217773,0.2230658084154129,-0.2802985608577728,0.6492701768875122
1629376552877,0.6207931637763977,0.21540367603302,-0.2673089802265167,0.6406738758087158
1629376552934,0.6253578662872314,0.2001993805170059,-0.2515749931335449,0.629257082939148
1629376552965,0.6201823353767395,0.1892720758914947,-0.2473451197147369,0.6185030341148376
1629376552996,0.6053667068481445,0.18653604388237,-0.2402089089155197,0.606706976890564
1629376553153,0.5855053067207336,0.186937928199768,-0.2264938950538635,0.5836535692214966
1629376553309,0.5690470933914185,0.1883320361375808,-0.2058605998754501,0.5369404554367065
1629376553371,0.5655363202095032,0.1897601187229156,-0.1820620596408844,0.5369404554367065
1629376553465,0.5655363202095032,0.192251056432724,-0.1600180268287658,0.5369404554367065
1629376553512,0.5655363202095032,0.1946508884429931,-0.1421240419149398,0.5369404554367065
1629376553606,0.5655363202095032,0.1937547922134399,-0.1281853318214416,0.5369404554367065
1629376553637,0.5655363202095032,0.1860733032226562,-0.1186188906431198,0.5369404554367065
1629376553762,0.5655363202095032,0.1672860532999038,-0.1169492006301879,0.5369404554367065
1629376553902,0.5655363202095032,0.1344370394945144,-0.0827838629484176,0.5369404554367065
1629376553974,0.5655363202095032,0.0906358286738395,-0.0439212284982204,0.5369404554367065
1629376554099,0.5655363202095032,0.034621711820364,-0.0044028940610587,0.5369404554367065
1629376554146,0.5655363202095032,0.005821703467518,0.0260948576033115,0.5369404554367065
1629376554255,0.5655363202095032,-0.0147609673440456,0.0388452112674713,0.5369404554367065
1629376554411,0.5655363202095032,-0.0677191913127899,0.0285542421042919,0.9841602444648744
1629376554489,0.5655363202095032,-0.0561915263533592,0.0282405763864517,0.9478774070739746
1629376554583,0.5655363202095032,-0.0328948497772216,0.0346639752388,0.911253035068512
1629376554630,0.5655363202095032,-0.0062507940456271,0.0390977635979652,0.8767913579940796
1629376554727,0.5655363202095032,0.0176833514124155,0.0344898663461208,0.8767913579940796
1629376554853,0.5017184019088745,0.0364071652293205,0.0194040760397911,0.8767913579940796
1629376555008,0.521958589553833,0.0479903407394886,0.0008534239022992,0.8767913579940796
1629376555071,0.5325922966003418,0.050749946385622,-0.0088389255106449,0.8767913579940796
1629376555133,0.5325922966003418,0.0448435060679912,-0.0005123851005919,0.8767913579940796
1629376555258,0.5325922966003418,0.0335098952054977,0.0247942321002483,0.8821445107460022
1629376555305,0.5325922966003418,0.0216090455651283,0.0550422109663486,0.895850419998169
1629376555446,0.5325922966003418,0.0133598074316978,0.0790849924087524,0.895850419998169
1629376555555,0.5325922966003418,0.013377689756453,0.0930549427866935,0.8984410166740417
1629376555791,0.5325922966003418,0.0214135032147169,0.1018119677901268,0.8787342309951782
1629376555823,0.5325922966003418,0.0340920239686965,0.1099433153867721,0.8561605215072632
1629376555963,0.5527194738388062,0.0447923094034194,0.1164163574576377,0.8567632436752319
1629376556041,0.5577248930931091,0.0484235398471355,0.1167424842715263,0.8832248449325562
1629376556120,0.5724753737449646,0.0438856407999992,0.1095480769872665,0.9045489430427552
1629376556151,0.5850844383239746,0.032314121723175,0.0992974117398262,0.9360578060150146
1629376556245,0.5939565896987915,0.0150360604748129,0.0930811911821365,0.9360578060150146
1629376556369,0.5980821251869202,-0.0060009178705513,0.0953694805502891,0.9360578060150146
1629376556494,0.5989413261413574,-0.0257187169045209,0.1042533591389656,0.9360578060150146
1629376556541,0.5989413261413574,-0.0363898091018199,0.1114697828888893,0.9360578060150146
1629376556635,0.5989413261413574,-0.0335281416773796,0.1070684120059013,0.9360578060150146
1629376556729,0.5989413261413574,-0.0211277734488248,0.0842150822281837,0.939015567302704
1629376556856,0.5989413261413574,-0.0070262406952679,0.0448921583592891,0.9275383949279784
1629376556966,0.5989413261413574,0.002364354673773,0.000927502347622,0.9275383949279784
1629376557063,0.5989413261413574,0.0035277111455798,-0.0343317873775959,0.913562536239624
1629376557147,0.6033885478973389,-0.0030223180074244,-0.056840606033802,0.913562536239624
1629376557313,0.6194456815719604,-0.0131475497037172,-0.072358638048172,0.913562536239624
1629376557379,0.6222947835922241,-0.0202948376536369,-0.0871033743023872,0.913562536239624
1629376557489,0.6188385486602783,-0.0202601831406354,-0.1006017252802848,0.913562536239624
1629376557602,0.6003445386886597,-0.0147503623738884,-0.110327161848545,0.913562536239624
1629376557682,0.5712845921516418,-0.0089644193649292,-0.1145677492022514,0.4532963037490845
1629376557749,0.5530529022216797,-0.0057508256286382,-0.1121978610754013,0.4386924505233764
1629376557945,0.5416162610054016,-0.0041168052703142,-0.1046716198325157,0.4271453320980072
1629376558006,0.5416162610054016,-0.0022781807929277,-0.0967881083488464,0.4213398098945617
1629376558163,0.5416162610054016,0.0006385198212228,-0.0915082171559333,0.4201317429542541
1629376558231,0.5416162610054016,0.0040163807570934,-0.084693394601345,0.4290745258331299
1629376558306,0.5593527555465698,0.0076101780869066,-0.0688093826174736,0.4541073739528656
1629376558391,0.5737531781196594,0.0112710744142532,-0.043637178838253,0.4541073739528656
1629376558566,0.5737531781196594,0.0166599210351705,-0.0190637800842523,0.4541073739528656
1629376558634,0.5737531781196594,0.0261802580207586,-0.0051361061632633,0.4541073739528656
1629376558710,0.5706923007965088,0.0405684262514114,-0.0022767880000174,0.4541073739528656
1629376558781,0.5551497340202332,0.0601566359400749,-0.0024915800895541,0.4541073739528656
1629376558908,0.5359457731246948,0.0831940621137619,0.0031161119695752,0.448988527059555
1629376559008,0.5295719504356384,0.1046803444623947,0.016069883480668,0.4472878277301788
1629376559185,0.5454267859458923,0.1192076504230499,0.0304524805396795,0.4482752084732055
1629376559246,0.5774298906326294,0.1250443905591964,0.0397611036896705,0.4546472132205963
1629376559310,0.5774298906326294,0.125021681189537,0.0411713197827339,0.4689938426017761
1629376559431,0.5774298906326294,0.1234738156199455,0.0356073342263698,0.4916501045227051
1629376559515,0.5774298906326294,0.1224630698561668,0.0247230269014835,0.4916501045227051
1629376559613,0.5774298906326294,0.121177077293396,0.0092188194394111,0.4916501045227051
1629376559707,0.5774298906326294,0.1197951510548591,-0.011663544923067,0.4916501045227051
1629376559792,0.5774298906326294,0.1217826902866363,-0.0360244549810886,0.4916501045227051
1629376559981,0.5774298906326294,0.131152257323265,-0.0558257736265659,0.4916501045227051
1629376560045,0.5774298906326294,0.1459021419286728,-0.0613602548837661,0.4916501045227051
1629376560132,0.5774298906326294,0.1590370833873748,-0.0522292926907539,0.4916501045227051
1629376560238,0.5774298906326294,0.1659960895776748,-0.040440134704113,0.4916501045227051
1629376560318,0.5774298906326294,0.1663129031658172,-0.0372507758438587,0.4916501045227051
1629376560491,0.5774298906326294,0.162124216556549,-0.0444110482931137,0.4916501045227051
1629376560560,0.5774298906326294,0.1570475399494171,-0.0562861748039722,0.4916501045227051
1629376560631,0.5774298906326294,0.156291052699089,-0.0658090338110923,0.4916501045227051
1629376560716,0.5774298906326294,0.1642033010721206,-0.0687108188867569,0.4916501045227051
1629376560785,0.5774298906326294,0.1803455650806427,-0.0654747709631919,0.4916501045227051
1629376561019,0.5774298906326294,0.1987202614545822,-0.0582684390246868,0.4916501045227051
1629376561092,0.5774298906326294,0.2134735286235809,-0.0474314726889133,0.4916501045227051
1629376561127,0.5774298906326294,0.2225644886493683,-0.0313895717263221,0.4916501045227051
1629376561250,0.5774298906326294,0.2264184802770614,-0.0092380596324801,0.4916501045227051
1629376561355,0.5774298906326294,0.2245004624128341,0.0120280096307396,0.4916501045227051
1629376561481,0.5774298906326294,0.2151183634996414,0.0218949560075998,0.4916501045227051
1629376561573,0.5774298906326294,0.1986185759305954,0.0175691489130258,0.4916501045227051
1629376561635,0.5774298906326294,0.1796794235706329,0.0081173349171876,0.4916501045227051
1629376561756,0.5774298906326294,0.1629561185836792,0.0026513270568102,0.4916501045227051
1629376561883,0.5774298906326294,0.1488419622182846,0.010013842023909,0.4916501045227051
1629376561951,0.5774298906326294,0.1347486674785614,0.0342309325933456,0.4916501045227051
1629376562065,0.5774298906326294,0.1192483305931091,0.0577178448438644,0.4916501045227051
1629376562157,0.5774298906326294,0.103844329714775,0.0702047273516655,0.4916501045227051
1629376562249,0.5774298906326294,0.0891846418380737,0.0727069675922393,0.4916501045227051
1629376562347,0.5774298906326294,0.0735035389661789,0.0710184872150421,0.4916501045227051
1629376562470,0.5774298906326294,0.0570910722017288,0.0677724182605743,0.4916501045227051
1629376562546,0.5774298906326294,0.0429774671792984,0.060965746641159,0.4916501045227051
1629376562774,0.5774298906326294,0.0326765589416027,0.0485090464353561,0.4916501045227051
1629376562819,0.5774298906326294,0.0235387571156024,0.030550979077816,0.4916501045227051
1629376563028,0.3418144583702087,0.0118982251733541,0.0123340310528874,0.4329391717910766
1629376563109,0.3327312767505646,-0.0024983477778732,-0.0002727175888139,0.4767901599407196
1629376563204,0.3335700631141662,-0.0156061081215739,-0.0064859017729759,0.5140849947929382
1629376563304,0.3465609848499298,-0.0234753154218196,-0.0148522006347775,0.5443222522735596
1629376563437,0.3702149093151092,-0.0250567086040973,-0.0224917344748973,0.5650811791419983
1629376563486,0.3985341191291809,-0.0190612375736236,-0.0318905226886272,0.5730774998664856
1629376563577,0.4260489344596863,-0.0050072609446942,-0.0508543476462364,0.5693619847297668
1629376563644,0.4540930688381195,0.0166999846696853,-0.074915662407875,0.5586342215538025
1629376563695,0.4851996302604675,0.0416190698742866,-0.0976558253169059,0.5586342215538025
1629376563782,0.4851996302604675,0.0644624307751655,-0.1171263605356216,0.5586342215538025
1629376563891,0.4851996302604675,0.0824681371450424,-0.1359632909297943,0.5586342215538025
1629376563978,0.4851996302604675,0.0946574509143829,-0.1535036265850067,0.5586342215538025
1629376564103,0.4944507479667663,0.1015339940786361,-0.161967471241951,0.5773704051971436
1629376564191,0.5051004886627197,0.1054783463478088,-0.1559799313545227,0.5953993797302246
1629376564283,0.5208092331886292,0.1103535443544387,-0.1422006338834762,0.6094978451728821
1629376564433,0.5423308610916138,0.1193066015839576,-0.1339226961135864,0.6169094443321228
1629376564503,0.5685144662857056,0.1343932002782821,-0.1355813890695572,0.6167312264442444
1629376564634,0.5973706841468811,0.1548670679330825,-0.1382504552602768,0.6066839098930359
1629376564714,0.6258979439735413,0.1769730150699615,-0.1318770945072174,0.5825983881950378
1629376564798,0.6511033773422241,0.1953187435865402,-0.1182398051023483,0.5825983881950378
1629376564863,0.6511033773422241,0.2042993605136871,-0.1070142388343811,0.5825983881950378
1629376564989,0.6511033773422241,0.2014798521995544,-0.1034447401762008,0.5825983881950378
1629376565112,0.6511033773422241,0.1873650401830673,-0.104244478046894,0.5825983881950378
1629376565240,0.6511033773422241,0.1654142588376999,-0.1047474816441536,0.5825983881950378
1629376565332,0.5000829696655273,0.1418698132038116,-0.1040241196751594,0.8415599465370178
1629376565428,0.4832015335559845,0.1246075257658958,-0.1041447967290878,0.8121699690818787
1629376565567,0.4663569331169128,0.1188718751072883,-0.1069227308034896,0.7796430587768555
1629376565601,0.4588691592216491,0.1219030991196632,-0.1157864481210708,0.7499415278434753
1629376565702,0.4637214839458465,0.1252564936876297,-0.1329975426197052,0.7255940437316895
1629376565862,0.473813533782959,0.1224218383431434,-0.1561671644449234,0.7055519223213196
1629376566019,0.48052778840065,0.1135952249169349,-0.1780897229909896,0.6876625418663025
1629376566145,0.4811824560165405,0.1027438193559646,-0.1948246657848358,0.6706690788269043
1629376566235,0.4794459044933319,0.0936378762125969,-0.2108037173748016,0.654904305934906
1629376566272,0.4791296124458313,0.0881064087152481,-0.2347961366176605,0.6405759453773499
1629376566507,0.4798765480518341,0.0872062519192695,-0.2695032656192779,0.6275402307510376
1629376566609,0.4782090187072754,0.0903144776821136,-0.3079827129840851,0.6150141358375549
1629376566669,0.4665428698062897,0.0954534262418747,-0.3407483398914337,0.5815944671630859
1629376566708,0.4528213739395141,0.1015591099858284,-0.3609597086906433,0.543752133846283
1629376566754,0.4370015263557434,0.1083040013909339,-0.3699845969676971,0.5085710287094116
1629376566843,0.4204647541046142,0.1144562363624572,-0.3720336258411407,0.4819761216640472
1629376566908,0.4055064916610718,0.1176420003175735,-0.3682933747768402,0.4643395841121673
1629376567111,0.3928321301937103,0.1166302859783172,-0.3606607317924499,0.4525697529315948
1629376567179,0.3781323432922363,0.1144799441099166,-0.3514772355556488,0.4432122111320495
1629376567220,0.3572042882442474,0.117021232843399,-0.3427485525608063,0.4343350529670715
1629376567336,0.3307767510414123,0.1273300945758819,-0.3329658508300781,0.4266169667243957
1629376567441,0.3050316572189331,0.1431543380022049,-0.3175897002220154,0.4218733310699463
1629376567536,0.2918522953987121,0.1588759869337082,-0.2937967181205749,0.4208545684814453
1629376567702,0.2987397313117981,0.1705512702465057,-0.2661910057067871,0.4208551347255707
1629376567802,0.3198001384735107,0.1765931844711303,-0.2411762028932571,0.4210422039031982
1629376567946,0.3410620987415313,0.1763503849506378,-0.221106469631195,0.4221126437187195
1629376568086,0.3543494343757629,0.1704842150211334,-0.2036590278148651,0.4257975816726684
1629376568164,0.3611738979816437,0.1627181768417358,-0.1862219125032425,0.4284229874610901
1629376568196,0.3691810965538025,0.1580232977867126,-0.1702418476343155,0.4279006719589233
1629376568321,0.3817419111728668,0.159196525812149,-0.157250240445137,0.4258335530757904
1629376568410,0.394888699054718,0.165568321943283,-0.146414041519165,0.4258580207824707
1629376568487,0.404485285282135,0.1736806333065033,-0.1361878663301468,0.4288254082202911
1629376568596,0.4093493521213531,0.1794080883264541,-0.1270211488008499,0.4317401349544525
1629376568659,0.4121745228767395,0.1799642145633697,-0.1199670284986496,0.4338910579681396
1629376568846,0.4151112139225006,0.1751674264669418,-0.11598751693964,0.4371185302734375
1629376568975,0.4188604950904846,0.167666494846344,-0.1159417182207107,0.4463449716567993
1629376569069,0.4240684807300567,0.1603840440511703,-0.1213100627064704,0.4654260873794555
1629376569115,0.4270162284374237,0.1537026464939117,-0.1328951716423034,0.4919188022613525
1629376569147,0.4190570712089538,0.1441999971866607,-0.1486196815967559,0.4961293339729309
1629376569272,0.3949029743671417,0.1292681396007537,-0.1627697646617889,0.5014851689338684
1629376569428,0.361967384815216,0.1107374727725982,-0.1712683141231537,0.507308840751648
1629376569538,0.3342278003692627,0.0950757339596748,-0.1770122349262237,0.5127418041229248
1629376569600,0.3193164765834808,0.0878535956144332,-0.1853805035352707,0.5202309489250183
1629376569647,0.3097798526287079,0.0870173946022987,-0.1980831325054168,0.5292164087295532
1629376569818,0.2963194251060486,0.0849339738488197,-0.2112483382225036,0.5367416739463806
1629376569912,0.2818144857883453,0.0751295462250709,-0.2206994891166687,0.5414566993713379
1629376569990,0.2764356136322021,0.0561539269983768,-0.2240406721830368,0.5485595464706421
1629376570147,0.2860170900821686,0.0317376814782619,-0.2199692279100418,0.5666964054107666
1629376570225,0.3046000003814697,0.0084237623959779,-0.2096054553985595,0.5995151996612549
1629376570303,0.3046000003814697,-0.0104117011651396,-0.1979189664125442,0.5995151996612549
1629376570366,0.3046000003814697,-0.0257081594318151,-0.1895737648010254,0.5995151996612549
1629376570537,0.3046000003814697,-0.0404999405145645,-0.1858169436454773,0.5995151996612549
1629376570662,0.3046000003814697,-0.0538637340068817,-0.1835347563028335,0.5995151996612549
1629376570725,0.3046000003814697,-0.059297677129507,-0.1791823357343673,0.5995151996612549
1629376570850,0.3046000003814697,-0.0530884116888046,-0.1738825440406799,0.5995151996612549
1629376570993,0.3046000003814697,-0.0391877777874469,-0.1713846772909164,0.5995151996612549
1629376571102,0.3794495463371277,-0.0251351650804281,-0.1716052889823913,0.3022094070911407
1629376571164,0.3836278021335602,-0.0168152786791324,-0.1679863631725311,0.3752278685569763
1629376571228,0.4045788943767547,-0.0128076123073697,-0.1550075262784958,0.4482109546661377
1629376571431,0.4275586903095245,-0.0064180130138993,-0.1359361261129379,0.5062444806098938
1629376571556,0.4400719702243805,0.008478564210236,-0.120080180466175,0.5392701029777527
1629376571634,0.4422427713871002,0.0328760407865047,-0.1148714795708656,0.5482190251350403
1629376571681,0.4422427713871002,0.0626986697316169,-0.1198965236544609,0.5482190251350403
1629376571775,0.4422427713871002,0.0913367643952369,-0.1268263161182403,0.5482190251350403
1629376571806,0.4422427713871002,0.1143966317176818,-0.1238043159246444,0.5482190251350403
1629376572013,0.4422427713871002,0.1305664181709289,-0.1070335134863853,0.5482190251350403
1629376572185,0.4422427713871002,0.1423564404249191,-0.0840897262096405,0.5482190251350403
1629376572263,0.4422427713871002,0.1521051675081253,-0.0664077773690223,0.5482190251350403
1629376572325,0.4520032703876495,0.1589508801698684,-0.0579074509441852,0.5779708027839661
1629376572466,0.4568089842796325,0.1612851321697235,-0.0543517358601093,0.6119232773780823
1629376572544,0.4668965935707092,0.1612580418586731,-0.0496789291501045,0.6463848948478699
1629376572591,0.4866634011268616,0.1636690199375152,-0.0418757125735282,0.6772558093070984
1629376572778,0.5058830380439758,0.170137271285057,-0.0339471362531185,0.6976526975631714
1629376572888,0.5058830380439758,0.1755228191614151,-0.0293841082602739,0.6976526975631714
1629376572966,0.5058830380439758,0.1738130301237106,-0.0266927108168602,0.6976526975631714
1629376573015,0.5058830380439758,0.1651050448417663,-0.0201756041496992,0.6976526975631714
1629376573062,0.5058830380439758,0.1549634039402008,-0.0072140777483582,0.6976526975631714
1629376573234,0.5058830380439758,0.1474151462316513,0.0078485272824764,0.6976526975631714
1629376573343,0.5058830380439758,0.141636922955513,0.0176850333809852,0.6976526975631714
1629376573640,0.5058830380439758,0.1355168670415878,0.0181015748530626,0.6976526975631714
1629376573703,0.5058830380439758,0.1281787455081939,0.0105791501700878,0.6976526975631714
1629376573767,0.5058830380439758,0.117943100631237,0.0008536071982234,0.6976526975631714
