timestamp,TP9,AF7,AF8,TP10
1629376437348,0.0,0.0,0.0,0.0
1629376437453,0.0,0.0,0.0,0.0
1629376437526,0.0,0.0,0.0,0.0
1629376437605,0.0,0.0,0.0,0.0
1629376437723,0.0,0.0,0.0,0.0
1629376437909,0.0,0.0,0.0,0.0
1629376437992,0.0,0.0,0.0,0.0
1629376438076,0.0,0.0,0.0,0.0
1629376438116,0.0,0.0,0.0,0.0
1629376438198,0.0,0.0,0.0,0.0
1629376438344,0.0,0.0,0.0,0.0
1629376438521,0.0,0.0,0.0,0.0
1629376438560,0.0,0.0,0.0,0.0
1629376438669,0.0,0.0,0.0,0.0
1629376438744,0.0,0.0,0.0,0.0
1629376438815,0.0,0.0,0.0,0.0
1629376438917,0.0,0.0,0.0,0.0
1629376439099,0.0,0.0,0.0,0.0
1629376439151,0.0,0.0,0.0,0.0
1629376439270,0.0,0.0,0.0,0.0
1629376439379,0.0,0.0,0.0,0.0
1629376439518,0.0,0.0,0.0,0.0
1629376439631,0.3254418969154358,0.0,0.1194359585642814,0.23550546169281
1629376439684,0.3561477363109588,-0.2198058366775512,0.1214376837015152,0.3921465277671814
1629376439774,0.4225949943065643,-0.1966647952795028,0.1265158504247665,0.4844422042369842
1629376439862,0.4834559559822082,-0.1249968186020851,0.1722141802310943,0.5507448315620422
1629376439965,0.5326690673828125,-0.0358660072088241,0.2203954756259918,0.6040558218955994
1629376440122,0.5735034346580505,0.0434957817196846,0.2528249323368072,0.6449488401412964
1629376440213,0.6212211847305298,0.1077836751937866,0.2612912952899933,0.6673874258995056
1629376440433,0.6514285206794739,0.1687708646059036,0.2637600302696228,0.6838058829307556
1629376440520,0.660965085029602,0.1959389895200729,0.2637600302696228,0.7167038917541504
1629376440552,0.6661720871925354,0.2108712345361709,0.2673399746417999,0.7527045011520386
1629376440588,0.7767260670661926,0.2499636709690094,0.2758295238018036,0.8400586843490601
1629376440668,0.9794909358024596,0.2807675898075104,0.2807860970497131,1.0136443376541138
1629376440782,1.1140146255493164,0.3403213322162628,0.2827343344688415,1.235781192779541
1629376440885,1.1554646492004397,0.430408775806427,0.2730360925197601,1.3569211959838867
1629376441080,1.1578320264816284,0.5149847865104675,0.2417937815189361,1.3775051832199097
1629376441124,1.1578320264816284,0.5248043537139893,0.2261043041944503,1.3795243501663208
1629376441246,1.1578320264816284,0.5248043537139893,0.2466844916343689,1.384258270263672
1629376441304,1.1578320264816284,0.5248043537139893,0.3118892610073089,1.3860208988189695
1629376441370,1.1578320264816284,0.5248043537139893,0.3922871351242065,1.3870989084243774
1629376441524,1.1578320264816284,0.5248043537139893,0.4158317744731903,1.3880823850631714
1629376441619,1.1546614170074463,0.5248043537139893,0.412755936384201,1.3880823850631714
1629376441772,1.1485183238983154,0.5248043537139893,0.4005841612815857,1.3880823850631714
1629376441871,1.1430306434631348,0.5248043537139893,0.3899318277835846,1.3880823850631714
1629376441933,1.1417105197906494,0.5248043537139893,0.389786958694458,1.3880823850631714
1629376442048,1.1417105197906494,0.5248043537139893,0.389786958694458,1.3880823850631714
1629376442153,1.1417105197906494,0.5248043537139893,0.3872012197971344,1.3880823850631714
1629376442184,1.1417105197906494,0.5137739777565002,0.3820339143276214,1.3880823850631714
1629376442324,1.1351182460784912,0.5079648494720459,0.3681809902191162,1.3880823850631714
1629376442458,1.0647094249725342,0.5018215179443359,0.3628471791744232,1.3631043434143066
1629376442534,0.94786936044693,0.4900283515453338,0.3723159432411194,1.2241935729980469
1629376442647,0.895579993724823,0.3898321986198425,0.3816827833652496,1.0355594158172607
1629376442763,0.8698486685752869,0.2334640026092529,0.387194275856018,0.9405410289764404
1629376442851,0.8698486685752869,0.0821899399161338,0.387194275856018,0.9350069165229796
1629376442936,0.8698486685752869,0.012995421886444,0.3766659796237945,0.93276846408844
1629376443082,0.8698486685752869,0.0138681083917617,0.2741084694862366,0.9398123621940612
1629376443195,1.0340481996536257,0.0264763720333576,0.145416185259819,0.958487331867218
1629376443235,1.090147614479065,0.0380978174507617,0.1307681947946548,0.9834369421005248
1629376443360,1.1403417587280271,0.0376107282936573,0.2167663276195526,1.0157461166381836
1629376443476,1.174242615699768,0.0493141300976276,0.4781333208084106,1.032607913017273
1629376443588,1.2259541749954224,0.0570864453911781,0.4781333208084106,1.0487868785858154
1629376443697,1.259958267211914,0.1070935651659965,0.4781333208084106,1.1034966707229614
1629376443744,1.264094352722168,0.1734933406114578,0.4748098254203796,1.144998550415039
1629376443812,1.2647758722305298,0.2239094823598861,0.4698799550533294,1.1459577083587646
1629376444025,1.265933871269226,0.2239094823598861,0.4670605957508087,1.1459577083587646
1629376444103,1.2669458389282229,0.2239094823598861,0.4670605957508087,1.1459577083587646
1629376444168,1.2635598182678225,0.2239094823598861,0.4670605957508087,1.1459858417510986
1629376444317,1.2635598182678225,0.2298242002725601,0.4670605957508087,1.1459858417510986
1629376444422,1.2635598182678225,0.2313308864831924,0.4670605957508087,1.1459858417510986
1629376444598,1.2635598182678225,0.2296978682279586,0.4670605957508087,1.1459858417510986
1629376444681,1.2635598182678225,0.2090139985084533,0.4670605957508087,1.1459858417510986
1629376444719,1.2577420473098757,0.1845598369836807,0.4670605957508087,1.1452124118804932
1629376444830,1.2481871843338013,0.1829838156700134,0.469474196434021,1.1447545289993286
1629376444891,1.2352674007415771,0.1829838156700134,0.469474196434021,1.1384930610656738
1629376444976,1.216902732849121,0.1829838156700134,0.469474196434021,1.129067301750183
1629376445075,1.173456788063049,0.1829838156700134,0.469474196434021,1.093372464179993
1629376445190,1.0721445083618164,0.1829838156700134,0.469474196434021,1.0526251792907717
1629376445373,0.8923617601394653,0.1829838156700134,0.469474196434021,0.9765146374702454
1629376445419,0.8923617601394653,-0.0065027833916246,0.469474196434021,0.8478725552558899
1629376445464,0.8923617601394653,-0.0065027833916246,0.469474196434021,0.7650445699691772
1629376445738,0.8923617601394653,-0.0065027833916246,0.469474196434021,0.7650445699691772
1629376445829,0.8923617601394653,-0.0065027833916246,0.469474196434021,0.7650445699691772
1629376445900,0.8923617601394653,-0.0065027833916246,0.469474196434021,0.7650445699691772
1629376446035,0.8923617601394653,-0.0065027833916246,0.469474196434021,0.7650445699691772
1629376446121,0.8923617601394653,-0.0065027833916246,0.469474196434021,0.7650445699691772
1629376446246,0.8923617601394653,-0.0065027833916246,0.469474196434021,0.7650445699691772
1629376446310,0.8698425889015198,-0.0065027833916246,0.469474196434021,0.7650445699691772
1629376446384,0.8969630599021912,-0.0065027833916246,0.469474196434021,0.7650445699691772
1629376446436,1.0095571279525757,-0.0065027833916246,0.469474196434021,0.7650445699691772
1629376446470,1.074033498764038,-0.0065027833916246,0.469474196434021,0.7650445699691772
1629376446548,1.087313890457153,-0.0545873269438743,0.469474196434021,0.7650445699691772
1629376446669,1.087313890457153,-0.0244946405291557,0.469474196434021,1.020262360572815
1629376446769,1.087313890457153,0.103855587542057,0.469474196434021,1.020262360572815
1629376446922,1.087313890457153,0.2453987598419189,-0.0997281149029731,1.020262360572815
1629376447076,1.087313890457153,0.3139212131500244,-0.0744171738624572,1.020262360572815
1629376447157,1.0889716148376465,0.3165916502475738,-0.0495010390877723,1.020262360572815
1629376447207,1.0889716148376465,0.3165916502475738,-0.0402711480855941,1.020262360572815
1629376447253,1.0889716148376465,0.3165916502475738,-0.037340473383665,1.020262360572815
1629376447346,1.082722544670105,0.3165916502475738,-0.037340473383665,1.020262360572815
1629376447487,1.0820327997207642,0.3165916502475738,-0.037340473383665,1.020262360572815
1629376447608,1.0798838138580322,0.3570718765258789,-0.037340473383665,1.024356245994568
1629376447700,1.0792286396026611,0.3751089870929718,-0.037340473383665,1.0245277881622314
1629376447793,1.0760499238967896,0.3785537481307983,0.0109103778377175,1.0664831399917605
1629376447856,1.071790099143982,0.375884473323822,0.0659124851226806,1.093307614326477
1629376447952,1.0171326398849487,0.3740431070327759,0.0738098621368408,1.0935019254684448
1629376448118,0.956893503665924,0.3730594515800476,0.0698715597391128,1.084006667137146
1629376448188,0.9082655906677246,0.3729375898838043,0.0638720765709877,1.032487392425537
1629376448349,0.8866982460021973,0.3713595569133758,0.0614839680492877,0.9864320158958436
1629376448418,0.8711594343185425,0.3603626191616058,0.0467496402561664,0.9688692092895508
1629376448527,0.8453366756439209,0.3315863311290741,0.0307865552604198,0.9688692092895508
1629376448621,0.7583022713661194,0.1454288512468338,0.0174964033067226,0.9688692092895508
1629376448683,0.618358314037323,0.1454288512468338,-0.000596054829657,0.9688692092895508
1629376448811,0.4465824961662292,0.1454288512468338,-0.0194208119064569,0.9688692092895508
1629376448921,0.342825710773468,0.1454288512468338,-0.0273271668702363,0.9688692092895508
1629376449014,0.3160305917263031,0.1454288512468338,-0.0273271668702363,0.9688692092895508
1629376449108,0.312635213136673,0.1298256963491439,-0.0273271668702363,0.9680262804031372
1629376449233,0.3035604357719421,0.1025618463754654,-0.0273271668702363,0.960705578327179
1629376449280,0.3005489110946655,0.0572959259152412,-0.0273271668702363,0.9500245451927184
1629376449420,0.2885474860668182,-0.0303285270929336,-0.0273271668702363,0.923554003238678
1629376449514,0.4038670659065246,-0.1257146000862121,-0.0273271668702363,0.8815472722053528
1629376449655,0.3988382220268249,-0.2292929291725158,-0.0273271668702363,0.8163082599639893
1629376449687,0.3972614705562591,-0.3585737347602844,-0.0273271668702363,0.7125105857849121
1629376449782,0.386820912361145,-0.3168089687824249,-0.2672149240970611,0.6013262867927551
1629376450032,0.4021374881267547,-0.2847169041633606,-0.2308773249387741,0.5383312106132507
1629376450111,0.4217709600925445,-0.2806058526039123,-0.215439036488533,0.5846962928771973
1629376450157,0.426505446434021,-0.2806058526039123,-0.2005270719528198,0.6177696585655212
1629376450345,0.4312783479690552,-0.2731880843639374,-0.1700745075941085,0.6292194724082947
1629376450439,0.4375696182250976,-0.2728691697120666,-0.1285654604434967,0.6406761407852173
1629376450595,0.4981113374233246,-0.2728691697120666,-0.1046521142125129,0.6412968039512634
1629376450673,0.6097730398178101,-0.2728691697120666,-0.0992878451943397,0.6416757106781006
1629376450735,0.7261309623718262,-0.2728691697120666,-0.0805762931704521,0.6470241546630859
1629376450860,0.7863554358482361,-0.2563165128231048,-0.0424446202814579,0.6508094668388367
1629376450892,0.7953307628631592,-0.194242849946022,-0.0031041109468787,0.6508094668388367
1629376450923,0.7953307628631592,-0.1128118261694908,0.0069612236693501,0.5955318212509155
1629376451079,0.7866516709327698,-0.0657354742288589,0.0197567399591207,0.6080257296562195
1629376451157,0.78399258852005,-0.0576416850090026,0.0738819763064384,0.631324291229248
1629376451251,0.78399258852005,-0.0641975477337837,0.1033305376768112,0.6503028273582458
1629376451376,0.7981525659561157,-0.0676840022206306,0.1187562942504882,0.654332160949707
1629376451438,0.8207948803901672,-0.0681458786129951,0.1326827555894851,0.6545690298080444
1629376451563,0.8888670802116394,-0.0603547431528568,0.1462443470954895,0.6589846611022949
1629376451720,0.9443060755729676,-0.0326275900006294,0.1512221693992614,0.6903005242347717
1629376451813,0.945434868335724,0.0018374694045633,0.1541536003351211,0.6881392002105713
1629376451877,0.940397322177887,0.0018374694045633,0.1627033948898315,0.6565514802932739
1629376451987,0.9403088092803956,0.0018374694045633,0.1603137552738189,0.633527398109436
1629376452049,0.9403088092803956,0.0018374694045633,0.1802043616771698,0.6291075944900513
1629376452174,0.9403088092803956,0.0018374694045633,0.2283869087696075,0.6247069835662842
1629376452236,0.9422442317008972,0.0018374694045633,0.2730079889297485,0.6205170750617981
1629376452315,0.9293515086174012,0.0018374694045633,0.3316047191619873,0.6058181524276733
1629376452596,0.9241771697998048,-0.0163513254374265,0.3250008523464203,0.5880826115608215
1629376452611,0.9241771697998048,-0.0655959472060203,0.2998961806297302,0.5723215937614441
1629376452658,0.9241771697998048,-0.1272115409374237,0.278120219707489,0.5613788366317749
1629376452752,0.9241771697998048,-0.1834244281053543,0.2920083403587341,0.5781456232070923
1629376452846,0.9241771697998048,-0.2354596108198166,0.3193478882312774,0.5981820821762085
1629376453002,0.921665906906128,-0.2354596108198166,0.345112681388855,0.6066548228263855
1629376453064,0.8967489004135132,-0.2354596108198166,0.3659519553184509,0.6011676788330078
1629376453158,0.8284106850624084,-0.2354596108198166,0.3743155598640442,0.6114776730537415
1629376453330,0.7072953581809998,-0.2354596108198166,0.3834805190563202,0.6196292638778687
1629376453392,0.6200005412101746,-0.3731904029846191,0.3869135677814483,0.638468861579895
1629376453455,0.651229202747345,-0.3352897763252258,0.3871512413024902,0.6553959846496582
1629376453549,0.6573302745819092,-0.3051351010799408,0.3860236406326294,0.6640154123306274
1629376453674,0.6669225096702576,-0.2873455882072449,0.3826800584793091,0.6971675157546997
1629376453814,0.6629945635795593,-0.2749388217926025,0.3753999769687652,0.7145935297012329
1629376453879,0.5653061866760254,-0.271788090467453,0.3645740151405334,0.7145935297012329
1629376454020,0.5653061866760254,-0.2637970149517059,0.3064613342285156,0.7145935297012329
1629376454098,0.5653061866760254,-0.2520613670349121,0.2339517027139663,0.7145935297012329
1629376454145,0.5653061866760254,-0.2323716878890991,0.2114660143852234,0.7145935297012329
1629376454301,0.5653061866760254,-0.2313198447227478,0.2077583074569702,0.7145935297012329
1629376454395,0.5576075911521912,-0.2003256529569625,0.207522913813591,0.7112628817558289
1629376454520,0.5522969961166382,-0.1156702861189842,0.1998145580291748,0.7074196338653564
1629376454598,0.5430768132209778,-0.0937786847352981,0.1986030042171478,0.7051326036453247
1629376454692,0.5411125421524048,-0.0776461213827133,0.1854669600725174,0.7034947276115417
1629376454770,0.5280580520629883,-0.027944291010499,0.1802241951227188,0.7017651200294495
1629376455013,0.5266879796981812,0.0574308298528194,0.1792937666177749,0.7049598693847656
1629376455075,0.5247708559036255,0.1165576800704002,0.146472081542015,0.7101323008537292
1629376455185,0.4776364266872406,0.1250229328870773,0.1224251613020896,0.6935274004936218
1629376455278,0.4612378478050232,0.1267187595367431,0.1173946782946586,0.67289137840271
1629376455388,0.4406822025775909,0.1277462840080261,0.1051130443811416,0.6026759743690491
1629376455560,0.4085538685321808,0.1466917693614959,0.0895457789301872,0.5334336161613464
1629376455669,0.4046516418457031,0.1476104408502578,0.0811654478311538,0.5249831080436707
1629376455700,0.4148772358894348,0.1476104408502578,0.1289560943841934,0.517595112323761
1629376455872,0.4102204144001007,0.1476104408502578,0.211824357509613,0.5111812353134155
1629376455903,0.4094642400741577,0.1497086286544799,0.2777887880802154,0.5000373125076294
1629376455983,0.4094642400741577,0.1497086286544799,0.3379888236522674,0.5147973299026489
1629376456077,0.4094642400741577,0.1501423567533493,0.3611116707324981,0.5572469234466553
1629376456217,0.4094642400741577,0.165084883570671,0.3722141087055206,0.5845566391944885
1629376456295,0.4094642400741577,0.1921140551567077,0.3722141087055206,0.5922840237617493
1629376456327,0.4094642400741577,0.193499818444252,0.3829088807106018,0.6018990278244019
1629376456436,0.408792108297348,0.1957110166549682,0.3855212032794952,0.606772780418396
1629376456498,0.3778710961341858,0.1947289854288101,0.3855212032794952,0.6118377447128296
1629376456623,0.3468295037746429,0.1678704023361206,0.3855212032794952,0.6114278435707092
1629376456782,0.3463485538959503,0.1614508032798767,0.3855212032794952,0.5843015313148499
1629376456845,0.3406356573104858,0.1614508032798767,0.3855212032794952,0.5553265810012817
1629376456985,0.3717677295207977,0.1609853953123092,0.3855212032794952,0.5481629371643066
1629376457016,0.421354591846466,0.1524953246116638,0.3855212032794952,0.5509123206138611
1629376457127,0.4388644397258758,0.1373212486505508,0.3855212032794952,0.5509123206138611
1629376457221,0.4185833036899566,0.0977299213409423,0.3855212032794952,0.5509123206138611
1629376457362,0.4148170351982116,0.0753168538212776,0.3641829192638397,0.5509123206138611
1629376457453,0.4308287501335144,0.0794032141566276,0.3337516486644745,0.5503565669059753
1629376457565,0.4491491317749023,0.0909871235489845,0.2656759321689605,0.5503565669059753
1629376457625,0.4542762041091919,0.0970730036497116,0.2321018874645233,0.5428949594497681
1629376457806,0.4625767767429352,0.0792467519640922,0.2517129182815552,0.5084766745567322
1629376457851,0.4891227185726166,0.007543858140707,0.2596880197525024,0.4811857342720032
1629376458133,0.4984197616577148,-0.0594416931271553,0.2535633444786072,0.4881770610809326
1629376458226,0.4984197616577148,-0.0509689301252365,0.2422498315572738,0.5450563430786133
1629376458400,0.4984197616577148,-0.0641079992055893,0.2430830895900726,0.5886349081993103
1629376458479,0.4984197616577148,-0.0611164309084415,0.2700129449367523,0.6003944873809814
1629376458510,0.4974297285079956,-0.0567844770848751,0.388889342546463,0.6049481630325317
1629376458697,0.4919684827327728,-0.0489739030599594,0.5068245530128479,0.6191558241844177
1629376458776,0.4849249422550201,-0.0369811616837978,0.5245439410209656,0.6052425503730774
1629376458842,0.4763589203357696,-0.0369811616837978,0.5245439410209656,0.5826805830001831
1629376458873,0.4596927165985107,-0.0364253968000412,0.5245439410209656,0.5826805830001831
1629376458998,0.4729641675949096,0.0089782131835818,0.5245439410209656,0.5948008894920349
1629376459045,0.5136926770210266,0.0677103474736213,0.5245439410209656,0.619395911693573
1629376459139,0.5166921019554138,0.1220137253403663,0.5245439410209656,0.6652556657791138
1629376459232,0.5155434012413025,0.1300030052661895,0.5245439410209656,0.6928517818450928
1629376459279,0.5190707445144653,0.1186963468790054,0.5181822776794434,0.6949290633201599
1629376459560,0.5163215398788452,0.1067902818322181,0.5113860368728638,0.6949290633201599
1629376459607,0.5069853067398071,0.0955260321497917,0.5081472992897034,0.6944882869720459
1629376459639,0.4920344948768616,0.0955096334218978,0.5030644536018372,0.6886735558509827
1629376459685,0.5018421411514282,0.0932922810316085,0.5004848837852478,0.6453449130058289
1629376459811,0.51228928565979,0.0932922810316085,0.4994305968284607,0.5768693089485168
1629376459923,0.5266461968421936,0.0932922810316085,0.4983249008655548,0.5336589813232422
1629376459970,0.5340964198112488,0.0932922810316085,0.4914348125457763,0.5461862683296204
1629376460111,0.5340242981910706,0.0829465165734291,0.3657553791999817,0.560590922832489
1629376460251,0.533537745475769,0.0577760189771652,0.2293727099895477,0.5678225159645081
1629376460370,0.533537745475769,0.0786751136183738,0.2657256126403808,0.5867900848388672
1629376460557,0.5339147448539734,0.1065492704510688,0.3204611241817474,0.6412324905395508
1629376460651,0.5400946140289307,0.1324612200260162,0.3295436203479767,0.7041350603103638
1629376460682,0.5370960235595703,0.1428270787000656,0.3297225832939148,0.7229781150817871
1629376460745,0.5327831506729126,0.0993397980928421,0.3297225832939148,0.7117149233818054
1629376460844,0.52706378698349,0.0949756428599357,0.3297225832939148,0.6898623108863831
1629376460920,0.5045992136001587,0.088562861084938,0.3272457718849182,0.6495646834373474
1629376461060,0.471628874540329,0.088562861084938,0.3185261487960815,0.6221569776535034
1629376461123,0.4884668886661529,0.088562861084938,0.2932947874069214,0.6221569776535034
1629376461232,0.4908040463924408,0.088562861084938,0.2809363901615143,0.6221569776535034
1629376461310,0.4954696595668793,0.0769391506910324,0.3112014532089233,0.6209837198257446
1629376461420,0.5132659673690796,0.0021369368769228,0.3448082208633423,0.620667576789856
1629376461513,0.5203331708908081,-0.0711302831768989,0.3459064364433288,0.6234803795814514
1629376461716,0.5037896037101746,-0.0706575736403465,0.3343423008918762,0.6227843761444092
1629376461872,0.5176535248756409,-0.0706575736403465,0.3343423008918762,0.6253216862678528
1629376461954,0.5899633765220642,-0.0480115674436092,0.3343423008918762,0.6351408958435059
1629376461985,0.6572895050048828,0.0221541915088892,0.3240107893943786,0.6511644124984741
1629376462017,0.7166653275489807,0.0687145516276359,0.2854010462760925,0.6893580555915833
1629376462126,0.7638042569160461,0.0835728421807289,0.2287609875202179,0.7294718623161316
1629376462220,0.7714812755584717,0.0703622549772262,0.1829647570848465,0.7417296171188354
1629376462298,0.7823895215988159,0.0288931932300329,0.1653057336807251,0.7462825179100037
1629376462423,0.8268373608589172,-0.0281428098678588,0.1714221388101577,0.8257158994674683
1629376462533,1.0005505084991455,-0.0174168441444635,0.1714221388101577,0.9207338094711304
1629376462595,1.1608985662460327,0.0025052889250218,0.1714221388101577,1.0015156269073486
1629376462876,1.238222360610962,0.0253951344639062,0.1764797270298004,1.053470253944397
1629376463144,1.239200472831726,0.0731201544404029,0.1989064812660217,1.0673760175704956
1629376463238,1.239200472831726,0.1018268689513206,0.2528570890426636,1.06823992729187
1629376463285,1.239200472831726,0.162075325846672,0.3302960395812988,1.06823992729187
1629376463410,1.239200472831726,0.2166582196950912,0.2780084908008575,1.06823992729187
1629376463456,1.239200472831726,0.339799165725708,0.2554457187652588,1.06823992729187
1629376463628,1.239200472831726,0.4522595405578613,0.2554457187652588,1.06823992729187
1629376463691,1.239200472831726,0.4522595405578613,0.2554457187652588,1.06823992729187
1629376463722,1.239200472831726,0.4522595405578613,0.2554457187652588,1.06823992729187
1629376463785,1.2376577854156494,0.450374573469162,0.2554457187652588,1.06823992729187
1629376463925,1.2358916997909546,0.450374573469162,0.2554457187652588,1.0627014636993408
1629376463990,1.2358916997909546,0.450374573469162,0.2554457187652588,1.0560380220413208
1629376464084,1.2358916997909546,0.450374573469162,0.2518722116947174,1.0508934259414673
1629376464256,1.2358916997909546,0.4498225152492523,0.2310051918029785,1.045237421989441
1629376464303,1.2358916997909546,0.4457407295703888,0.204043835401535,1.045237421989441
1629376464396,1.2358916997909546,0.4338312149047851,0.204043835401535,1.045237421989441
1629376464459,1.2358916997909546,0.4299751818180084,0.204043835401535,1.045237421989441
1629376464553,1.2358916997909546,0.4251658022403717,0.204043835401535,1.045237421989441
1629376464616,1.2358916997909546,0.4195351600646972,0.204043835401535,1.045237421989441
1629376464678,1.2128562927246094,0.4056617617607116,0.204043835401535,1.045237421989441
1629376464774,1.3433207273483276,0.3850868344306946,0.204043835401535,1.045237421989441
1629376464868,1.374430775642395,0.2745835483074188,0.204043835401535,1.045237421989441
1629376464977,1.3821104764938354,0.3104905188083648,0.204043835401535,1.1368194818496704
1629376465055,1.3821104764938354,0.3217017650604248,0.0490088947117328,1.1368194818496704
1629376465133,1.3821104764938354,0.3328945636749267,0.0851226449012756,1.1368194818496704
1629376465336,1.3821104764938354,0.3404078483581543,0.1011969819664955,1.1368194818496704
1629376465383,1.3821104764938354,0.3423938453197479,0.1144954338669776,1.1368194818496704
1629376465508,1.3821104764938354,0.3431336283683777,0.1318977028131485,1.1368194818496704
1629376465649,1.3821104764938354,0.3431673943996429,0.1408674865961074,1.1368194818496704
1629376465808,1.3821104764938354,0.3431673943996429,0.1408674865961074,1.1368194818496704
1629376465839,1.3821104764938354,0.3431673943996429,0.1427708566188812,1.1368194818496704
1629376465917,1.3815354108810425,0.3431673943996429,0.1474748402833938,1.1368194818496704
1629376466105,1.384508490562439,0.3431673943996429,0.1542543768882751,1.136932134628296
1629376466183,1.3876793384552002,0.3287669420242309,0.1602816730737686,1.136932134628296
1629376466214,1.3881572484970093,0.331188440322876,0.1637419015169143,1.134379267692566
1629376466386,1.3641458749771118,0.3391196131706238,0.1597100049257278,1.086102843284607
1629376466464,1.255038857460022,0.3404754996299743,0.1520090252161026,1.0308395624160769
1629376466558,1.187008261680603,0.3271017670631408,0.1605839431285858,1.0423332452774048
1629376466651,1.153477907180786,0.2919619977474212,0.1370386332273483,1.0540685653686523
1629376466761,1.1332138776779177,0.2478124499320984,0.0907167196273803,1.070467829704285
1629376466858,1.129392147064209,0.1820628941059112,0.0615873858332634,1.110493540763855
1629376466920,1.122027039527893,0.0922023579478263,0.0615873858332634,1.1774122714996338
1629376467014,1.132232666015625,0.056136704981327,0.0669649764895439,1.22627854347229
1629376467139,1.1501567363739014,0.0429683104157447,0.0581567399203777,1.258745193481445
1629376467186,1.1501567363739014,0.0510462075471878,0.0329546332359313,1.2701681852340698
1629376467404,1.1501567363739014,0.0815084129571914,0.0102451620623469,1.2701681852340698
1629376467467,1.1501567363739014,0.1364650279283523,0.0234415084123611,1.270591139793396
1629376467545,1.1473625898361206,0.1722557842731475,0.1390824168920517,1.273464560508728
1629376467576,1.1449283361434937,0.2393452823162078,0.3685075640678406,1.2884635925292969
1629376467670,1.1376471519470217,0.2393452823162078,0.3680135309696197,1.2884635925292969
1629376467877,1.1217257976531982,0.2389422804117202,0.3680135309696197,1.2884635925292969
1629376467939,1.0947623252868652,0.2389422804117202,0.3662378191947937,1.2884635925292969
1629376467971,1.077648043632507,0.2389422804117202,0.3617889285087585,1.2884635925292969
1629376468143,1.0721813440322876,0.2389422804117202,0.3617889285087585,1.2884635925292969
1629376468189,1.0721813440322876,0.2361956238746643,0.3617889285087585,1.2884635925292969
1629376468293,1.0721813440322876,0.2359849065542221,0.3617889285087585,1.2884635925292969
1629376468493,1.0721813440322876,0.2359849065542221,0.3617889285087585,1.284482479095459
1629376468555,1.0721813440322876,0.2359849065542221,0.3617889285087585,1.2558351755142212
1629376468696,1.0721813440322876,0.2359849065542221,0.3617889285087585,1.1992653608322144
1629376468759,1.0721813440322876,0.2359849065542221,0.3617889285087585,1.092939376831055
1629376468805,1.0721813440322876,0.2359849065542221,0.3617889285087585,1.092939376831055
1629376468902,1.0721813440322876,0.2359849065542221,0.3617889285087585,1.092939376831055
1629376469011,1.0721813440322876,0.2359849065542221,0.3617889285087585,1.092939376831055
1629376469089,1.0721813440322876,0.2359849065542221,0.3617889285087585,1.092939376831055
1629376469230,1.0721813440322876,0.3651655614376068,0.3617889285087585,1.092939376831055
1629376469339,1.0721813440322876,0.3651655614376068,0.3617889285087585,1.092939376831055
1629376469575,1.0721813440322876,0.3651655614376068,0.3617889285087585,1.092939376831055
1629376469716,1.0721813440322876,0.3651655614376068,0.3617889285087585,1.092939376831055
1629376469794,1.0721813440322876,0.3651655614376068,0.3617889285087585,1.092939376831055
1629376469825,1.0721813440322876,0.3651655614376068,0.3617889285087585,1.092939376831055
1629376469856,1.0721813440322876,0.3651655614376068,0.3617889285087585,1.092939376831055
1629376469952,1.0721813440322876,0.3651655614376068,0.3617889285087585,1.092939376831055
1629376470046,1.0721813440322876,0.4531160891056061,0.3617889285087585,1.092939376831055
1629376470202,1.0721813440322876,0.4531160891056061,0.3617889285087585,1.092939376831055
1629376470311,1.0721813440322876,0.4531160891056061,0.3617889285087585,1.092939376831055
1629376470405,1.0721813440322876,0.4531160891056061,0.3617889285087585,1.092939376831055
1629376470468,1.0721813440322876,0.4413810074329376,0.3617889285087585,1.092939376831055
1629376470499,1.0721813440322876,0.4205048680305481,0.3617889285087585,1.092939376831055
1629376470639,1.0721813440322876,0.4162416756153106,0.3617889285087585,1.092939376831055
1629376470749,1.0721813440322876,0.3628638088703155,0.3617889285087585,1.092939376831055
1629376470908,1.0721813440322876,0.3628638088703155,0.3617889285087585,1.092939376831055
1629376470955,1.0721813440322876,0.3628638088703155,0.3617889285087585,1.092939376831055
1629376471049,1.0721813440322876,0.3628638088703155,0.3617889285087585,1.092939376831055
1629376471158,1.0721813440322876,0.3628638088703155,0.3617889285087585,1.092939376831055
1629376471221,0.452574610710144,0.3628638088703155,0.1847230345010757,0.5020753145217896
1629376471564,0.5033214688301086,0.3628638088703155,0.1865962594747543,0.5460115671157837
1629376471627,0.509457528591156,0.3628638088703155,0.1865962594747543,0.5588110685348511
1629376471720,0.509457528591156,0.2095452845096588,0.1865962594747543,0.5588110685348511
1629376471767,0.509457528591156,0.0839946419000625,0.1869612634181976,0.5588110685348511
1629376471892,0.509457528591156,-0.010468890890479,0.195680096745491,0.5588110685348511
1629376471974,0.509457528591156,-0.0130739584565162,0.2459584027528762,0.5605299472808838
1629376472036,0.509457528591156,-0.0195562206208705,0.3067958950996399,0.5714477896690369
1629376472192,0.509457528591156,-0.0407197475433349,0.3504785895347595,0.5872511267662048
1629376472255,0.509457528591156,-0.0427083894610405,0.3628048300743103,0.5917242765426636
1629376472349,0.509457528591156,-0.055248562246561,0.3913222253322601,0.5954622626304626
1629376472411,0.509457528591156,-0.1020192578434944,0.4006135761737823,0.6003947854042053
1629376472505,0.4934448897838592,-0.1128605306148529,0.361096441745758,0.5161012411117554
1629376472708,0.4893325567245483,-0.115472674369812,0.361096441745758,0.4423637986183166
1629376472755,0.4857859313488006,-0.1258442401885986,0.3624249994754791,0.409209668636322
1629376472833,0.467661440372467,-0.126587688922882,0.3719065487384796,0.4085881412029266
1629376472975,0.4282900094985962,-0.1079055145382881,0.3876883685588836,0.4281982481479645
1629376473085,0.3569284975528717,-0.0947020947933197,0.4462876617908478,0.4667663276195526
1629376473133,0.3284600377082824,-0.0572593584656715,0.5185927152633667,0.4597754180431366
1629376473198,0.3263403475284576,0.0026975644286721,0.5843346118927002,0.4594959914684295
1629376473291,0.3329086899757385,0.0499154925346374,0.6102327704429626,0.5114174485206604
1629376473401,0.3340338468551636,0.0859912410378456,0.6216877698898315,0.6376775503158569
1629376473494,0.3340338468551636,0.1249611899256706,0.6250944137573242,0.7386340498924255
1629376473635,0.3343912065029144,0.1383286863565445,0.6174501180648804,0.7570154070854187
1629376473713,0.3343912065029144,0.1383286863565445,0.5914110541343689,0.7577486634254456
1629376473822,0.3343912065029144,0.1383286863565445,0.5697102546691895,0.767390787601471
1629376473901,0.3343912065029144,0.1383286863565445,0.5424525141716003,0.8305635452270508
1629376473994,0.3343912065029144,0.1383286863565445,0.5221081376075745,0.9591004848480223
1629376474119,0.3343912065029144,0.1383286863565445,0.5164656043052673,1.0376704931259155
1629376474198,1.0926063060760498,0.1383286863565445,0.5156136751174927,1.0469930171966553
1629376474260,1.0916508436203003,0.1383286863565445,0.5156136751174927,1.0469930171966553
1629376474385,1.0882806777954102,0.1383286863565445,0.5156136751174927,1.0469930171966553
1629376474541,1.087002158164978,0.1383286863565445,0.5156136751174927,1.0469930171966553
1629376474650,1.087002158164978,0.1383286863565445,0.5156136751174927,1.0469930171966553
1629376474729,1.087002158164978,0.1383286863565445,0.5188271403312683,1.0469930171966553
1629376474807,1.087002158164978,0.1383286863565445,0.5001097321510315,1.0469930171966553
1629376474900,1.087002158164978,0.1383286863565445,0.4285835027694702,1.0469930171966553
1629376475043,1.087002158164978,0.1383286863565445,0.296079009771347,1.0459800958633425
1629376475121,1.087002158164978,0.1383286863565445,0.0590636655688285,1.015826940536499
1629376475200,1.087002158164978,-0.707747220993042,0.0590636655688285,0.966518759727478
1629376475293,1.087002158164978,-0.5936411023139954,0.0638237297534942,0.9384461045265198
1629376475403,1.0932905673980713,-0.4877692461013794,0.0931874215602874,0.920717179775238
1629376475512,1.1052570343017578,-0.3971701562404632,0.1698579639196396,0.9103556275367736
1629376475653,1.1197187900543213,-0.2807270586490631,0.2725725471973419,0.8890553712844849
1629376475762,1.044467806816101,-0.130760371685028,0.3737273812294006,0.7837821245193481
1629376475828,0.9398254156112672,0.0431070961058139,0.4333496689796448,0.6342210173606873
1629376476000,0.7829659581184387,0.158497616648674,0.45806485414505,0.5014024972915649
1629376476078,0.7829659581184387,0.2111285924911499,0.5646432638168335,0.466545432806015
1629376476203,0.7829659581184387,0.2175287455320358,0.7292578220367432,0.5426590442657471
1629376476265,0.7606372237205505,0.2175287455320358,0.8388122320175171,0.6265479326248169
1629376476312,0.7378457188606262,0.2175287455320358,0.8388122320175171,0.6865102052688599
1629376476437,0.7378457188606262,0.2154503166675567,0.8388122320175171,0.7203539609909058
1629376476562,0.7378457188606262,0.2154503166675567,0.8388122320175171,0.740203857421875
1629376476796,0.7442959547042847,0.2154503166675567,0.8388122320175171,0.7797427177429199
1629376476868,0.8048020601272583,0.2160099744796753,0.8388122320175171,0.8354777693748474
1629376476909,0.8787932991981506,0.2213788479566574,0.8388122320175171,0.872759997844696
1629376477003,0.9371142387390136,0.221628800034523,0.8388122320175171,0.8931676149368286
1629376477284,0.9925945401191713,0.2237187922000885,0.8388122320175171,0.9146787524223328
1629376477362,1.07665753364563,0.2241887301206588,0.8388122320175171,0.9644131064414978
1629376477393,1.1445709466934204,0.255208671092987,0.8388122320175171,1.0445303916931152
1629376477549,1.206631422042847,0.2929399311542511,0.8449156880378723,1.1072535514831543
1629376477596,1.2180174589157104,0.3161665499210357,0.8466453552246094,1.112674355506897
1629376477690,1.2180174589157104,0.3469825983047485,0.8513232469558716,1.1112425327301023
1629376477737,1.2180174589157104,0.3538695871829986,0.855394721031189,1.111099123954773
1629376477768,1.2180174589157104,0.3322789072990417,0.6459343433380127,1.111099123954773
1629376477896,1.2180174589157104,0.3227464854717254,0.6459343433380127,1.0965347290039062
1629376477975,1.2180174589157104,0.3280447125434875,0.6459343433380127,1.0803333520889282
1629376478115,1.2180174589157104,0.3280447125434875,0.6279712319374084,1.077014684677124
1629376478240,1.2180174589157104,0.3280447125434875,0.6262480616569519,1.077014684677124
1629376478385,1.2180174589157104,0.3280447125434875,0.6262480616569519,1.077014684677124
1629376478432,1.2180174589157104,0.3280447125434875,0.6262480616569519,1.0768762826919556
1629376478650,1.2180174589157104,0.3280447125434875,0.6262480616569519,1.0755069255828855
1629376478697,1.2180174589157104,0.3293249309062958,0.6262480616569519,1.0658124685287476
1629376478949,1.2089663743972778,0.32426518201828,0.6262480616569519,1.0429236888885498
1629376479091,1.157681226730347,0.3151553869247436,0.6239088177680969,1.0159777402877808
1629376479215,1.067828893661499,0.3023259341716766,0.6187037229537964,0.9842571020126344
1629376479293,0.9100970029830932,0.3003802895545959,0.5902742147445679,0.8723067045211792
1629376479481,0.6770455837249756,0.28475221991539,0.5746742486953735,0.6929950714111328
1629376479559,0.4249811172485351,0.2507437467575073,0.5559978485107422,0.5414919853210449
1629376479684,0.2488104403018951,0.2291009128093719,0.5236838459968567,0.4417774975299835
1629376479751,0.1944189816713333,0.2186873853206634,0.5202581882476807,0.4043912291526794
1629376479921,0.1894198954105377,0.2118971049785614,0.5255049467086792,0.3996876180171966
1629376479999,0.1884673684835434,0.2611146867275238,0.5350126624107361,0.8639938831329346
1629376480077,0.1873739510774612,0.2728072702884674,0.5387070178985596,0.9925952553749084
1629376480202,0.1873739510774612,0.2728072702884674,0.5387070178985596,1.1070809364318848
1629376480311,0.1873739510774612,0.2728072702884674,0.5387070178985596,1.1686738729476929
1629376480405,0.1873739510774612,0.2728072702884674,0.5455631017684937,1.1678590774536133
1629376480436,0.1873739510774612,0.2728072702884674,0.5602564811706543,1.1668684482574463
1629376480467,0.1873739510774612,0.2687539756298065,1.291774034500122,1.1639915704727173
1629376480592,0.1873739510774612,0.2557564377784729,1.291774034500122,1.1634562015533447
1629376480655,0.1873739510774612,0.2473100870847702,1.291774034500122,1.1634562015533447
1629376480813,0.1873739510774612,0.2451744973659515,1.291774034500122,1.1587200164794922
1629376480845,0.1297823786735534,0.2482758313417434,1.291774034500122,1.1587200164794922
1629376480892,0.148763358592987,0.2482758313417434,1.291774034500122,1.1587200164794922
1629376480970,0.1666723936796188,0.2482758313417434,1.291774034500122,1.1587200164794922
1629376481126,0.1791503280401229,0.2482758313417434,1.291774034500122,1.1587200164794922
1629376481188,0.1949859261512756,0.2368120849132537,1.291774034500122,1.1587200164794922
1629376481329,0.2076610922813415,0.1961762905120849,1.291774034500122,1.1587200164794922
1629376481376,0.2347700297832489,0.1127770468592643,1.291774034500122,1.1587200164794922
1629376481454,0.3172538578510284,0.0100530060008168,1.291774034500122,1.1587200164794922
1629376481516,0.3925942778587341,0.0258949622511863,1.291774034500122,1.1587200164794922
1629376481548,0.4105518162250519,0.0581296794116497,1.291774034500122,1.1587200164794922
1629376481610,0.413931280374527,0.0658253505825996,1.291774034500122,0.2487677037715912
1629376481719,0.4152191579341888,0.0730265155434608,0.4470706582069397,0.2876614034175873
1629376481847,0.4225082099437713,0.080388605594635,0.4470706582069397,0.3412110507488251
1629376481956,0.4382964968681335,0.0860002413392067,0.4470706582069397,0.3991965055465698
1629376482019,0.4392435550689697,0.0961745083332061,0.4470706582069397,0.4762178659439087
1629376482097,0.4392435550689697,0.1185406297445297,0.4470706582069397,0.5480346083641052
1629376482222,0.4392435550689697,0.1155076324939727,0.4436065256595611,0.5682933330535889
1629376482347,0.4374809563159942,0.115114651620388,0.4436065256595611,0.5682933330535889
1629376482425,0.4311917424201965,0.1170886754989624,0.4436065256595611,0.5682933330535889
1629376482518,0.4246444702148437,0.1252589225769043,0.4436065256595611,0.576426088809967
1629376482622,0.4234194159507751,0.1516208350658416,0.4436065256595611,0.5767069458961487
1629376482700,0.425696849822998,0.1795635968446731,0.4436065256595611,0.5767069458961487
1629376482810,0.425696849822998,0.1939290314912796,0.4436065256595611,0.5767069458961487
1629376482969,0.4213127493858337,0.1939290314912796,0.442920446395874,0.5767069458961487
1629376483032,0.3828667402267456,0.1939290314912796,0.4093858301639557,0.5852810144424438
1629376483125,0.3305186927318573,0.1783596128225326,0.2547723352909088,0.6084302067756653
1629376483219,0.270698994398117,0.1571841984987259,-0.0271115042269229,0.606451153755188
1629376483391,0.2501575350761413,0.1282450407743454,-0.1459296494722366,0.5926172733306885
1629376483609,0.2773286402225494,0.1013225391507148,-0.1740733236074447,0.6114256978034973
1629376483688,0.5274748802185059,0.0886492654681205,-0.1671225577592849,0.8334213495254517
1629376483719,0.7753565311431885,0.0649351105093956,-0.1392595320940017,1.0526615381240845
1629376483844,0.903063416481018,0.0349238216876983,-0.0581123195588588,1.139496684074402
1629376483891,0.930339515209198,0.0536083243787288,0.0416847914457321,1.1513882875442505
1629376483937,0.9492514729499816,0.1162903532385826,0.0905739516019821,1.1542989015579224
1629376484031,0.9733328223228456,0.2072556614875793,0.0982875898480415,1.1583991050720217
1629376484187,0.97819846868515,0.2383257001638412,0.1035615503787994,1.1601911783218384
1629376484234,0.97819846868515,0.2383257001638412,0.1042421907186508,1.1601911783218384
1629376484313,0.97819846868515,0.2353743612766266,0.1042421907186508,1.1601911783218384
1629376484437,0.9765844345092772,0.2243553549051284,0.1016954481601715,1.1601911783218384
1629376484515,0.9731885194778442,0.2224531024694442,0.0906370058655738,1.1601911783218384
1629376484765,0.9722204804420472,0.220803290605545,0.1349368691444397,1.1601911783218384
1629376484828,0.9722204804420472,0.2326935231685638,0.2135436385869979,1.1601911783218384
1629376484875,0.9722204804420472,0.2642963230609894,0.3582909107208252,1.1601911783218384
1629376485033,0.9722204804420472,0.2969215512275696,0.487468421459198,1.1601911783218384
1629376485111,0.9721713662147522,0.3092908263206482,0.5535714030265808,1.1601911783218384
1629376485299,0.9727584719657898,0.3161120116710663,0.5654752254486084,1.153739333152771
1629376485377,0.958878457546234,0.322880208492279,0.5667843818664551,1.112454891204834
1629376485424,0.8692068457603455,0.322880208492279,0.5667843818664551,0.999631404876709
1629376485518,0.7392720580101013,0.3197573125362396,0.5626454949378967,0.8352928161621094
1629376485564,0.6330805420875549,0.3084118962287903,0.5512928366661072,0.6698394417762756
1629376485627,0.5431232452392578,0.2898861765861511,0.5475749373435974,0.566974401473999
1629376485721,0.5149716734886169,0.2648781538009643,0.5475749373435974,0.5465871691703796
1629376485830,0.552151620388031,0.2648781538009643,0.5475749373435974,0.5359695553779602
1629376486036,0.5720961093902588,0.2648781538009643,0.5475749373435974,0.5257472395896912
1629376486146,0.5822156071662903,0.2648781538009643,0.5475749373435974,0.5269281268119812
1629376486208,0.58427894115448,0.2667852938175201,0.5475749373435974,0.5334120392799377
1629376486302,0.6084372997283936,0.2764965891838074,0.5475749373435974,0.5340221524238586
1629376486458,0.653782844543457,0.2902583181858063,0.5475749373435974,0.5065489411354065
1629376486520,0.6645535826683044,0.293185144662857,0.5475749373435974,0.4541869461536407
1629376486598,0.647869884967804,0.2448532432317733,0.530196487903595,0.4250031113624573
1629376486723,0.6384558081626892,0.2867635488510132,0.5134459137916565,0.4262385666370392
1629376486755,0.6423419713973999,0.3771487176418304,0.4759692251682281,0.4360145032405853
1629376486864,0.6511752009391785,0.4071041047573089,0.4680833518505096,0.4407972991466522
1629376486973,0.6592452526092529,0.407486230134964,0.4657206535339355,0.4527309536933899
1629376487167,0.6723673343658447,0.4141039848327636,0.4867574572563171,0.4607149958610534
1629376487245,0.6948816180229187,0.4262689054012298,0.5150318145751953,0.4607149958610534
1629376487323,0.7130382061004639,0.4380317032337188,0.5318620800971985,0.4607149958610534
1629376487495,0.7083555459976196,0.4424428939819336,0.5330573916435242,0.4607149958610534
1629376487557,0.7268742322921753,0.4424428939819336,0.5330573916435242,0.4642851054668426
1629376487588,0.7507539391517639,0.4424428939819336,0.5336138606071472,0.4551490843296051
1629376487651,0.75312739610672,0.4424428939819336,0.5366830229759216,0.451892077922821
1629376487838,0.75312739610672,0.4424428939819336,0.5394348502159119,0.4366909563541412
1629376488010,0.7495060563087463,0.4424428939819336,0.5482320785522461,0.4374850392341614
1629376488139,0.7185596823692322,0.4311011135578155,0.5571887493133545,0.4596599638462066
1629376488202,0.690785825252533,0.4076738953590393,0.572577953338623,0.4620984494686126
1629376488264,0.6902546286582947,0.3912597298622131,0.5891859531402588,0.4594181776046753
1629376488371,0.6921130418777466,0.3970893323421478,0.5688868165016174,0.4459875226020813
1629376488527,0.6921130418777466,0.3699887990951538,0.5312424302101135,0.419856995344162
1629376488605,0.6921130418777466,0.3159826099872589,0.5263943076133728,0.4189479947090149
1629376488684,0.6921130418777466,0.3101793229579925,0.5263943076133728,0.4198432266712188
1629376488762,0.6921130418777466,0.3073312938213348,0.5263943076133728,0.430823266506195
1629376488824,0.6748835444450378,0.3119035065174103,0.5784698724746704,0.4300660490989685
1629376488903,0.6428631544113159,0.3088952004909515,0.6585304737091064,0.4928503930568695
1629376489077,0.6100091338157654,0.2847933769226074,0.7395864725112915,0.5427259802818298
1629376489233,0.5858662128448486,0.2541496753692627,0.7395864725112915,0.6005622744560242
1629376489295,0.532912015914917,0.2316639423370361,0.7395864725112915,0.672517716884613
1629376489405,0.5105982422828674,0.2168263494968414,0.7395864725112915,0.7057628035545349
1629376489498,0.5035202503204346,0.1976289451122284,0.7395864725112915,0.7183287739753723
1629376489530,0.5405834913253784,0.1808017343282699,0.7395864725112915,0.7246906161308289
1629376489670,0.5482137799263,0.1926955133676529,0.7395864725112915,0.7246906161308289
1629376489842,0.5416315197944641,0.1966628581285476,0.7395864725112915,0.7244704961776733
1629376489923,0.5222081542015076,0.1863011717796325,0.7390578389167786,0.7244704961776733
1629376489970,0.5073015093803406,0.1826123148202896,0.7311728596687317,0.7335910797119141
1629376490095,0.4926556050777435,0.1771100312471389,0.7306203842163086,0.7589474320411682
1629376490330,0.4903104901313782,0.1649008840322494,0.7306203842163086,0.7650027871131897
1629376490408,0.4903104901313782,0.1403692215681076,0.7306203842163086,0.7732296586036682
1629376490454,0.4903104901313782,0.1219206228852272,0.7306203842163086,0.7759530544281006
1629376490548,0.4662732183933258,0.1110623702406883,0.7306203842163086,0.7700554728507996
1629376490673,0.5180732011795044,0.0935787931084632,0.7306203842163086,0.7631927132606506
1629376490720,0.5297437310218811,0.0956996828317642,0.7306203842163086,0.7614814043045044
1629376490879,0.5297437310218811,0.098190814256668,0.1427476406097412,0.757864773273468
1629376490942,0.5241835117340088,0.1024461612105369,0.1663951128721237,0.7306119799613953
1629376491084,0.5113382935523987,0.1029330790042877,0.1881385445594787,0.7274523377418518
1629376491178,0.5515034198760986,0.0685740336775779,0.2281300127506256,0.7240667939186096
1629376491224,0.6175575852394104,-0.0235978793352842,0.2619536817073822,0.7233757972717285
1629376491584,0.6419638991355896,-0.0594565719366073,0.2718494534492492,0.7285540103912354
1629376491662,0.668491780757904,-0.0652850717306137,0.2718494534492492,0.7285540103912354
1629376491709,0.6724724769592285,-0.0562307238578796,0.2718494534492492,0.7285540103912354
1629376491740,0.6724724769592285,0.0284211635589599,0.2718494534492492,0.7177921533584595
1629376491834,0.6724724769592285,0.0827928185462951,0.2718494534492492,0.685367226600647
1629376491961,0.6724724769592285,0.1112887114286422,0.2718494534492492,0.6461911797523499
1629376492070,0.6724724769592285,0.1217414289712905,0.274986207485199,0.5939088463783264
1629376492133,0.6700922250747681,0.1330709904432296,0.2721411883831024,0.5906396508216858
1629376492226,0.6423348188400269,0.1808357238769531,0.2913081347942352,0.5943170785903931
1629376492320,0.593144953250885,0.2184169739484787,0.2913081347942352,0.5943170785903931
1629376492367,0.5865923762321472,0.2297176271677017,0.2913081347942352,0.5943170785903931
1629376492539,0.5855013132095337,0.232990100979805,0.2913081347942352,0.5798814296722412
1629376492586,0.5855013132095337,0.225349873304367,0.2913081347942352,0.5237702131271362
1629376492617,0.5855013132095337,0.2216400951147079,0.2916459143161773,0.4411139488220215
1629376492758,0.5855013132095337,0.2194445580244064,0.3058139681816101,0.4092878103256225
1629376492804,0.5495982766151428,0.2163795232772827,0.2932308614253998,0.4027782678604126
1629376492898,0.4759629070758819,0.211731731891632,0.30501788854599,0.3969485759735107
1629376492976,0.4153084754943847,0.1921802759170532,0.3286529779434204,0.3780145347118377
1629376493132,0.4296300113201141,0.1862956434488296,0.3505567908287048,0.3402898609638214
1629376493148,0.4635935425758362,0.1862956434488296,0.3662164509296417,0.3319737911224365
1629376493320,0.4736411869525909,0.1815604269504547,0.3662164509296417,0.3334692716598511
1629376493398,0.4761040210723877,0.1554527133703231,0.3661080002784729,0.348921537399292
1629376493507,0.4790120124816894,0.1114051342010498,0.3491963148117065,0.3674057424068451
1629376493554,0.4913839995861053,0.100650854408741,0.3386375606060028,0.3742058277130127
1629376493679,0.5418660044670105,0.1086586788296699,0.3360152840614319,0.3798136115074157
1629376493775,0.6271628737449646,0.1003391370177269,0.3631202280521393,0.4188793897628784
1629376493885,0.761168360710144,0.109606072306633,0.4362167119979858,0.4722867906093597
1629376493963,0.8321415781974792,0.1765669882297516,0.4974880814552307,0.5216979384422302
1629376494088,0.8618488907814026,0.2409926652908325,0.5254709124565125,0.5540637373924255
1629376494166,0.8661792278289795,0.2616746127605438,0.566419780254364,0.5699800848960876
1629376494323,0.8661792278289795,0.2612580955028534,0.5705761313438416,0.596976637840271
1629376494400,0.8791243433952332,0.2609547972679138,0.5705761313438416,0.6023531556129456
1629376494557,0.8895430564880371,0.2609547972679138,0.5705761313438416,0.6019099354743958
1629376494650,0.8950973153114319,0.2609547972679138,0.5655582547187805,0.6766398549079895
1629376494697,0.9028406739234924,0.2609547972679138,0.5595175623893738,0.7714917659759521
1629376494775,0.9260586500167848,0.2609547972679138,0.5595175623893738,0.8120929598808289
1629376494916,0.9548417329788208,0.2609547972679138,0.5595175623893738,0.8120929598808289
1629376494978,0.9517709612846376,0.2609547972679138,0.5595175623893738,0.8120929598808289
1629376495135,0.949449896812439,0.2609547972679138,0.5595175623893738,0.8120929598808289
1629376495197,0.9479155540466307,0.2609547972679138,0.5595175623893738,0.8120929598808289
1629376495369,0.9642623662948608,0.2609547972679138,0.5595175623893738,0.8139790296554565
1629376495431,0.9857115149497986,0.2609547972679138,0.5595175623893738,0.8248248100280762
1629376495572,0.9909769296646118,0.2269816100597381,0.5238209962844849,0.843392550945282
1629376495681,0.9809653759002686,0.1751216948032379,0.4324966371059418,0.8457707762718201
1629376495762,0.9618263244628906,0.1319161653518676,0.3879182040691376,0.8457707762718201
1629376495856,0.9478819370269777,0.1135072037577629,0.3046465218067169,0.845729410648346
1629376495934,0.9478819370269777,0.1226255446672439,0.2137010842561721,0.842393696308136
1629376496043,0.95048987865448,0.1722054779529571,0.229896143078804,0.842393696308136
1629376496106,0.9677706956863404,0.2485133111476898,0.2721773684024811,0.842393696308136
1629376496262,0.98122900724411,0.2904514074325561,0.366534024477005,0.842393696308136
1629376496372,0.9626638889312744,0.2961510419845581,0.4009336829185486,0.7990391850471497
1629376496418,0.9050753712654114,0.2962948083877563,0.4009336829185486,0.6874978542327881
1629376496622,0.8209097385406494,0.2962948083877563,0.4009336829185486,0.5785204172134399
1629376496637,0.8131040930747986,0.2962948083877563,0.4009018838405609,0.5640586614608765
1629376496715,0.8131040930747986,0.2962948083877563,0.3927518129348755,0.5747275948524475
1629376496797,0.8151683807373047,0.3112625777721405,0.4027915894985199,0.6186897158622742
1629376496999,0.8218147158622742,0.3219248056411743,0.4289989769458771,0.6725786924362183
1629376497142,0.8056437373161316,0.3159877061843872,0.4464410841464996,0.6787059307098389
1629376497224,0.8017441630363464,0.3043934106826782,0.4464410841464996,0.6596847772598267
1629376497280,0.799995481967926,0.2966195344924927,0.4464410841464996,0.6346719264984131
1629376497314,0.7859388589859009,0.2956235110759735,0.4464410841464996,0.6283326148986816
1629376497445,0.7859388589859009,0.2956235110759735,0.4455772340297699,0.63642817735672
1629376497601,0.7859388589859009,0.2956235110759735,0.4440673291683197,0.646565318107605
1629376497691,0.7708117961883545,0.2956235110759735,0.4440673291683197,0.6483677625656128
1629376497794,0.6998006105422974,0.2785733938217163,0.4299232065677643,0.6552810072898865
1629376497877,0.6394774317741394,0.234777569770813,0.374533474445343,0.6625011563301086
1629376497959,0.6391529440879822,0.1829720139503479,0.2793475389480591,0.6691662073135376
1629376498032,0.6684339046478271,0.1078707128763198,0.2368931919336319,0.6708666682243347
1629376498197,0.7042378783226013,0.0747720748186111,0.2271086722612381,0.6654826402664185
1629376498327,0.7729987502098083,0.0391957536339759,0.2267039567232132,0.6641466617584229
1629376498424,0.8343692421913147,0.0129416156560182,0.2231228351593017,0.6594626903533936
1629376498529,0.8428165912628174,-0.014844718389213,0.2224376052618026,0.638590931892395
1629376498567,0.8379170298576355,-0.0745338499546051,0.1925052106380462,0.5766211152076721
1629376498714,0.8208848237991333,-0.1381263434886932,0.0814554244279861,0.4845035374164581
1629376498795,0.802606999874115,-0.1643847674131393,0.0362091809511184,0.473141461610794
1629376498881,0.7847431898117065,-0.1618291735649109,0.0444555208086967,0.5153884291648865
1629376499005,0.7707193493843079,-0.1618291735649109,0.0619629882276058,0.547938346862793
1629376499126,0.7747963666915894,-0.1618291735649109,0.0662403404712677,0.5903545022010803
1629376499194,0.7826670408248901,-0.1613896787166595,0.0572365447878837,0.6270678043365479
1629376499245,0.7844716310501099,-0.1613896787166595,0.0587164312601089,0.6331442594528198
1629376499444,0.8014262914657593,-0.1613896787166595,0.0815284252166748,0.6339377164840698
1629376499528,0.8194728493690491,-0.1613896787166595,0.1076739728450775,0.7038679718971252
1629376499653,0.8327974677085876,-0.1623503118753433,0.1151702105998992,0.8388546109199524
1629376499737,0.8366259336471558,-0.1372898370027542,0.1151702105998992,0.99357271194458
1629376499785,0.8447720408439636,-0.107450932264328,0.1151702105998992,1.0830293893814087
1629376499914,0.8639045357704163,-0.0545311719179153,0.1151702105998992,1.1191883087158203
1629376500014,0.8382482528686523,-0.0299525298178195,0.1151702105998992,1.1191883087158203
1629376500111,0.8291792869567871,-0.0299525298178195,0.1136464327573776,1.1196414232254028
1629376500237,0.8113037347793579,-0.0299525298178195,0.1042576059699058,1.1203014850616455
1629376500325,0.8101676106452942,-0.0447925515472888,0.0746332108974456,1.1203014850616455
1629376500384,0.8101676106452942,-0.0536663196980953,0.0650210976600647,1.1203014850616455
1629376500509,0.8091502785682678,-0.0592666305601596,0.0756382271647453,1.1206260919570925
1629376500634,0.7998505234718323,-0.0588986910879612,0.0618582516908645,1.1211587190628052
1629376500687,0.809686541557312,-0.0580980479717254,0.0303969234228134,1.1211587190628052
1629376500838,0.8163310289382935,-0.0621499679982662,0.0124624473974108,1.112085461616516
1629376500905,0.8134960532188416,-0.074930302798748,0.0102717326954007,1.098850965499878
1629376500995,0.8124352693557739,-0.0673430934548378,0.0012067429488524,1.098850965499878
1629376501097,0.8156911730766296,-0.0401651710271835,-0.0141258323565125,1.0956844091415403
1629376501200,0.8198971152305603,-0.029601976275444,-0.0197265930473804,1.0899291038513184
1629376501331,0.8264003992080688,-0.0319799445569515,0.0547739751636981,1.0850038528442385
1629376501415,0.8374167084693909,-0.0412342622876167,0.1090631559491157,1.076027274131775
1629376501527,0.8360865712165833,-0.0572218373417854,0.1302591562271118,1.040513515472412
1629376501610,0.8290290832519531,-0.0747833549976348,0.1427833884954452,0.993406355381012
1629376501742,0.7827522158622742,-0.0500953644514083,0.1975816190242767,0.9452201724052428
1629376501885,0.7306787967681885,-0.0206759311258792,0.2573602795600891,0.9044944643974304
1629376501966,0.7294204235076904,-0.0199909005314111,0.2775498628616333,0.880190908908844
1629376502024,0.7334701418876648,-0.0199909005314111,0.277012825012207,0.8878469467163086
1629376502121,0.7334701418876648,-0.0199909005314111,0.2742225527763366,0.8943618535995483
1629376502222,0.7334701418876648,-0.0199909005314111,0.2805618941783905,0.8936593532562256
1629376502343,0.7334701418876648,-0.0199909005314111,0.2893615961074829,0.8971737623214722
1629376502450,0.7334701418876648,-0.0057331509888172,0.2893615961074829,0.9044915437698364
1629376502531,0.7334701418876648,0.0201626699417829,0.2893615961074829,0.9092706441879272
1629376502745,0.7271934747695923,0.0735069140791893,0.2893615961074829,0.925900399684906
1629376502853,0.6898120641708374,0.084376037120819,0.2893615961074829,0.985870122909546
1629376502919,0.6348921656608582,0.0767362415790557,0.2893615961074829,1.0288277864456177
1629376502960,0.5897437334060669,0.0563981272280216,0.3202701210975647,1.0288277864456177
1629376503054,0.5514294505119324,0.041126262396574,0.356267362833023,1.0288277864456177
1629376503151,0.5394319295883179,0.041126262396574,0.3389036357402801,1.0287944078445437
1629376503253,0.5306174755096436,0.0405268184840679,0.325529396533966,1.0283830165863037
1629376503349,0.5257135629653931,0.3785028457641601,0.3160565197467804,1.026898980140686
1629376503545,0.5058327317237854,0.4232395887374878,0.293805867433548,1.022996425628662
1629376503633,0.4612331688404083,0.4232395887374878,0.2614623010158539,1.0163177251815796
1629376503712,0.4186772406101227,0.4232395887374878,0.2282433658838272,1.003320336341858
1629376503837,0.4147735834121704,0.4241770207881927,0.2223569899797439,0.9983548521995544
1629376503886,0.4140871167182922,0.4244134724140167,0.2205974757671356,0.9946248531341552
1629376503928,0.4140871167182922,0.4233630895614624,0.2100679725408554,0.9675459265708924
1629376504094,0.4140871167182922,0.4194934070110321,0.1894993931055069,0.9675459265708924
1629376504182,0.4140871167182922,0.4166041314601898,0.148283377289772,0.9675459265708924
1629376504332,0.4140871167182922,0.4146406650543213,0.148283377289772,0.9675459265708924
1629376504407,0.4140871167182922,0.4136590957641601,0.148283377289772,0.9675459265708924
1629376504438,0.4140871167182922,0.4116311967372894,0.148283377289772,0.6659644842147827
1629376504571,0.4140871167182922,0.4116311967372894,0.148283377289772,0.6776024103164673
1629376504631,0.4140871167182922,0.4116311967372894,0.148283377289772,0.6776024103164673
1629376504802,0.4140871167182922,0.4116311967372894,0.148283377289772,0.6776024103164673
1629376504974,0.4140871167182922,0.4053981304168701,0.148283377289772,0.6776024103164673
1629376505052,0.4140871167182922,0.3561656773090362,0.148283377289772,0.6776024103164673
1629376505187,0.4140871167182922,0.2224394828081131,0.148283377289772,0.6776024103164673
1629376505254,0.4140871167182922,0.029655797407031,0.148283377289772,0.6776024103164673
1629376505302,0.4140871167182922,-0.0800126269459724,0.148283377289772,0.6776024103164673
1629376505363,0.4140871167182922,-0.2206728011369705,0.148283377289772,0.6776024103164673
1629376505478,0.4140871167182922,-0.2441693693399429,0.148283377289772,0.6776024103164673
1629376505590,0.4140871167182922,-0.2541606426239013,0.148283377289772,0.6776024103164673
1629376505741,0.4140871167182922,-0.2641618251800537,0.148283377289772,0.6026102304458618
1629376505785,0.4140871167182922,-0.2641618251800537,0.148283377289772,0.6026102304458618
1629376505903,0.4140871167182922,-0.2641618251800537,0.148283377289772,0.6026102304458618
1629376506040,0.4140871167182922,-0.2641618251800537,0.148283377289772,0.6026102304458618
1629376506106,0.4140871167182922,-0.2641618251800537,0.148283377289772,0.6026102304458618
1629376506295,0.4140871167182922,-0.2641618251800537,0.148283377289772,0.6026102304458618
1629376506333,0.4140871167182922,-0.2641618251800537,0.148283377289772,0.6026102304458618
1629376506383,0.4140871167182922,-0.2641618251800537,0.148283377289772,0.6026102304458618
1629376506503,0.4140871167182922,-0.2641618251800537,0.148283377289772,0.6026102304458618
1629376506569,0.4140871167182922,-0.2641618251800537,-0.1669626086950302,0.6026102304458618
1629376506685,0.4140871167182922,-0.2641618251800537,0.068446047604084,0.6026102304458618
1629376506863,0.4140871167182922,-0.2641618251800537,0.1797223687171936,0.6026102304458618
1629376506929,0.4140871167182922,-0.2641618251800537,0.2109278440475464,0.6026102304458618
1629376507002,0.4140871167182922,-0.2641618251800537,0.2162207663059234,0.6026102304458618
1629376507161,0.4140871167182922,-0.2641618251800537,0.2256365865468979,0.6026102304458618
1629376507204,0.4140871167182922,-0.2641618251800537,0.238551452755928,0.6026102304458618
1629376507424,0.4140871167182922,-0.2641618251800537,0.2681769728660583,0.6026102304458618
1629376507499,0.4140871167182922,-0.2641618251800537,0.3235650360584259,0.6026102304458618
1629376507545,0.4140871167182922,-0.2641618251800537,0.5050873160362244,0.6026102304458618
1629376507687,0.4140871167182922,-0.2641618251800537,0.7117615938186646,0.6026102304458618
1629376507800,0.4140871167182922,-0.2641618251800537,0.7915538549423218,0.6026102304458618
1629376507956,0.4140871167182922,-0.2641618251800537,0.7965290546417236,0.6026102304458618
1629376508054,0.4140871167182922,-0.2641618251800537,0.7965290546417236,0.6026102304458618
1629376508116,0.4140871167182922,0.3218948543071747,0.7965290546417236,0.6026102304458618
1629376508210,0.4140871167182922,0.3218948543071747,0.7965290546417236,0.6026102304458618
1629376508257,0.4140871167182922,0.3218948543071747,0.7965290546417236,0.6026102304458618
1629376508324,0.4140871167182922,0.3218948543071747,0.7965290546417236,0.6026102304458618
1629376508417,0.4140871167182922,0.3218948543071747,0.7965290546417236,0.6026102304458618
1629376508651,0.4140871167182922,0.3218948543071747,0.7965290546417236,0.6026102304458618
1629376508714,0.4140871167182922,0.3218948543071747,0.7965290546417236,0.6026102304458618
1629376508761,0.4140871167182922,0.3218948543071747,0.7965290546417236,0.6026102304458618
1629376508886,0.4140871167182922,0.3218948543071747,0.7965290546417236,0.6026102304458618
1629376509026,0.4140871167182922,0.3218948543071747,0.7965290546417236,0.6026102304458618
1629376509089,0.4140871167182922,0.3218948543071747,0.7965290546417236,0.6026102304458618
1629376509183,0.4140871167182922,0.2990458309650421,0.7951982021331787,0.6026102304458618
1629376509370,0.4140871167182922,0.193715751171112,0.7268590927124023,0.6026102304458618
1629376509464,0.4140871167182922,0.193715751171112,0.7268590927124023,0.6026102304458618
1629376509495,0.4140871167182922,0.193715751171112,0.7268590927124023,0.6026102304458618
1629376509604,0.4140871167182922,0.193715751171112,0.7268590927124023,0.6026102304458618
1629376509636,0.4140871167182922,0.193715751171112,0.7268590927124023,0.6026102304458618
1629376509761,0.4140871167182922,0.193715751171112,0.7268590927124023,0.6026102304458618
1629376509858,0.4140871167182922,0.193715751171112,0.7268590927124023,0.6026102304458618
1629376509983,0.4140871167182922,0.193715751171112,0.7268590927124023,0.6026102304458618
1629376510077,0.4140871167182922,0.193715751171112,0.7268590927124023,0.6026102304458618
1629376510233,0.4140871167182922,0.193715751171112,0.7268590927124023,0.6026102304458618
1629376510280,0.4140871167182922,0.193715751171112,0.7268590927124023,0.6026102304458618
1629376510372,0.4140871167182922,0.193715751171112,0.7268590927124023,0.6026102304458618
1629376510419,0.4140871167182922,0.193715751171112,0.7268590927124023,0.6026102304458618
1629376510622,0.9227904677391052,0.193715751171112,0.7268590927124023,0.6026102304458618
1629376510669,1.0385842323303225,0.193715751171112,0.7268590927124023,0.6026102304458618
1629376510732,1.0385842323303225,0.193715751171112,-0.1078239977359771,0.6026102304458618
1629376510875,1.0385842323303225,0.193715751171112,-0.1078239977359771,0.6026102304458618
1629376511063,1.0385842323303225,0.193715751171112,-0.1053814888000488,0.6026102304458618
1629376511157,1.0385842323303225,0.193715751171112,-0.084005519747734,0.6026102304458618
1629376511188,1.0385842323303225,0.193715751171112,-0.0607259571552276,0.6026102304458618
1629376511282,1.0385842323303225,0.193715751171112,-0.0559859238564968,0.6026102304458618
1629376511453,1.0385842323303225,0.193715751171112,-0.04712800309062,0.6026102304458618
1629376511516,1.0385842323303225,0.193715751171112,-0.038698311895132,0.6026102304458618
1629376511594,1.0385842323303225,0.193715751171112,-0.0267660692334175,0.6026102304458618
1629376511641,1.0385842323303225,0.193715751171112,-0.0050167529843747,0.6026102304458618
1629376511766,0.9852475523948668,-0.1136659011244773,0.0527224354445934,0.6026102304458618
1629376511847,0.9655135273933412,-0.1136659011244773,0.1157399117946624,0.9237642884254456
1629376512003,0.9655135273933412,-0.1131771430373191,0.1423006951808929,0.9237642884254456
1629376512128,0.9655135273933412,-0.1006593480706214,0.1283804774284362,0.9237642884254456
1629376512222,0.9655135273933412,-0.0171632599085569,0.1141630262136459,0.9237642884254456
1629376512300,0.4067359864711761,0.0314439684152603,0.1148517504334449,0.9237642884254456
1629376512378,0.417884349822998,0.034397292882204,0.1179708987474441,0.9237642884254456
1629376512456,0.4328446686267853,0.045138381421566,0.1646860390901565,0.9237642884254456
1629376512628,0.4341797530651092,0.0532720834016799,0.2159415036439895,0.9237642884254456
1629376512706,0.4421960115432739,0.0560468211770057,0.2477701902389526,0.9237642884254456
1629376512911,0.488594114780426,0.0568804629147052,0.2588330209255218,0.937690496444702
1629376512958,0.5231237411499023,0.0568804629147052,0.2588330209255218,0.9485719203948976
1629376513020,0.4178474843502044,0.039102204144001,0.2588330209255218,0.952137053012848
1629376513098,0.4208555817604065,-0.0098541360348463,0.2588330209255218,0.9361708164215088
1629376513192,0.4295048713684082,-0.0465029180049896,0.2588330209255218,0.8962079882621765
1629376513286,0.4673304855823517,-0.0633303746581077,0.2588330209255218,0.8155936002731323
1629376513395,0.5624040365219116,-0.0716654285788536,0.2588330209255218,0.7710225582122803
1629376513551,0.5624040365219116,-0.0680009350180625,0.2530431449413299,0.7710225582122803
1629376513708,0.5624040365219116,-0.0662120729684829,0.2490986883640289,0.7710225582122803
1629376513786,0.5602338314056396,-0.0681331604719162,0.2828485071659088,0.7710225582122803
1629376513914,0.5527658462524414,-0.0818488523364067,0.3023043870925903,0.7710225582122803
1629376513992,0.5434125661849976,0.0547527410089969,0.3269168138504028,0.8734643459320068
1629376514038,0.5434064865112305,0.398030161857605,0.3269168138504028,0.8734643459320068
1629376514101,0.5411571860313416,0.7373422384262085,0.3261971473693847,0.8734643459320068
1629376514242,0.5411571860313416,0.9445459842681884,0.3122090101242065,0.8734643459320068
1629376514288,0.5411571860313416,0.9445459842681884,0.3090920448303222,0.8732907176017761
1629376514492,0.5397469401359558,0.9445459842681884,0.3090920448303222,0.8732907176017761
1629376514554,0.4847863316535949,0.9445459842681884,0.3090920448303222,0.8732907176017761
1629376514637,0.4847863316535949,0.9445459842681884,0.3090920448303222,0.8732907176017761
1629376514699,0.4847863316535949,0.9445459842681884,0.3090920448303222,0.8732907176017761
1629376514840,0.4847863316535949,0.9445459842681884,0.3090920448303222,0.8732907176017761
1629376514887,0.4847863316535949,0.9445459842681884,0.6175265908241272,0.8732907176017761
1629376514999,0.4847863316535949,0.9445459842681884,0.6236709952354431,0.8732907176017761
1629376515124,0.4847863316535949,0.943845808506012,0.6236709952354431,0.8732907176017761
1629376515265,0.4847863316535949,0.9437240362167358,0.6207939386367798,0.8732907176017761
1629376515327,0.4847863316535949,0.9437240362167358,0.6104995012283325,0.8732907176017761
1629376515422,0.4847863316535949,0.9437240362167358,0.5928250551223755,0.8732907176017761
1629376515546,0.4847863316535949,0.9437240362167358,0.5940778255462646,0.8732907176017761
1629376515624,0.4847863316535949,0.9437240362167358,0.5989747643470764,0.8732907176017761
1629376515734,0.4847863316535949,0.9437240362167358,0.6009570360183716,0.8732907176017761
1629376515874,0.4847863316535949,0.9437240362167358,0.6012274622917175,0.8732907176017761
1629376515937,0.4847863316535949,0.9437240362167358,0.6012274622917175,0.8732907176017761
1629376516080,0.2620653212070465,-0.0499508194625377,0.6012274622917175,0.8732907176017761
1629376516174,0.2620653212070465,-0.0447648279368877,0.6012274622917175,0.8732907176017761
1629376516220,0.2620653212070465,-0.0226524751633405,0.6012274622917175,0.8732907176017761
1629376516330,0.2620653212070465,0.0053666527383029,0.6012274622917175,0.8732907176017761
1629376516423,0.2620653212070465,0.0506152994930744,0.5559970736503601,0.448533833026886
1629376516626,0.2620653212070465,0.0651599541306495,0.4780079424381256,0.4815839827060699
1629376516816,0.2620653212070465,0.0763256922364234,0.4451812505722046,0.4891284108161926
1629376516863,0.4898613095283508,0.1046868860721588,0.4451812505722046,0.4904778003692627
1629376516925,0.5034445524215698,0.1111805811524391,0.4451812505722046,0.5006460547447205
1629376516988,0.5273199081420898,0.1111805811524391,0.4451812505722046,0.5256485342979431
1629376517066,0.5565340518951416,0.1111805811524391,0.4451812505722046,0.536937415599823
1629376517159,0.5891475677490234,0.1157422140240669,0.4451812505722046,0.536937415599823
1629376517238,0.6067790389060974,0.1292774826288223,0.4436521828174591,0.536937415599823
1629376517363,0.6396710872650146,0.1292774826288223,0.4391140639781952,0.536937415599823
1629376517456,0.6423683762550354,0.1231703981757164,0.4537726640701294,0.5043005347251892
1629376517628,0.6423683762550354,0.1187948957085609,0.5036768317222595,0.5043005347251892
1629376517706,0.6423683762550354,0.1187948957085609,0.5949487686157227,0.5043005347251892
1629376517777,0.6423683762550354,0.1181916147470474,0.6339969038963318,0.5126874446868896
1629376517980,0.6538209319114685,0.111902579665184,0.6451326012611389,0.5363854169845581
1629376518042,0.6644062995910645,0.1136385947465896,0.6451326012611389,0.55490642786026
1629376518089,0.6645007133483887,0.1074699237942695,0.6451326012611389,0.5477827191352844
1629376518183,0.675055205821991,0.098054751753807,0.6451326012611389,0.5190024971961975
1629376518323,0.6756744980812073,0.089978888630867,0.6451326012611389,0.5192767381668091
1629376518433,0.6731034517288208,0.1614382266998291,0.6668984889984131,0.5675534009933472
1629376518573,0.6731034517288208,0.19357430934906,0.6704803109169006,0.605800449848175
1629376518620,0.6649397015571594,0.2048068195581436,0.6712747812271118,0.6075999140739441
1629376518683,0.6550202369689941,0.2139617949724197,0.6712747812271118,0.6119663119316101
1629376518761,0.6550202369689941,0.212613046169281,0.6712747812271118,0.6119663119316101
1629376518873,0.6485524773597717,0.2094879746437072,0.6712747812271118,0.6119663119316101
1629376519013,0.5996272563934326,0.2068358808755874,0.6712747812271118,0.6119663119316101
1629376519091,0.5527005195617676,0.2072812765836715,0.6712747812271118,0.6090970635414124
1629376519154,0.5527005195617676,0.2109749466180801,0.6533601880073547,0.6089173555374146
1629376519279,0.5527005195617676,0.2116867750883102,0.6182822585105896,0.6089173555374146
1629376519388,0.5527005195617676,0.2163301259279251,0.6135569214820862,0.7479760050773621
1629376519576,0.5432194471359253,0.2240253239870071,0.6135569214820862,0.7479898929595947
1629376519654,0.5347726345062256,0.2238244116306305,0.6159984469413757,0.7424882054328918
1629376519685,0.5405659675598145,0.2297265529632568,0.6159984469413757,0.7366931438446045
1629376519891,0.5100247263908386,0.2399390041828155,0.6159984469413757,0.7258135676383972
1629376519954,0.4849877953529358,0.226590871810913,0.5966616868972778,0.7249994874000549
1629376519985,0.5004039406776428,0.1736061125993728,0.5570598244667053,0.7219599485397339
1629376520110,0.530537486076355,0.1412212550640106,0.4988826811313629,0.7221264243125916
1629376520219,0.564955472946167,0.1407669633626938,0.4560003578662872,0.7272660732269287
1629376520298,0.5833553075790405,0.1512831300497055,0.433247834444046,0.7458710074424744
1629376520376,0.5834442973136902,0.1437939703464508,0.4115082621574402,0.7918383479118347
1629376520563,0.5848968625068665,0.1458676159381866,0.4123071730136871,0.894310712814331
1629376520641,0.5861147046089172,0.1480589658021927,0.4171351492404938,0.9689571261405944
1629376520766,0.5861147046089172,0.1480589658021927,0.4277814626693725,0.9821622967720032
1629376520813,0.5861147046089172,0.1458823978900909,0.4353033304214477,0.9821622967720032
1629376520957,0.5861147046089172,0.1450627446174621,0.4429765939712524,0.9560913443565368
1629376521004,0.5861147046089172,0.1450627446174621,0.459315687417984,0.918053150177002
1629376521113,0.5861147046089172,0.1450627446174621,0.4865051507949829,0.8843210935592651
1629376521254,0.5861147046089172,0.1667326837778091,0.6023750901222229,0.880470871925354
1629376521317,0.5850000381469727,0.168758675456047,0.7368858456611633,0.880470871925354
1629376521410,0.5890240669250488,0.1594892889261245,0.7964744567871094,0.880470871925354
1629376521504,0.5868760347366333,0.1348308324813842,0.7991673350334167,0.880470871925354
1629376521645,0.560085654258728,0.1243985891342163,0.7991673350334167,0.8794329166412354
1629376521738,0.5111441016197205,0.1243985891342163,0.7991673350334167,0.8794329166412354
1629376521816,0.4863060414791107,0.1243985891342163,0.7991673350334167,0.8794329166412354
1629376521944,0.4555666744709015,0.0896497517824173,0.7991673350334167,0.8794329166412354
1629376522022,0.4277824759483337,0.0456972680985927,0.7991673350334167,0.8794329166412354
1629376522178,0.3876288831233978,0.0280294064432382,0.7991673350334167,0.8622660040855408
1629376522225,0.3175104558467865,0.0211059562861919,0.7991673350334167,0.76002436876297
1629376522381,0.2523446083068847,0.017858350649476,0.7991673350334167,0.5912101864814758
1629376522444,0.2166925370693206,0.0108588682487607,0.7991673350334167,0.4474091529846191
1629376522553,0.204383984208107,0.0108588682487607,0.7991673350334167,0.4097634851932525
1629376522647,0.2004105895757675,0.0108588682487607,0.7991673350334167,0.3808608949184418
1629376522758,0.765958845615387,0.0108588682487607,0.7991673350334167,0.4907923936843872
1629376522898,0.8538349866867065,0.0108588682487607,0.7809457182884216,0.4763138592243194
1629376522945,0.8878344893455505,0.0108588682487607,0.687645435333252,0.4495628476142883
1629376523008,0.8878344893455505,-0.211195558309555,0.4475151002407074,0.4255041480064392
1629376523133,0.8878344893455505,-0.1431476324796676,0.1266597658395767,0.3979029655456543
1629376523273,0.8878344893455505,-0.1106354594230651,-0.0221375450491905,0.401336133480072
1629376523351,0.8878344893455505,-0.0900873467326164,-0.0452104695141315,0.401336133480072
1629376523429,0.8878344893455505,-0.0736327916383743,-0.0452104695141315,0.401336133480072
1629376523523,0.8878344893455505,-0.0666620507836341,-0.0431980118155479,0.401336133480072
1629376523633,0.8878344893455505,-0.0666620507836341,-0.032937504351139,0.401336133480072
1629376523775,0.8878344893455505,-0.0666620507836341,-0.0730902925133705,0.4422283470630646
1629376523838,0.8878344893455505,-0.0581204146146774,-0.053049299865961,0.4849917590618133
1629376524009,0.8878344893455505,-0.0415911078453063,-0.0509023964405059,0.5208415389060974
1629376524056,0.8878344893455505,-0.0011686324141919,-0.0353154018521308,0.5226406455039978
1629376524150,0.8878344893455505,0.0133908707648515,-0.0117338253185153,0.5226406455039978
1629376524259,0.8343533277511597,1.9013501514564268e-05,0.0593490228056907,0.4990416765213012
1629376524400,0.8101998567581177,-0.0123543478548526,0.1511815935373306,0.4990416765213012
1629376524540,0.7310265302658081,-0.0201586093753576,0.1907083392143249,0.4990416765213012
1629376524572,0.5948708653450012,-0.0233314763754606,0.1919046193361282,0.4990416765213012
1629376524681,0.4820234179496765,-0.0550453327596187,0.1930597424507141,0.4990416765213012
1629376524761,0.4585015177726745,-0.1313817054033279,0.1930597424507141,0.4990416765213012
1629376524839,0.4453042447566986,-0.1758615225553512,0.1930597424507141,0.4990416765213012
1629376524949,0.4476059377193451,-0.1749421805143356,0.1930597424507141,0.4990416765213012
1629376525105,0.442819744348526,-0.16849946975708,0.1930597424507141,0.4990416765213012
1629376525214,0.435153603553772,-0.1621772944927215,0.1930597424507141,0.4990416765213012
1629376525277,0.4108424782752991,-0.1483502686023712,0.1930597424507141,0.4910628795623779
1629376525386,0.3771071135997772,-0.1200507804751396,0.1803741157054901,0.4609834551811218
1629376525495,0.3640127778053283,-0.0774190723896026,0.1776947528123855,0.4130074381828308
1629376525558,0.3632504940032959,-0.0508689768612384,0.1776842921972274,0.3080866038799286
1629376525714,0.3756214678287506,-0.0630125403404235,0.1749575138092041,0.3230328261852264
1629376525764,0.3916457295417785,-0.0953883677721023,0.1722295135259628,0.3832352459430694
1629376525906,0.3957863748073578,-0.0961436703801155,0.1577472239732742,0.4849196374416351
1629376525969,0.3965862393379211,-0.0718947350978851,0.1035436242818832,0.5663653612136841
1629376526047,0.4081998467445373,-0.0563569106161594,0.0234933644533157,0.6245284080505371
1629376526234,0.4805150330066681,-0.0520997606217861,0.0012474104296416,0.6737008094787598
1629376526297,0.5714658498764038,-0.0571297034621238,0.0630969703197479,0.6979784965515137
1629376526453,0.6423002481460571,-0.0728215053677558,0.0831003561615943,0.7137240767478943
1629376526500,0.669973611831665,-0.0778054371476173,0.0928256884217262,0.8149740099906921
1629376526593,0.6822525262832642,-0.0778054371476173,0.1027561724185943,0.904438614845276
1629376526687,0.6909618377685547,-0.0778054371476173,0.1335690766572952,0.9340186715126038
1629376526816,0.691607654094696,-0.076331190764904,0.1858626455068588,0.9459595084190368
1629376526956,0.6931748390197754,-0.0178724862635135,0.2756135165691376,0.9459595084190368
1629376527050,0.7130234241485596,0.0610036887228488,0.399793416261673,0.9459595084190368
1629376527128,0.719789981842041,0.1311601251363754,0.5067675709724426,0.9459595084190368
1629376527253,0.719789981842041,0.1669719219207763,0.5562050938606262,0.9459595084190368
1629376527362,0.719789981842041,0.156347244977951,0.5656234622001648,0.9459595084190368
1629376527425,0.719789981842041,0.1596793234348297,0.5653316378593445,0.9459595084190368
1629376527534,0.719789981842041,0.182409793138504,0.5653316378593445,0.94319087266922
1629376527644,0.7143089175224304,0.2107659578323364,0.566554069519043,0.9444154500961304
1629376527706,0.7123661637306213,0.2205210626125335,0.5687537789344788,0.9456782341003418
1629376527816,0.7161591649055481,0.2207283228635788,0.5687537789344788,0.945936381816864
1629376527881,0.7077689170837402,0.2342626452445984,0.5687537789344788,0.9354615807533264
1629376528084,0.664301335811615,0.2342626452445984,0.5711858868598938,0.9130300283432008
1629376528162,0.6018882393836975,0.2342626452445984,0.587195873260498,0.865015983581543
1629376528287,0.563501238822937,0.2342626452445984,0.6215993165969849,0.7263709902763367
1629376528403,0.5185649991035461,0.2342626452445984,0.6874599456787109,0.533306360244751
1629376528512,0.4888158440589905,0.2342626452445984,0.7054284811019897,0.3921329379081726
1629376528590,0.4888158440589905,0.2325334250926971,0.7054284811019897,0.3139131367206573
1629376528825,0.4888158440589905,0.2114661633968353,0.7006957530975342,0.2344595938920974
1629376528891,0.4888158440589905,0.145065426826477,0.6991049647331238,0.111412763595581
1629376528954,0.4888158440589905,0.0850442871451377,0.694786787033081,-0.0596110634505748
1629376529031,0.4888158440589905,0.0405987910926342,0.6834489703178406,-0.1947651505470276
1629376529063,0.4888158440589905,0.0328666232526302,0.7035233378410339,-0.1947651505470276
1629376529141,0.4888158440589905,0.1451538801193237,0.7475448846817017,-0.1947651505470276
1629376529266,0.4888158440589905,0.1411078721284866,0.7562175989151001,-0.1947651505470276
1629376529344,0.4888158440589905,0.1014317870140075,0.755577802658081,-0.1947651505470276
1629376529438,0.0779749229550361,-0.0739139840006828,0.755577802658081,0.3780677318572998
1629376529578,0.0779749229550361,-0.0318376682698726,0.755577802658081,0.3898353576660156
1629376529672,0.0779749229550361,-0.0205592978745698,0.755577802658081,0.393180251121521
1629376529781,0.0779749229550361,-0.0157219637185335,0.755577802658081,0.3952870070934295
1629376529875,0.0779749229550361,-0.0157219637185335,0.7415091395378113,0.4042266607284546
1629376530035,0.1275934427976608,-0.0157219637185335,0.6788918972015381,0.4096786677837372
1629376530175,0.2621546983718872,-0.0157219637185335,0.6268618702888489,0.4255043268203735
1629376530222,0.3736615478992462,0.0635387748479843,0.6298089623451233,0.5190773010253906
1629376530269,0.4176581501960754,0.1988903731107711,0.658677339553833,0.6163700819015503
1629376530363,0.4201424121856689,0.2433591932058334,0.663642406463623,0.6475899815559387
1629376530472,0.4201424121856689,0.2433591932058334,0.663642406463623,0.6503241062164307
1629376530550,0.4201424121856689,0.2433591932058334,0.6614804267883301,0.6503241062164307
1629376530644,0.4177819192409515,0.2140595912933349,0.6460313200950623,0.6412122845649719
1629376530753,0.4127870202064514,0.1898743361234665,0.6080748438835144,0.647013247013092
1629376530953,0.4134636521339416,0.179066315293312,0.5733441114425659,0.6566013693809509
1629376531008,0.4571149051189422,0.1781837791204452,0.5733441114425659,0.6755818724632263
1629376531211,0.4890486001968384,0.1781837791204452,0.5733441114425659,0.6914966106414795
1629376531274,0.5246582627296448,0.1794658303260803,0.5733441114425659,0.7015039920806885
1629376531305,0.5579642057418823,0.1923165023326873,0.5733441114425659,0.7056475877761841
1629376531336,0.5911043286323547,0.2020815461874008,0.5733441114425659,0.7102113366127014
1629376531508,0.599676251411438,0.2076402753591537,0.5733441114425659,0.7166072726249695
1629376531571,0.6077713966369629,0.2354456484317779,0.5733441114425659,0.7166072726249695
1629376531680,0.6210472583770752,0.2767325043678283,0.5843385457992554,0.7166072726249695
1629376531776,0.6131794452667236,0.333513081073761,0.5853853821754456,0.7166072726249695
1629376531888,0.6172004342079163,0.3350573778152466,0.4978470802307129,0.6843040585517883
1629376531966,0.6222546100616455,0.301618754863739,0.4049470722675323,0.6460253596305847
1629376532154,0.6222546100616455,0.2772935032844543,0.4181762039661407,0.6429433822631836
1629376532294,0.6222546100616455,0.2701821327209472,0.4288680851459503,0.6405080556869507
1629376532372,0.6222546100616455,0.2870441079139709,0.519080400466919,0.6293726563453674
1629376532404,0.6222546100616455,0.3403632938861847,0.7028693556785583,0.6123490929603577
1629376532529,0.6193770170211792,0.4057741165161133,0.7028693556785583,0.5607345104217529
1629376532732,0.5886054635047913,0.458786278963089,0.7028693556785583,0.4901534914970398
1629376532828,0.5650814175605774,0.458786278963089,0.7028693556785583,0.4901534914970398
1629376533078,0.5520839691162109,0.458786278963089,0.7028693556785583,0.4901534914970398
1629376533156,0.5336138606071472,0.458786278963089,0.7028693556785583,0.4901534914970398
1629376533328,0.482738584280014,0.458786278963089,0.7028693556785583,0.4901534914970398
1629376533391,0.4185139238834381,0.458786278963089,0.7028693556785583,0.4901534914970398
1629376533422,0.3817217648029327,0.458786278963089,0.7028693556785583,0.4901534914970398
1629376533516,0.3453182280063629,0.6004161834716797,0.6995142102241516,0.4901534914970398
1629376533562,0.3017560839653015,0.5787528157234192,0.6918398141860962,0.4901534914970398
1629376533609,0.2123281359672546,0.5608541369438171,0.6845831274986267,0.4901534914970398
1629376533789,0.2123281359672546,0.5606043338775635,0.6845831274986267,0.4901534914970398
1629376533893,0.2123281359672546,0.5844111442565918,0.6845831274986267,0.4901534914970398
1629376533956,0.2123281359672546,0.5925009846687317,0.6845831274986267,0.4901534914970398
1629376533987,0.2123281359672546,0.6003729701042175,0.6845831274986267,0.4901534914970398
1629376534065,0.2123281359672546,0.6017099618911743,0.6845831274986267,0.4901534914970398
1629376534143,0.2123281359672546,0.6089423298835754,0.6845831274986267,0.4901534914970398
1629376534284,0.2123281359672546,0.6897327303886414,0.6845831274986267,0.4901534914970398
1629376534346,0.2123281359672546,0.8130049109458923,0.6845831274986267,0.4901534914970398
1629376534424,0.2123281359672546,0.8302270174026489,0.6845831274986267,0.4901534914970398
1629376534518,0.2123281359672546,0.8302270174026489,0.6845831274986267,0.4901534914970398
1629376534596,0.2123281359672546,0.8302270174026489,0.6845831274986267,0.4901534914970398
1629376534768,0.2123281359672546,0.8302270174026489,0.6845831274986267,0.4901534914970398
1629376534897,0.2123281359672546,0.8231278657913208,0.6845831274986267,0.4901534914970398
1629376534944,0.2123281359672546,0.8231278657913208,0.6845831274986267,0.4901534914970398
1629376535163,0.2123281359672546,0.8231278657913208,0.6845831274986267,0.4901534914970398
1629376535178,0.2123281359672546,0.8231278657913208,0.6845831274986267,0.4901534914970398
1629376535256,0.2123281359672546,0.8231278657913208,0.6845831274986267,0.4901534914970398
1629376535366,0.2123281359672546,0.8224744200706482,0.6845831274986267,0.4901534914970398
1629376535475,0.2123281359672546,0.8223540186882019,0.4787226319313049,0.4901534914970398
1629376535554,0.2123281359672546,0.8223540186882019,0.5214630365371704,0.4901534914970398
1629376535725,0.2123281359672546,0.8223540186882019,0.5385159254074097,0.4901534914970398
1629376535819,0.2123281359672546,0.8210176825523376,0.5385159254074097,0.4901534914970398
1629376535916,0.2123281359672546,0.8041953444480896,0.5385159254074097,0.4901534914970398
1629376536010,0.2123281359672546,0.6507848501205444,0.5385159254074097,0.4901534914970398
1629376536073,0.2123281359672546,0.6507848501205444,0.5534794330596924,0.4901534914970398
1629376536182,0.2123281359672546,0.6507848501205444,0.5534794330596924,0.4901534914970398
1629376536244,0.2123281359672546,0.6507848501205444,0.5534794330596924,0.4901534914970398
1629376536323,0.2123281359672546,0.6507848501205444,0.5534794330596924,0.4901534914970398
1629376536432,0.2123281359672546,0.6507848501205444,0.5534794330596924,0.4901534914970398
1629376536573,0.2123281359672546,0.6507848501205444,0.5534794330596924,0.4901534914970398
1629376536651,0.2123281359672546,0.6507848501205444,0.5534794330596924,0.4901534914970398
1629376536885,0.2123281359672546,0.6507848501205444,0.5495257377624512,0.4901534914970398
1629376536919,0.2123281359672546,0.6507848501205444,0.5178201198577881,0.4901534914970398
1629376536981,0.2123281359672546,0.6507848501205444,0.5178201198577881,0.4901534914970398
1629376537060,0.2123281359672546,0.6507848501205444,0.5178201198577881,0.4901534914970398
1629376537216,0.2123281359672546,0.6507848501205444,0.5178201198577881,0.4901534914970398
1629376537263,0.2123281359672546,0.6507848501205444,0.5178201198577881,0.7759972214698792
1629376537403,0.2123281359672546,0.6507848501205444,0.5178201198577881,0.7759972214698792
1629376537481,0.2123281359672546,0.1248427331447601,0.5178201198577881,0.7759972214698792
1629376537591,0.2123281359672546,0.1248427331447601,0.5178201198577881,0.7759972214698792
1629376537716,0.2123281359672546,0.1310124844312667,0.5178201198577881,0.7759972214698792
1629376537794,0.2381023615598678,0.1310124844312667,0.37505042552948,0.7759972214698792
1629376537937,0.2871159017086029,0.082204096019268,0.3794793486595154,0.7759972214698792
1629376537984,0.3113879263401031,0.082204096019268,0.3794793486595154,0.7759972214698792
1629376538109,0.3343291580677032,0.0910317078232765,0.3794793486595154,0.7759972214698792
1629376538140,0.3479395508766174,0.1167491152882576,0.3810915648937225,0.7759972214698792
1629376538312,0.3489578664302826,0.134774848818779,0.4031831324100494,0.7759972214698792
1629376538500,0.3515055179595947,0.1363167613744735,0.4094034433364868,0.7759972214698792
1629376538547,0.3742119669914245,0.1363167613744735,0.4150928258895874,0.6477770209312439
1629376538562,0.4508885741233825,0.1363167613744735,0.4182358384132385,0.5541476011276245
1629376538719,0.6216922402381897,0.1363167613744735,0.4206070899963379,0.5396846532821655
1629376538797,0.6216922402381897,0.1363167613744735,0.4289085268974304,0.5191994905471802
1629376538875,0.6216922402381897,0.0711926519870758,0.4336082637310028,0.4999001324176788
1629376539033,0.6216922402381897,0.0370752997696399,0.3137676119804382,0.4861538410186767
1629376539127,0.6216922402381897,0.0103138014674186,0.2802720963954925,0.4736084938049316
1629376539205,0.6216922402381897,0.0041114185005426,0.2945100665092468,0.4672242105007171
1629376539314,0.6216922402381897,-0.0006377637619152,0.3033043444156647,0.4655255973339081
1629376539486,0.6159060001373291,-0.006717603188008,0.302171379327774,0.4599607288837433
1629376539548,0.5947750806808472,-0.0170087683945894,0.302171379327774,0.4599607288837433
1629376539611,0.5797792077064514,-0.0170087683945894,0.302171379327774,0.457246869802475
1629376539705,0.5682533979415894,-0.0245937369763851,0.302171379327774,0.457246869802475
1629376539845,0.5582235455513,-0.0581637844443321,0.2994576692581177,0.4422714412212372
1629376539924,0.5582235455513,-0.1037337556481361,0.2971058487892151,0.4422714412212372
1629376540051,0.5582235455513,-0.0703744739294052,0.304418534040451,0.4422714412212372
1629376540160,0.5582235455513,-0.0114032877609133,0.3224223554134369,0.4422714412212372
1629376540207,0.5582235455513,-0.0366173200309276,0.3365602493286133,0.4422714412212372
1629376540285,0.5582235455513,-0.0444974191486835,0.3435372114181518,0.5849165916442871
1629376540395,0.6868335604667664,-0.0481199994683265,0.3426304459571838,0.7846531867980957
1629376540551,0.7477132081985474,-0.0539409406483173,0.3317646384239197,0.9581334590911864
1629376540629,0.7764045596122742,-0.0616229586303234,0.3794079124927521,0.9581334590911864
1629376540692,0.7764045596122742,-0.0860663205385208,0.4301396608352661,0.9581334590911864
1629376540848,0.7764045596122742,-0.1070891469717025,0.4360191822052002,0.9581334590911864
1629376540926,0.7764045596122742,-0.1140767708420753,0.4360191822052002,0.9581334590911864
1629376541004,0.7764045596122742,-0.1148354038596153,0.4360191822052002,0.9581334590911864
1629376541191,0.7764045596122742,-0.1148354038596153,0.4389516413211822,0.9581334590911864
1629376541238,0.7764045596122742,-0.1148354038596153,0.4396489560604095,0.9581334590911864
1629376541332,0.7764045596122742,-0.1148354038596153,0.4396489560604095,0.9581334590911864
1629376541426,0.7764045596122742,-0.1148354038596153,0.4396489560604095,0.970610499382019
1629376541535,0.7791017889976501,-0.1148354038596153,0.4396489560604095,0.9710818529129028
1629376541674,0.796732485294342,-0.1148354038596153,0.4396489560604095,0.9719171524047852
1629376541736,0.8300195336341858,0.0174025502055883,0.4396308362483978,0.9719171524047852
1629376541783,0.832611620426178,0.0243063699454069,0.4396308362483978,0.9719171524047852
1629376541955,0.8082472085952759,0.0243063699454069,0.4396308362483978,0.9719171524047852
1629376542035,0.7883049249649048,0.0243063699454069,0.4379416704177856,0.4625172615051269
1629376542215,0.6961376667022705,0.0243063699454069,0.4255869388580322,0.4856421053409576
1629376542279,0.6965621709823608,0.0243063699454069,0.3830150365829468,0.5146428346633911
1629376542356,0.6965621709823608,0.0243063699454069,0.2774139940738678,0.5217888951301575
1629376542459,0.6965621709823608,0.0243063699454069,0.3504398763179779,0.5217888951301575
1629376542579,0.6965621709823608,0.0243063699454069,0.4246038496494293,0.5374993085861206
1629376542682,0.6965621709823608,0.0243063699454069,0.4563230574131012,0.5463075637817383
1629376542800,0.6965621709823608,0.0257392022758722,0.46359783411026,0.5486591458320618
1629376542862,0.697052538394928,0.0536801740527153,0.4620623588562011,0.554755687713623
1629376542968,0.693909227848053,-0.044400792568922,0.4490160346031189,0.5279573798179626
1629376543030,0.6918916702270508,-0.1179179251194,0.4419540166854858,0.5080095529556274
1629376543174,0.6896911859512329,-0.1332332789897918,0.4419540166854858,0.4852665066719055
1629376543271,0.6890320777893066,-0.1365528702735901,0.4419540166854858,0.4749481976032257
1629376543406,0.6528627872467041,-0.1599396467208862,0.4419540166854858,0.4749481976032257
1629376543541,0.5488051176071167,-0.1777793169021606,0.4419540166854858,0.4749481976032257
1629376543601,0.4084004163742065,-0.1800684779882431,0.4419540166854858,0.4749481976032257
1629376543647,0.2431170046329498,-0.1800684779882431,0.4419540166854858,0.4749481976032257
1629376543720,0.1036012694239616,-0.1800684779882431,0.4419540166854858,0.4710928201675415
1629376543856,0.0581508092582225,-0.1829519122838974,0.4419540166854858,0.435516893863678
1629376544003,0.0504076518118381,-0.1908869296312332,0.4492435157299042,0.3888125717639923
1629376544097,0.0504076518118381,-0.1908869296312332,0.4303819239139557,0.3888125717639923
1629376544175,0.0504076518118381,-0.1908869296312332,0.4505116939544678,0.3888125717639923
1629376544278,0.0504076518118381,-0.1908869296312332,0.431506335735321,0.3888125717639923
1629376544352,0.0504076518118381,-0.1908869296312332,0.431506335735321,0.3888125717639923
1629376544493,0.0504076518118381,-0.1908869296312332,0.431506335735321,0.3888125717639923
1629376544617,0.0504076518118381,-0.1908869296312332,0.431506335735321,0.3888125717639923
1629376544696,0.0504076518118381,-0.1908869296312332,0.431506335735321,0.3888125717639923
1629376544758,0.0504076518118381,-0.1908869296312332,0.431506335735321,0.3888125717639923
1629376544917,0.0504076518118381,-0.1908869296312332,0.431506335735321,0.3888125717639923
1629376544963,0.0504076518118381,-0.1908869296312332,0.431506335735321,0.3888125717639923
1629376545104,0.0504076518118381,-0.1908869296312332,0.431506335735321,0.3888125717639923
1629376545229,0.0504076518118381,-0.1908869296312332,0.431506335735321,0.3888125717639923
1629376545323,0.0504076518118381,-0.1908869296312332,0.431506335735321,0.3888125717639923
1629376545370,0.0504076518118381,-0.1908869296312332,0.431506335735321,0.3888125717639923
1629376545510,0.0504076518118381,-0.1908869296312332,0.431506335735321,0.3888125717639923
1629376545588,0.0504076518118381,-0.1908869296312332,0.431506335735321,0.3888125717639923
1629376545760,0.0504076518118381,-0.1908869296312332,0.431506335735321,0.3888125717639923
1629376545807,0.0504076518118381,-0.1908869296312332,0.0748777985572815,0.3888125717639923
1629376545883,0.223195344209671,-0.0117111969739198,0.076025553047657,0.5308532118797302
1629376546061,0.2279665619134903,-0.0103797046467661,0.0766923949122428,0.5308532118797302
1629376546139,0.2279665619134903,-0.0076772323809564,0.0766923949122428,0.5308532118797302
1629376546186,0.2279665619134903,-0.0064204456284642,0.0766923949122428,0.5308532118797302
1629376546295,0.2279665619134903,0.0003989555116277,0.0784282013773918,0.5308532118797302
1629376546389,0.2279665619134903,0.0111757442355155,0.0797796249389648,0.5462779998779297
1629376546514,0.2279665619134903,0.0189713351428508,0.0797796249389648,0.5536133646965027
1629376546670,0.2279665619134903,0.0211598165333271,0.0797796249389648,0.5536133646965027
1629376546857,0.2279665619134903,0.0211598165333271,0.1190301403403282,0.5536133646965027
1629376546889,0.2279665619134903,0.0211598165333271,0.1881626844406128,0.5536133646965027
1629376546982,0.2279665619134903,0.0254262685775756,0.3458206951618194,0.5536133646965027
1629376547045,0.2279665619134903,0.0419439412653446,0.4437542557716369,0.5536133646965027
1629376547170,0.1387637704610824,0.0533704720437526,0.4631888270378113,0.5536133646965027
1629376547217,0.0794490724802017,0.0163055770099163,0.4611563682556152,0.5487176179885864
1629376547388,0.0582432337105274,-0.0329993292689323,0.4572215676307678,0.5134768486022949
1629376547440,-0.0200638212263584,-0.0705950483679771,0.4572215676307678,0.4673036336898803
1629376547536,-0.1366944760084152,-0.0961859747767448,0.45380699634552,0.3714134395122528
1629376547629,-0.2530311942100525,-0.0694092810153961,0.4926251471042633,0.2708857953548431
1629376547723,-0.2530311942100525,0.0529267601668834,0.5226123332977295,0.2708857953548431
1629376547832,-0.2530311942100525,0.1508629769086837,0.5278787612915039,0.2708857953548431
1629376547895,-0.2530311942100525,0.172651931643486,0.5278787612915039,0.2708857953548431
1629376547976,-0.2530311942100525,0.172651931643486,0.5278787612915039,0.2708857953548431
1629376548179,-0.2530311942100525,0.172651931643486,0.5278787612915039,0.2708857953548431
1629376548289,-0.2530311942100525,0.172651931643486,0.5278787612915039,0.2708857953548431
1629376548373,-0.2530311942100525,0.172651931643486,0.5278787612915039,0.2708857953548431
1629376548406,-0.2530311942100525,0.172651931643486,0.5227808952331543,0.2708857953548431
1629376548596,-0.2530311942100525,0.172651931643486,0.5019212365150452,0.2708857953548431
1629376548659,-0.2530311942100525,0.1708128303289413,0.4821991324424743,0.2708857953548431
1629376548755,-0.2530311942100525,0.1706281751394271,0.4941915571689605,0.2708857953548431
1629376548888,-0.2530311942100525,0.1706281751394271,0.5060659050941467,0.2708857953548431
1629376548982,-0.2530311942100525,0.1706281751394271,0.5085105895996094,0.2708857953548431
1629376549122,-0.2530311942100525,0.1687857657670974,0.5085105895996094,0.2708857953548431
1629376549185,-0.2530311942100525,0.1687023341655731,0.5085105895996094,0.2708857953548431
1629376549294,-0.2530311942100525,0.1645735204219818,0.4940920174121856,0.2708857953548431
1629376549435,-0.2530311942100525,0.1202745586633682,0.4050541222095489,0.2708857953548431
1629376549497,-0.2530311942100525,0.0270276628434658,0.2869049310684204,0.2708857953548431
1629376549544,-0.2530311942100525,-0.0766109675168991,0.2613542973995209,0.2708857953548431
1629376549622,-0.2530311942100525,-0.0801654011011123,0.2890450954437256,0.2708857953548431
1629376549763,-0.2530311942100525,-0.0391867756843566,0.3566106557846069,0.2708857953548431
1629376549966,-0.2530311942100525,-0.0211615599691867,0.4067114591598511,0.2708857953548431
1629376550029,-0.2530311942100525,-0.0104613481089472,0.4303517341613769,0.2708857953548431
1629376550075,-0.2530311942100525,-0.0132530722767114,0.4303517341613769,0.2708857953548431
1629376550138,-0.2530311942100525,-0.0239672921597957,0.4303517341613769,0.2708857953548431
1629376550310,-0.2530311942100525,-0.0254464987665414,0.4298156797885895,0.2708857953548431
1629376550560,-0.2530311942100525,-0.0234057605266571,0.4471799731254577,0.2708857953548431
1629376550591,-0.2530311942100525,-0.0066942814737558,0.5143504738807678,0.2708857953548431
1629376550685,-0.2530311942100525,-0.0025338320992887,0.5920552015304565,0.2708857953548431
1629376550716,0.6024925708770752,-7.516964979004115e-05,0.6187729835510254,0.7452402710914612
1629376550778,0.6024925708770752,0.0011313282884657,0.6180854439735413,0.7556191682815552
1629376550952,0.6024925708770752,0.0019373487448319,0.6178122162818909,0.7578114867210388
1629376551140,0.6024925708770752,0.0019373487448319,0.6232758164405823,0.7727463841438293
1629376551296,0.6024925708770752,0.0019373487448319,0.6232758164405823,0.790081262588501
1629376551343,0.6024925708770752,0.0019373487448319,0.6223727464675903,0.8032159209251404
1629376551374,0.6028329133987427,-0.0144143095239996,0.6165213584899902,0.8090258240699768
1629376551436,0.6053630113601685,-0.0655472576618194,0.6079822778701782,0.810664176940918
1629376551742,0.6053630113601685,-0.1430064886808395,0.5987353920936584,0.810664176940918
1629376551869,0.6053630113601685,-0.2129505574703216,0.5718562602996826,0.810664176940918
1629376551931,0.6053630113601685,-0.2501709759235382,0.5431840419769287,0.810664176940918
1629376551978,0.6053630113601685,-0.2819367945194244,0.5283759236335754,0.810664176940918
1629376552041,0.5974087715148926,-0.2793730497360229,0.5276894569396973,0.8046006560325623
1629376552244,0.5744168758392334,-0.2341825664043426,0.5276894569396973,0.7976548075675964
1629376552291,0.5484901070594788,-0.2068015933036804,0.5276894569396973,0.7699429392814636
1629376552384,0.4847558438777923,-0.1925884634256363,0.479608952999115,0.6993044018745422
1629376552432,0.4325111210346222,-0.1847218126058578,0.3585429191589355,0.6038051247596741
1629376552557,0.4176254868507385,-0.1874453127384185,0.2004597038030624,0.5671902894973755
1629376552666,0.3995546996593475,-0.1249990165233612,0.1118296086788177,0.5580878853797913
1629376552875,0.3774895370006561,-0.0404933393001556,0.0207532532513141,0.5552963018417358
1629376552934,0.3264312446117401,0.0552503541111946,0.1245034113526344,0.543459415435791
1629376552965,0.2679253816604614,0.1565356254577636,0.1155527159571647,0.5288053154945374
1629376552996,0.2580368816852569,0.1565356254577636,0.1155527159571647,0.483877956867218
1629376553137,0.2580368816852569,0.1565356254577636,0.1155527159571647,0.4151415824890136
1629376553309,0.2580368816852569,0.1565356254577636,0.1155527159571647,0.3466127812862396
1629376553371,0.2580368816852569,0.1565356254577636,0.1155527159571647,0.3466127812862396
1629376553465,0.2580368816852569,0.1565356254577636,0.1155527159571647,0.3466127812862396
1629376553512,0.2580368816852569,0.1565356254577636,0.1155527159571647,0.3466127812862396
1629376553606,0.2580368816852569,0.156008094549179,0.1129199042916297,0.3466127812862396
1629376553637,0.2580368816852569,0.1503884196281433,0.1115547642111778,0.3466127812862396
1629376553762,0.2580368816852569,0.1404133141040802,0.1115187332034111,0.3466127812862396
1629376553902,0.2580368816852569,0.1316758692264557,0.1399558782577514,0.3466127812862396
1629376553974,0.2580368816852569,0.1203377991914749,0.1436605304479599,0.3466127812862396
1629376554099,0.2580368816852569,0.1791175156831741,0.1550742089748382,0.3466127812862396
1629376554146,0.2580368816852569,0.1804192066192627,0.2068367153406143,0.3466127812862396
1629376554255,0.2580368816852569,0.1903565675020218,0.1817059218883514,0.3466127812862396
1629376554411,0.2580368816852569,0.0814648866653442,0.1819935142993927,0.6010423302650452
1629376554489,0.2580368816852569,0.1112361326813697,0.1952840238809585,0.6010423302650452
1629376554583,0.2580368816852569,0.1124720200896263,0.2379879504442215,0.6051779389381409
1629376554614,0.2580368816852569,0.1124720200896263,0.2923125624656677,0.6254703998565674
1629376554727,0.2580368816852569,0.1124720200896263,0.3306687474250793,0.6254703998565674
1629376554853,0.8301869034767151,0.1124720200896263,0.3529019653797149,0.6254703998565674
1629376555008,0.9869276881217957,0.1124720200896263,0.3567965924739837,0.6254703998565674
1629376555071,1.061161756515503,0.1124720200896263,0.3595867156982422,0.6254703998565674
1629376555133,1.061161756515503,0.1124720200896263,0.3732536733150482,0.6254703998565674
1629376555258,1.061161756515503,0.1755487918853759,0.4254230558872223,0.6669664978981018
1629376555305,1.061161756515503,0.251462459564209,0.4959492683410644,0.6669664978981018
1629376555446,1.061161756515503,0.2658953070640564,0.5675169825553894,0.6669664978981018
1629376555555,1.061161756515503,0.2578057646751404,0.567708432674408,0.6394848823547363
1629376555791,1.061161756515503,0.2553546726703644,0.567708432674408,0.6272985339164734
1629376555823,1.061161756515503,0.2562274634838104,0.567708432674408,0.6029303669929504
1629376555963,1.064592361450195,0.2565301954746246,0.567708432674408,0.5840972065925598
1629376556041,1.0658363103866575,0.2588385045528412,0.567708432674408,0.5496507287025452
1629376556120,1.060082197189331,0.24631068110466,0.567708432674408,0.5231810212135315
1629376556151,1.052363634109497,0.2403922230005264,0.567708432674408,0.4843879342079162
1629376556245,1.046636700630188,0.2386807799339294,0.5645592212677002,0.4843879342079162
1629376556369,1.0458011627197266,0.2386807799339294,0.5645592212677002,0.4843879342079162
1629376556494,1.0424933433532717,0.2386807799339294,0.5571683645248413,0.4843879342079162
1629376556541,1.0424933433532717,0.2386807799339294,0.5401106476783752,0.4843879342079162
1629376556635,1.0424933433532717,0.2388637363910675,0.5155102014541626,0.4843879342079162
1629376556729,1.0424933433532717,0.2520156800746918,0.504024863243103,0.3638445734977722
1629376556856,1.0424933433532717,0.2784933149814605,0.4956735968589782,0.2174316942691803
1629376556966,1.0424933433532717,0.2523452639579773,0.4574490487575531,0.2174316942691803
1629376557062,1.0424933433532717,0.2150213122367859,0.3148193955421448,0.175717294216156
1629376557146,0.4028867483139038,0.1951958239078521,0.1941832453012466,0.175717294216156
1629376557313,0.4055590331554413,0.1878724843263626,0.1582515686750412,0.175717294216156
1629376557379,0.3745380640029907,0.1792604476213455,0.1576030552387237,0.175717294216156
1629376557488,0.2959559857845306,0.1663870811462402,0.1490577459335327,0.175717294216156
1629376557601,0.2696507275104522,0.1383194774389267,0.1344998180866241,0.175717294216156
1629376557681,0.2892482876777649,0.1536782830953598,0.1483248323202133,0.1546966731548309
1629376557748,0.3136383891105652,0.1655741184949875,0.1999844163656234,0.2206531465053558
1629376557944,0.3382685482501983,0.1621044874191284,0.2794833183288574,0.2785684466361999
1629376558006,0.3382685482501983,0.1660839170217514,0.3688381910324096,0.314676433801651
1629376558163,0.3382685482501983,0.187293142080307,0.4250707030296325,0.350131630897522
1629376558231,0.3382685482501983,0.2209222614765167,0.4594403505325317,0.4464083611965179
1629376558306,0.6706200838088989,0.23712258040905,0.4508998692035675,0.5477162599563599
1629376558391,0.7377811074256897,0.2317138612270355,0.4454852938652038,0.5477162599563599
1629376558563,0.7377811074256897,0.2150924205780029,0.4457481503486633,0.5477162599563599
1629376558634,0.7377811074256897,0.1836553663015365,0.4457481503486633,0.5477162599563599
1629376558707,0.7318581938743591,0.1730366945266723,0.4457481503486633,0.5477162599563599
1629376558781,0.725274920463562,0.1730366945266723,0.4457481503486633,0.5477162599563599
1629376558907,0.7193744778633118,0.1741427779197693,0.4457481503486633,0.5381448864936829
1629376559007,0.7044286727905273,0.1743447035551071,0.4457481503486633,0.527733564376831
1629376559183,0.6832860708236694,0.2002018392086029,0.4533381462097168,0.5274269580841064
1629376559245,0.6660029888153076,0.2278515845537185,0.4761498272418976,0.5274269580841064
1629376559309,0.6660029888153076,0.2291811257600784,0.4891372621059418,0.5243234038352966
1629376559431,0.6660029888153076,0.2291811257600784,0.4897863566875458,0.5137304067611694
1629376559513,0.6660029888153076,0.2309670895338058,0.4760715961456299,0.5137304067611694
1629376559613,0.6660029888153076,0.2327305227518081,0.4557878375053406,0.5137304067611694
1629376559705,0.6660029888153076,0.2279131263494491,0.4557314813137054,0.5137304067611694
1629376559792,0.6660029888153076,0.1942146271467209,0.4208069741725921,0.5137304067611694
1629376559980,0.6660029888153076,0.1298923641443252,0.370536595582962,0.5137304067611694
1629376560045,0.6660029888153076,0.0919272452592849,0.2922425866127014,0.5137304067611694
1629376560132,0.6660029888153076,0.111177459359169,0.2595309317111969,0.5137304067611694
1629376560237,0.6660029888153076,0.1419183015823364,0.2555634379386902,0.5137304067611694
1629376560318,0.6660029888153076,0.1763973236083984,0.2528637051582336,0.5137304067611694
1629376560490,0.6660029888153076,0.1915626525878906,0.2528637051582336,0.5137304067611694
1629376560559,0.6660029888153076,0.198569968342781,0.2528637051582336,0.5137304067611694
1629376560630,0.6660029888153076,0.2216196209192276,0.2528637051582336,0.5137304067611694
1629376560715,0.6660029888153076,0.2310070991516113,0.2471564263105392,0.5137304067611694
1629376560784,0.6660029888153076,0.2324253916740417,0.2383771389722824,0.5137304067611694
1629376561017,0.6660029888153076,0.2324253916740417,0.2195838242769241,0.5137304067611694
1629376561089,0.6660029888153076,0.2324253916740417,0.1797038912773132,0.5137304067611694
1629376561126,0.6660029888153076,0.2501135170459747,0.0849824473261833,0.5137304067611694
1629376561249,0.6660029888153076,0.3375248908996582,0.0477689541876316,0.5137304067611694
1629376561354,0.6660029888153076,0.4164027869701385,0.0743042603135109,0.5137304067611694
1629376561480,0.6660029888153076,0.4532057046890259,0.1284347474575042,0.5137304067611694
1629376561572,0.6660029888153076,0.4611614942550659,0.1284347474575042,0.5137304067611694
1629376561635,0.6660029888153076,0.4566299021244049,0.1284347474575042,0.5137304067611694
1629376561756,0.6660029888153076,0.4523929953575134,0.1284347474575042,0.5137304067611694
1629376561882,0.6660029888153076,0.4535097777843475,0.2089221179485321,0.5137304067611694
1629376561950,0.6660029888153076,0.4510814249515533,0.2089221179485321,0.5137304067611694
1629376562065,0.6660029888153076,0.4437659680843353,0.2089221179485321,0.5137304067611694
1629376562156,0.6660029888153076,0.4432216882705688,0.2089221179485321,0.5137304067611694
1629376562248,0.6660029888153076,0.4432216882705688,0.2089221179485321,0.5137304067611694
1629376562346,0.6660029888153076,0.4414314925670624,0.2089221179485321,0.5137304067611694
1629376562469,0.6660029888153076,0.4414314925670624,0.2089221179485321,0.5137304067611694
1629376562545,0.6660029888153076,0.4414314925670624,0.2128509134054184,0.5137304067611694
1629376562774,0.6660029888153076,0.4414314925670624,0.213368535041809,0.5137304067611694
1629376562819,0.6660029888153076,0.4414314925670624,0.2078108340501785,0.5137304067611694
1629376563027,0.1631770879030227,0.4357965290546417,0.2094350010156631,0.2788901031017303
1629376563108,0.2564933598041534,0.4101948738098144,0.216240108013153,0.3071032166481018
1629376563203,0.3279621303081512,0.351810872554779,0.2275474369525909,0.3411723673343658
1629376563303,0.4026895463466644,0.2668666541576385,0.2275474369525909,0.3754757940769195
1629376563436,0.4296155273914337,0.1535067111253738,0.2275474369525909,0.3952543437480926
1629376563486,0.4592989981174469,0.023203982040286,0.1519935578107834,0.4238285720348358
1629376563576,0.544709324836731,0.014118411578238,0.1355280876159668,0.5193071365356445
1629376563643,0.6545857191085815,0.0616927035152912,0.1462960243225097,0.602393388748169
1629376563695,0.7070232033729553,0.0819177702069282,0.204234167933464,0.602393388748169
1629376563782,0.7070232033729553,0.1184265166521072,0.2495717704296112,0.602393388748169
1629376563890,0.7070232033729553,0.1348567306995391,0.2804107069969177,0.602393388748169
1629376563977,0.7070232033729553,0.148291677236557,0.2963051199913025,0.602393388748169
1629376564103,0.7070232033729553,0.1761476248502731,0.3043396770954132,0.5959226489067078
1629376564191,0.7070232033729553,0.1853505820035934,0.295395165681839,0.5864925384521484
1629376564283,0.7070232033729553,0.1865262538194656,0.2912210822105407,0.5826915502548218
1629376564431,0.7070232033729553,0.1916460990905761,0.2912210822105407,0.578556478023529
1629376564502,0.7070232033729553,0.1992111355066299,0.2941702604293823,0.5711784958839417
1629376564633,0.7070232033729553,0.204967975616455,0.2809094190597534,0.5523114204406738
1629376564713,0.704333484172821,0.2156948745250702,0.2798364460468292,0.5509633421897888
1629376564796,0.7040051221847534,0.2261016815900802,0.2798364460468292,0.5509633421897888
1629376564863,0.7040051221847534,0.2274415343999862,0.2798364460468292,0.5509633421897888
1629376564988,0.7040051221847534,0.2274415343999862,0.2842506468296051,0.5509633421897888
1629376565112,0.7040051221847534,0.2274415343999862,0.29118412733078,0.5509633421897888
1629376565239,0.7040051221847534,0.2149862945079803,0.2934309840202331,0.5509633421897888
1629376565332,0.4281161427497864,0.1850582957267761,0.2934309840202331,0.2176201492547989
1629376565427,0.4300342202186584,0.1370949894189834,0.2716569006443023,0.2282459437847137
1629376565567,0.4342169761657715,0.10202107578516,0.2110022902488708,0.3014565706253052
1629376565601,0.4377686381340027,0.0846768170595169,0.1442384719848632,0.4993739724159241
1629376565702,0.481400191783905,0.1083329319953918,0.0533019341528415,0.6770838499069214
1629376565861,0.5741979479789734,0.2638281881809234,0.0304078795015811,0.7449831366539001
1629376566018,0.6454185843467712,0.352586030960083,0.0948468744754791,0.7476240396499634
1629376566144,0.6721843481063843,0.3576220870018005,0.1390188485383987,0.7476240396499634
1629376566234,0.6733229756355286,0.3621123731136322,0.1363811939954757,0.7476240396499634
1629376566271,0.6739516258239746,0.3631337285041809,0.1314806938171386,0.7510152459144592
1629376566505,0.6739516258239746,0.3641974031925201,0.1419753283262252,0.7771074771881104
1629376566608,0.6739516258239746,0.3641974031925201,0.1523721665143966,0.7948620319366455
1629376566668,0.6739516258239746,0.3641974031925201,0.1731415688991546,0.8016629219055176
1629376566706,0.6739516258239746,0.3666192889213562,0.1944792866706848,0.8074755072593689
1629376566754,0.6739516258239746,0.3743593990802765,0.2054802924394607,0.8194519281387329
1629376566842,0.6739516258239746,0.386853963136673,0.2054802924394607,0.826131284236908
1629376566907,0.6739516258239746,0.3947474360466003,0.2054802924394607,0.8270015120506287
1629376567104,0.6739516258239746,0.3947474360466003,0.2054802924394607,0.8270015120506287
1629376567178,0.6739516258239746,0.3947474360466003,0.2054802924394607,0.8287018537521362
1629376567219,0.6668387651443481,0.3947474360466003,0.2054802924394607,0.8311755061149597
1629376567335,0.6478578448295593,0.3920780718326568,0.2054802924394607,0.7961065769195557
1629376567440,0.6076657176017761,0.361286997795105,0.2054802924394607,0.7275162935256958
1629376567535,0.5742382407188416,0.2590755820274353,0.1678058058023452,0.6799439787864685
1629376567701,0.5222431421279907,0.1085157915949821,0.125138521194458,0.6799018383026123
1629376567786,0.4697505235671997,0.0712388455867767,0.1213230788707733,0.678361177444458
1629376567930,0.4968597292900085,0.0761851593852043,0.1276624947786331,0.6710708141326904
1629376568086,0.5084139704704285,0.0761851593852043,0.1338120549917221,0.662830650806427
1629376568164,0.4950449466705322,0.0814521685242652,0.1338120549917221,0.6227774024009705
1629376568196,0.4851958453655243,0.0814521685242652,0.1318883448839187,0.5464267730712891
1629376568321,0.4648008644580841,0.0814521685242652,0.1297316700220108,0.4758942425251007
1629376568409,0.4462394416332245,0.0814521685242652,0.1272720247507095,0.4457428753376007
1629376568487,0.4308345317840576,0.0786993652582168,0.1272720247507095,0.4168626964092254
1629376568596,0.4235120713710785,0.0756010338664054,0.1272720247507095,0.415770024061203
1629376568659,0.4235120713710785,0.0766515135765075,0.1272720247507095,0.4213721454143524
1629376568846,0.4235120713710785,0.0820120796561241,0.1276712715625763,0.4370997548103332
1629376568975,0.4248591661453247,0.080629289150238,0.1301724016666412,0.4998050630092621
1629376569069,0.4435351192951202,0.0873425006866455,0.122132159769535,0.5584312677383423
1629376569115,0.4503366649150848,0.088257260620594,0.0843385756015777,0.6021058559417725
1629376569147,0.4431476593017578,0.0379338599741458,0.0741463899612426,0.6004407405853271
1629376569272,0.436546266078949,-0.0384373404085636,0.1217871606349945,0.6004407405853271
1629376569428,0.4123608767986297,-0.090446300804615,0.1256245821714401,0.5949442386627197
1629376569538,0.3646564185619354,-0.0910374373197555,0.1135474294424057,0.58797687292099
1629376569600,0.3142605125904083,-0.0680570378899574,0.1069576740264892,0.5705028772354126
1629376569647,0.2646684944629669,-0.0499964393675327,0.0955490842461586,0.5658653378486633
1629376569818,0.2551649212837219,-0.0423279479146003,0.0784792602062225,0.5658653378486633
1629376569912,0.2551649212837219,-0.0204617492854595,0.08561971783638,0.5658653378486633
1629376569990,0.2551649212837219,-0.0022108585108071,0.1564535349607467,0.5658653378486633
1629376570147,0.2445543259382248,0.0051675019785761,0.2191658318042755,0.5658653378486633
1629376570225,0.2232813686132431,0.0180850643664598,0.2382993400096893,0.5647328495979309
1629376570303,0.2232813686132431,0.0250226221978664,0.2391363680362701,0.5647328495979309
1629376570366,0.2232813686132431,0.0322153344750404,0.2391363680362701,0.5647328495979309
1629376570537,0.2232813686132431,0.0323582701385021,0.2391363680362701,0.5647328495979309
1629376570662,0.2232813686132431,0.0323582701385021,0.2391363680362701,0.5647328495979309
1629376570725,0.2232813686132431,0.0323582701385021,0.2342438697814941,0.5647328495979309
1629376570850,0.2232813686132431,0.0323582701385021,0.2149548381567001,0.5647328495979309
1629376570993,0.2232813686132431,0.0323582701385021,0.1680147647857666,0.5647328495979309
1629376571102,0.2126646041870117,0.0348449014127254,0.1735459417104721,-0.184370681643486
1629376571164,0.2580901980400085,0.0217338688671588,0.1995304524898529,-0.0365043096244335
1629376571228,0.2624680995941162,0.01850550994277,0.2248661071062088,0.1608887016773224
1629376571431,0.2647740542888641,0.01850550994277,0.2434737533330917,0.3193787932395935
1629376571556,0.2772490084171295,0.01850550994277,0.249159574508667,0.4247119724750519
1629376571634,0.3108652830123901,0.0176763720810413,0.249159574508667,0.5264534950256348
1629376571681,0.3108652830123901,0.0119058396667242,0.249159574508667,0.5264534950256348
1629376571775,0.3108652830123901,-0.0124425124377012,0.2285904437303543,0.5264534950256348
1629376571806,0.3108652830123901,-0.0062297442927956,0.2103504687547683,0.5264534950256348
1629376572013,0.3108652830123901,0.0197516754269599,0.1906755864620208,0.5264534950256348
1629376572185,0.3108652830123901,0.0268351547420024,0.1891302466392517,0.5264534950256348
1629376572263,0.3108652830123901,0.0296571403741836,0.1891302466392517,0.5264534950256348
1629376572325,0.3086855113506317,0.0287692323327064,0.1852584928274154,0.5264534950256348
1629376572466,0.2980641424655914,0.0287692323327064,0.1808894127607345,0.5264534950256348
1629376572544,0.2840189933776855,0.0293306540697813,0.1808894127607345,0.5264534950256348
1629376572591,0.273479014635086,-0.011405685916543,0.1808894127607345,0.5264534950256348
1629376572778,0.2674112915992737,-0.0342587046325206,0.1808894127607345,0.5264534950256348
1629376572888,0.2674112915992737,-0.0386647880077362,0.1521040201187133,0.5264534950256348
1629376572950,0.2674112915992737,-0.030826061964035,0.0815363228321075,0.5264534950256348
1629376573015,0.2674112915992737,-0.0148657876998186,-0.04860570281744,0.5264534950256348
1629376573062,0.2674112915992737,0.0021456151735037,-0.0474806167185306,0.5264534950256348
1629376573234,0.2674112915992737,0.0230762995779514,0.0730091780424118,0.5264534950256348
1629376573343,0.2674112915992737,0.0257344096899032,0.1127582788467407,0.5264534950256348
1629376573640,0.2674112915992737,0.024419330060482,0.0992619544267654,0.5264534950256348
1629376573703,0.2674112915992737,0.0173515230417251,0.0712469890713691,0.5264534950256348
1629376573767,0.2674112915992737,0.0186713188886642,0.0626755952835083,0.5264534950256348
1629376573845,0.2674112915992737,0.0170523934066295,0.1285531371831894,0.5264534950256348
1629376574002,0.2674112915992737,0.0179628543555736,0.2396281510591507,0.5264534950256348
1629376574049,0.2674112915992737,0.0177682805806398,0.3040178418159485,0.5264534950256348
1629376574158,0.2674112915992737,0.0144416913390159,0.3088913261890411,0.5264534950256348
1629376574189,0.2674112915992737,0.0144416913390159,0.3088913261890411,0.5264534950256348
1629376574252,0.2674112915992737,0.0144416913390159,0.3088913261890411,0.5264534950256348
1629376574330,0.2674112915992737,0.0144416913390159,0.3088913261890411,0.5264534950256348
1629376574439,0.2674112915992737,0.0194315407425165,0.3088913261890411,0.5264534950256348
1629376574580,0.2674112915992737,0.02776332013309,0.3088913261890411,0.5264534950256348
