timestamp,TP9,AF7,AF8,TP10
1629376437349,0.0,0.0,0.0,0.0
1629376437454,0.0,0.0,0.0,0.0
1629376437527,0.0,0.0,0.0,0.0
1629376437609,0.0,0.0,0.0,0.0
1629376437725,0.0,0.0,0.0,0.0
1629376437911,0.0,0.0,0.0,0.0
1629376437993,0.0,0.0,0.0,0.0
1629376438078,0.0,0.0,0.0,0.0
1629376438119,0.0,0.0,0.0,0.0
1629376438199,0.0,0.0,0.0,0.0
1629376438345,0.0,0.0,0.0,0.0
1629376438522,0.0,0.0,0.0,0.0
1629376438561,0.0,0.0,0.0,0.0
1629376438669,0.0,0.0,0.0,0.0
1629376438746,0.0,0.0,0.0,0.0
1629376438815,0.0,0.0,0.0,0.0
1629376438918,0.0,0.0,0.0,0.0
1629376439100,0.0,0.0,0.0,0.0
1629376439152,0.0,0.0,0.0,0.0
1629376439271,0.0,0.0,0.0,0.0
1629376439381,0.0,0.0,0.0,0.0
1629376439519,0.0,0.0,0.0,0.0
1629376439633,0.360665887594223,0.0,0.5805025100708008,-0.259618878364563
1629376439685,0.3043449223041534,0.185607835650444,0.5628707408905029,-0.2344488650560379
1629376439776,0.2588077187538147,0.1186461746692657,0.5399163961410522,-0.1687149256467819
1629376439864,0.2175658941268921,0.0688892155885696,0.5197916626930237,-0.1040051877498626
1629376439966,0.1800804436206817,0.0260638706386089,0.4951115250587463,-0.0702353939414024
1629376440125,0.1460362672805786,-0.0088998451828956,0.4721299409866333,-0.072885051369667
1629376440215,0.1152524575591087,-0.0338932015001773,0.4556791186332702,-0.0938262119889259
1629376440435,0.0852338522672653,-0.05273013189435,0.4485571682453155,-0.1114596873521804
1629376440521,0.0579396411776542,-0.0707874447107315,0.4462794065475464,-0.1207845583558082
1629376440553,0.0392753630876541,-0.0896934196352958,0.4435834884643554,-0.0815149247646331
1629376440590,0.0415653325617313,-0.1080696135759353,0.4357555508613586,0.0254986304789781
1629376440673,0.0737200379371643,-0.126147374510765,0.4227445125579834,0.1644134074449539
1629376440784,0.0829493477940559,-0.1434556245803833,0.3993112444877624,0.3049185574054718
1629376440886,0.1155726015567779,-0.2237958908081054,0.3629631996154785,0.4173356294631958
1629376441081,0.1507317125797271,-0.30728280544281,0.3185319006443023,0.4864855110645294
1629376441124,0.1725701093673706,-0.3486593663692474,0.2852778732776642,0.5206997990608215
1629376441246,0.1913228631019592,-0.2938620448112488,0.3004740476608276,0.5355443954467773
1629376441311,0.2140385806560516,-0.160386711359024,0.398840993642807,0.5430431365966797
1629376441373,0.2413884103298187,-0.0265071298927068,0.5368599891662598,0.5476672649383545
1629376441527,0.2721066176891327,0.0723451972007751,0.6536270976066589,0.5579726696014404
1629376441620,0.2985453009605407,0.1285413056612014,0.7253645062446594,0.5771080851554871
1629376441772,0.3205628991127014,0.1577155292034149,0.7566034197807312,0.6006015539169312
1629376441873,0.3420417010784149,0.1706365942955017,0.7607795000076294,0.6228536367416382
1629376441934,0.3849272131919861,0.1786513775587082,0.7528754472732544,0.6462975740432739
1629376442049,0.4467345178127289,0.184204027056694,0.7453950643539429,0.6731059551239014
1629376442154,0.464355319738388,0.1896130442619323,0.7463998794555664,0.7228380441665649
1629376442186,0.4705512225627899,0.1985889375209808,0.7572271227836609,0.8090989589691162
1629376442325,0.4610418081283569,0.2104176878929138,0.7760199308395386,0.9121838212013244
1629376442459,0.4426813125610351,0.2220870107412338,0.7964467406272888,0.9963695406913756
1629376442535,0.4317034184932709,0.2294730693101883,0.8103161454200745,1.0475163459777832
1629376442650,0.5529083013534546,0.2286277562379837,0.8160548806190491,1.068996787071228
1629376442764,0.5751344561576843,0.2077274620532989,0.8080741763114929,1.0725245475769043
1629376442853,0.598966658115387,0.1558789610862732,0.7707436680793762,1.07062828540802
1629376442939,0.6249142289161682,0.0753397345542907,0.6928651332855225,1.0740524530410769
1629376443082,0.6538189649581909,-0.0110524194315075,0.584711492061615,1.0868679285049438
1629376443196,0.818680465221405,-0.0696500092744827,0.4770794808864593,1.1078981161117554
1629376443236,0.94352924823761,-0.1008379012346267,0.4130581319332123,1.128878474235535
1629376443361,1.014628529548645,-0.0978260859847068,0.4221753478050232,1.1429171562194824
1629376443479,1.0273562669754028,-0.0298685133457183,0.5083613395690918,1.1454616785049438
1629376443589,1.0028187036514282,0.1326794922351837,0.5281516909599304,1.141143560409546
1629376443697,0.9534058570861816,0.3445683717727661,0.5388910174369812,1.1287429332733154
1629376443745,0.9180221557617188,0.5421794652938843,0.5370748043060303,1.1024593114852903
1629376443813,0.905375361442566,0.6937756538391113,0.5201416611671448,1.071716070175171
1629376444028,0.9293959736824036,0.7179044485092163,0.4947921931743622,1.0657635927200315
1629376444118,0.9888915419578552,0.7452046871185303,0.4809620976448059,1.102213740348816
1629376444169,1.0633533000946045,0.7763969898223877,0.4849309921264648,1.1695784330368042
1629376444319,1.0633533000946045,0.7945348620414734,0.5001645684242249,1.23810613155365
1629376444424,1.0633533000946045,0.8021625280380249,0.521658182144165,1.2873690128326416
1629376444605,1.0633533000946045,0.8061106204986572,0.5573356747627258,1.3122254610061646
1629376444682,1.0633533000946045,0.8304663896560669,0.6117241978645325,1.332309603691101
1629376444720,1.0513218641281128,0.8628378510475159,0.7870367765426636,1.3474615812301636
1629376444841,1.0342622995376587,0.8987686634063721,1.0514771938323977,1.363383412361145
1629376444900,1.031810641288757,0.9375263452529908,1.116410255432129,1.3869248628616333
1629376444977,1.0606155395507812,0.9720316529273988,1.116410255432129,1.4231483936309814
1629376445080,1.1134487390518188,0.9870740175247192,1.116410255432129,1.467241883277893
1629376445194,1.1785346269607544,0.958092987537384,1.116410255432129,1.512458324432373
1629376445374,1.2556532621383667,0.839512825012207,1.116410255432129,1.554656982421875
1629376445420,1.2556532621383667,0.468080461025238,1.116410255432129,1.5861471891403198
1629376445465,1.2556532621383667,0.468080461025238,1.116410255432129,1.6011981964111328
1629376445739,1.2556532621383667,0.468080461025238,1.116410255432129,1.6011981964111328
1629376445830,1.2556532621383667,0.468080461025238,1.116410255432129,1.6011981964111328
1629376445901,1.2556532621383667,0.468080461025238,1.116410255432129,1.6011981964111328
1629376446036,1.2556532621383667,0.468080461025238,1.116410255432129,1.6011981964111328
1629376446122,1.2556532621383667,0.468080461025238,1.116410255432129,1.6011981964111328
1629376446247,1.2556532621383667,0.468080461025238,1.116410255432129,1.6011981964111328
1629376446311,0.9947937726974488,0.468080461025238,1.116410255432129,1.6011981964111328
1629376446385,0.9572084546089172,0.468080461025238,1.116410255432129,1.6011981964111328
1629376446437,0.9658265113830566,0.468080461025238,1.116410255432129,1.6011981964111328
1629376446471,1.0104186534881592,0.468080461025238,1.116410255432129,1.6011981964111328
1629376446549,1.0510698556900024,0.0964540764689445,1.116410255432129,1.6011981964111328
1629376446670,1.082170486450195,0.2642253041267395,1.116410255432129,1.3647040128707886
1629376446770,1.122913122177124,0.5788969993591309,1.116410255432129,1.3899662494659424
1629376446924,1.1972304582595823,0.870188295841217,0.837160587310791,1.4384732246398926
1629376447078,1.2873703241348269,1.074063062667847,1.0143719911575315,1.4384732246398926
1629376447159,1.358248591423035,1.1911966800689695,1.1080608367919922,1.4384732246398926
1629376447209,1.3897297382354736,1.1911966800689695,1.137260675430298,1.4384732246398926
1629376447254,1.3890771865844729,1.1911966800689695,1.123154878616333,1.4384732246398926
1629376447347,1.3793766498565674,1.1911966800689695,1.087837815284729,1.4384732246398926
1629376447493,1.3678141832351685,1.1911966800689695,1.0484458208084106,1.4384732246398926
1629376447609,1.3622013330459597,1.148068904876709,1.013252019882202,1.3745869398117063
1629376447701,1.3586384057998655,1.1070548295974731,0.9808170199394226,1.320639967918396
1629376447795,1.3527259826660156,1.0999163389205933,0.9516467452049256,1.2755528688430786
1629376447856,1.340802788734436,1.0981169939041138,0.9242389798164368,1.249014973640442
1629376447954,1.3204151391983032,1.0972747802734375,0.8977341055870056,1.191389799118042
1629376448120,1.2962186336517334,1.0939884185791016,0.897011399269104,1.103608250617981
1629376448188,1.270766019821167,1.0833052396774292,0.8902614712715149,0.9901971817016602
1629376448350,1.240382194519043,1.0470813512802124,0.8905390501022339,0.829860270023346
1629376448418,1.1970490217208862,0.9705079197883606,0.8520920872688293,0.4280949831008911
1629376448527,1.0930001735687256,0.7488217353820801,0.75516277551651,0.4280949831008911
1629376448621,0.9075826406478882,-0.1571757942438125,0.5922742486000061,0.4280949831008911
1629376448683,0.6590258479118347,-0.1571757942438125,0.3793224096298218,0.4280949831008911
1629376448811,0.4180969297885895,-0.1571757942438125,0.1837704628705978,0.4280949831008911
1629376448921,0.2881113588809967,-0.1571757942438125,0.0879572108387947,0.4280949831008911
1629376449014,0.2672933042049408,-0.1571757942438125,0.0670825019478797,0.4280949831008911
1629376449108,0.2704451084136963,-0.1709902733564376,0.038885910063982,0.4577532112598419
1629376449233,0.2838509976863861,-0.1154721602797508,0.0132894599810242,0.4853439033031463
1629376449280,0.3172904849052429,-0.044984433799982,-0.0376912578940391,0.5016800165176392
1629376449420,0.3702029287815094,0.0407548770308494,-0.0376912578940391,0.6272312998771667
1629376449514,0.5662559270858765,0.0471094883978366,-0.0376912578940391,0.7004179954528809
1629376449655,0.6515930891036987,0.0298808831721544,-0.0376912578940391,0.7335566282272339
1629376449687,0.6696079969406128,-0.0371191017329692,-0.0376912578940391,0.7458279132843018
1629376449782,0.6008944511413574,-0.5895065665245056,0.1248779296875,0.7550909519195557
1629376450048,0.5738764405250549,-0.576825737953186,0.0541769564151763,0.7421817779541016
1629376450111,0.5590682029724121,-0.5220445990562439,0.0036474138032644,0.7217048406600952
1629376450157,0.5476825833320618,-0.461706131696701,-0.0219874028116464,0.6943316459655762
1629376450345,0.5338006019592285,-0.4072939455509186,-0.0188009608536958,0.6642725467681885
1629376450439,0.514234721660614,-0.3701433837413788,-0.0024926669429987,0.6347135305404663
1629376450595,0.4896087944507599,-0.3467181622982025,0.0176496133208274,0.6044765710830688
1629376450673,0.464087039232254,-0.3344082832336426,0.0305431690067052,0.5742437839508057
1629376450751,0.4421709775924682,-0.3281576037406921,0.0313461609184742,0.5457340478897095
1629376450860,0.4244969189167022,-0.3195333778858185,0.0209858529269695,0.5183696746826172
1629376450892,0.4091887772083282,-0.309577077627182,0.0083370860666036,0.4927214980125427
1629376450923,0.3934175074100494,-0.2881609797477722,-0.0028339594136923,0.4011885225772857
1629376451079,0.3224076330661773,-0.2404740899801254,-0.0653983950614929,0.3058075606822967
1629376451157,0.2686566114425659,-0.1886321604251861,-0.109749749302864,0.230849027633667
1629376451251,0.2369578927755355,-0.1425673812627792,-0.1176753863692283,0.1754941344261169
1629376451391,0.2085222601890564,-0.1040760800242424,-0.0866847038269043,0.1022606343030929
1629376451438,0.1759016364812851,-0.0740488842129707,-0.0280007310211658,0.0004896119935438
1629376451563,0.1472609788179397,-0.0569524876773357,0.0453651696443557,-0.1017979979515075
1629376451720,0.1235044673085212,-0.0483588874340057,0.1176012381911277,-0.1665484011173248
1629376451813,0.1027080193161964,-0.0471101142466068,0.1784756332635879,-0.2026122659444809
1629376451877,0.105034701526165,-0.0405536256730556,0.2160705327987671,-0.1782667934894561
1629376451987,0.1871777325868606,-0.0315488241612911,0.2417934685945511,-0.0132972924038767
1629376452049,0.3894557356834411,-0.0186077337712049,0.2833012640476227,0.3228068649768829
1629376452174,0.6260372996330261,-0.0018536271527409,0.3519130647182464,0.6649569869041443
1629376452236,0.8218545317649841,0.0153997372835874,0.4326643347740173,0.6917160153388977
1629376452315,0.9521751999855042,0.0337029211223125,0.5013558268547058,0.7209815382957458
1629376452596,0.978264570236206,0.0445528998970985,0.5452136397361755,0.7530096769332886
1629376452627,1.007447600364685,0.0415237136185169,0.5657435655593872,0.7891039848327637
1629376452658,1.0395268201828003,0.0256858803331851,0.5726251006126404,0.8291537165641785
1629376452752,1.0750826597213743,0.0014759233454242,0.5747994184494019,0.8567500114440918
1629376452846,1.081665277481079,-0.0272317752242088,0.5705608129501343,0.8814351558685303
1629376453002,1.0882081985473633,-0.0272317752242088,0.5604762434959412,0.9038687348365784
1629376453080,1.0925649404525757,-0.0272317752242088,0.5425624251365662,0.9185994863510132
1629376453158,1.0931559801101685,-0.0272317752242088,0.5181474089622498,0.9224794507026672
1629376453346,1.0925451517105105,-0.0272317752242088,0.491523802280426,0.921451449394226
1629376453392,1.0915379524230957,-0.5608769655227661,0.4709669947624206,0.9184444546699524
1629376453455,1.081215500831604,-0.5390971302986145,0.452775239944458,0.9004085659980774
1629376453549,1.0380326509475708,-0.5310051441192627,0.4217387437820434,0.8102143406867981
1629376453674,0.9311869740486144,-0.5165839195251465,0.3610258102416992,0.460084468126297
1629376453814,0.7166786789894104,-0.4679829776287079,0.265304684638977,0.4491345584392547
1629376453879,0.2902120053768158,-0.3769012689590454,0.1450326889753341,0.4316354691982269
1629376454020,0.2579752206802368,-0.2673193514347076,0.0333476923406124,0.4103594422340393
1629376454098,0.2306174039840698,-0.177749827504158,-0.0275841858237981,0.3863125145435333
1629376454160,0.2100846320390701,-0.1242384240031242,-0.0430966988205909,0.3623848855495453
1629376454317,0.1965265721082687,-0.1054684668779373,-0.0519457422196865,0.3068783283233642
1629376454395,0.1671754270792007,-0.1095589697360992,-0.0662658959627151,0.2450004667043686
1629376454520,0.1335087567567825,-0.1218175217509269,-0.0869902446866035,0.172791838645935
1629376454598,0.1061325669288635,-0.1119681671261787,-0.1054359674453735,0.108455091714859
1629376454692,0.0990272760391235,-0.1064489334821701,-0.1139543056488037,0.0736778229475021
1629376454786,0.0990662202239036,-0.1018255650997161,-0.1054327934980392,0.0577894784510135
1629376455013,0.0849261581897735,-0.0912672281265258,-0.064064584672451,0.0258994959294796
1629376455075,0.056719072163105,-0.0724429711699485,-0.0044001964852213,-0.0323229916393756
1629376455185,0.0260718557983636,-0.0481166951358318,0.0579963065683841,-0.1157977953553199
1629376455278,0.0151250818744301,-0.0230089165270328,0.1201130598783493,-0.2109188437461853
1629376455403,0.0309171471744775,-0.0044179377146065,0.1911104172468185,-0.2929835915565491
1629376455575,0.0614931844174861,0.0040572336874902,0.2620285749435425,-0.3483538627624511
1629376455669,0.0967274010181427,0.0050888881087303,0.3277489840984344,-0.3810197412967682
1629376455700,0.1315709203481674,0.0032309251837432,0.3762373924255371,-0.3878014385700226
1629376455872,0.1658393591642379,0.0144897047430276,0.4099560678005218,-0.3837632238864898
1629376455903,0.1925849914550781,0.0470255874097347,0.4403076469898224,-0.3828098177909851
1629376455983,0.2031271159648895,0.087992362678051,0.4696211218833923,-0.3842718601226806
1629376456077,0.1955168396234512,0.1215951740741729,0.4939262270927429,-0.3822597861289978
1629376456217,0.1775144040584564,0.1407990604639053,0.5075520873069763,-0.3693614304065704
1629376456295,0.1651518493890762,0.1530211865901947,0.5152605175971985,-0.3304503560066223
1629376456327,0.1659002900123596,0.1619999855756759,0.5141913890838623,-0.2731407880783081
1629376456436,0.17824088037014,0.1682614833116531,0.5038949251174927,-0.2105398476123809
1629376456498,0.1947155445814132,0.1689469814300537,0.4877949953079223,-0.167050153017044
1629376456623,0.2113830745220184,0.1653432846069336,0.4692300856113434,-0.1413682103157043
1629376456782,0.2235173135995865,0.1593132019042968,0.4474702775478363,-0.1247495636343956
1629376456845,0.2261281907558441,0.1507685631513595,0.412472516298294,-0.1144739985466003
1629376456985,0.2221042960882187,0.1414601057767868,0.3649556636810303,-0.1076705232262611
1629376457016,0.2078105509281158,0.1304777860641479,0.3061599135398865,-0.1023996248841285
1629376457127,0.1881789118051529,0.1156015247106552,0.2515763342380523,-0.099334180355072
1629376457221,0.1658151745796203,0.0898817107081413,0.2035969644784927,-0.0938073024153709
1629376457362,0.1498897820711136,0.0522331781685352,0.1511851400136947,-0.0756027400493621
1629376457469,0.1464899480342865,0.0119109926745295,0.098977006971836,-0.0463628694415092
1629376457565,0.1539298593997955,-0.0227189101278781,0.0645474046468734,-0.0158993955701589
1629376457625,0.1601051092147827,-0.0446561202406883,0.0713748335838317,0.0059702503494918
1629376457806,0.1525832861661911,-0.0576411336660385,0.1017925068736076,0.0072950031608343
1629376457851,0.1317745298147201,-0.0672948434948921,0.137000560760498,-0.0075974115170538
1629376458133,0.0994037091732025,-0.0845284834504127,0.155337706208229,-0.0344751477241516
1629376458226,0.0594746507704257,-0.1033406183123588,0.1548776775598526,-0.0575027503073215
1629376458400,0.0145634245127439,-0.1210768371820449,0.1424156874418258,-0.073243610560894
1629376458479,-0.0222399644553661,-0.1311997473239898,0.1415492892265319,-0.0753396973013877
1629376458525,-0.0329995118081569,-0.1153833419084549,0.1845360398292541,-0.0569962821900844
1629376458697,-0.0184238776564598,-0.0760740339756012,0.2664538919925689,-0.0283634141087532
1629376458776,0.0188729166984558,-0.0302772466093301,0.3494351506233215,-0.0025835835840553
1629376458842,0.0611252896487712,0.0144237596541643,0.4106899201869964,0.0141994450241327
1629376458873,0.0921668261289596,0.0537872090935707,0.4447878003120422,0.019827390089631
1629376458998,0.1015296205878257,0.0762099027633667,0.461787462234497,0.0087226824834942
1629376459045,0.0962313562631607,0.083511583507061,0.4714708626270294,-0.014224954880774
1629376459154,0.0875913947820663,0.0834046527743339,0.4761006236076355,-0.0429240129888057
1629376459232,0.0790638178586959,0.0791193321347236,0.4731341302394867,-0.0679648965597152
1629376459279,0.0744561627507209,0.075964018702507,0.4684076011180877,-0.0740003287792205
1629376459560,0.0734897404909133,0.0737252607941627,0.4743466079235077,-0.0624700151383876
1629376459607,0.0874307677149772,0.0869550183415412,0.5070727467536926,-0.0392690449953079
1629376459654,0.1211109384894371,0.1206667423248291,0.5696479082107544,-0.013971671462059
1629376459685,0.1612383276224136,0.166284829378128,0.6373022198677063,0.0114750992506742
1629376459811,0.1899404227733612,0.2047841548919677,0.6879362463951111,0.0354290343821048
1629376459923,0.1984237879514694,0.2193531543016433,0.7074955701828003,0.0600426159799099
1629376459970,0.1913273632526397,0.206553652882576,0.6960870623588562,0.099661648273468
1629376460111,0.1823320984840393,0.1729047447443008,0.6722938418388367,0.147665798664093
1629376460251,0.1798969954252243,0.1292800456285476,0.6518526673316956,0.1924308091402053
1629376460370,0.1815340667963028,0.0823481380939483,0.6429988741874695,0.2286594212055206
1629376460557,0.190701812505722,0.048402514308691,0.6472356915473938,0.2609676122665405
1629376460651,0.1998652815818786,0.0326164402067661,0.6596277952194214,0.2893845736980438
1629376460682,0.2099307775497436,0.0311508346349,0.677479088306427,0.3097983598709106
1629376460745,0.2317735254764557,0.0459912382066249,0.7036522626876831,0.3217697739601135
1629376460844,0.2593495845794678,0.0653280466794967,0.7300297617912292,0.3255875408649444
1629376460920,0.2813233137130737,0.0851029828190803,0.7488515973091125,0.3239941000938415
1629376461060,0.2872140407562256,0.0863835215568542,0.7464315295219421,0.3199538886547088
1629376461123,0.27323117852211,0.0615727417171001,0.7178568243980408,0.3138338923454284
1629376461232,0.2532139122486114,0.015805123373866,0.6762481331825256,0.3040737807750702
1629376461310,0.2420478761196136,-0.0343751013278961,0.6385226249694824,0.2885709702968597
1629376461420,0.240664467215538,-0.0751658678054809,0.6190232634544373,0.2644940316677093
1629376461513,0.2416955381631851,-0.0992017984390258,0.619369626045227,0.2220229208469391
1629376461716,0.2323458790779113,-0.1124700978398323,0.623310387134552,0.1658660471439361
1629376461872,0.207963615655899,-0.1234099045395851,0.6273932456970215,0.1082200929522514
1629376461954,0.1918713003396988,-0.1324713677167892,0.6394638419151306,0.0734180659055709
1629376461985,0.219502717256546,-0.1451126933097839,0.6726363897323608,0.0852546393871307
1629376462017,0.298009842634201,-0.163952887058258,0.726531982421875,0.1559240072965622
1629376462126,0.3854579031467438,-0.1884795129299163,0.7851104736328125,0.2534215152263641
1629376462220,0.4481087923049927,-0.2239127606153488,0.824120283126831,0.3399105668067932
1629376462298,0.4784902036190033,-0.2630269527435303,0.8390743136405945,0.3974705934524536
1629376462423,0.4886453449726105,-0.2982170879840851,0.8353434205055237,0.428619772195816
1629376462533,0.4943097829818725,-0.3136094808578491,0.8284804224967957,0.4390361905097961
1629376462610,0.5076566338539124,-0.3230756521224975,0.8231863975524902,0.4481336772441864
1629376462876,0.5238862037658691,-0.3426473736763,0.8141844272613525,0.4682698547840118
1629376463144,0.5341883301734924,-0.3777249157428741,0.8011847734451294,0.499113917350769
1629376463238,0.5424046516418457,-0.4060102105140686,0.7865733504295349,0.5368629693984985
1629376463285,0.5607467293739319,-0.369366317987442,0.7831964492797852,0.5607321262359619
1629376463410,0.5812062621116638,-0.0627613365650177,0.7963992953300476,0.5868247747421265
1629376463456,0.60563725233078,0.355979859828949,0.8109769821166992,0.6149295568466187
1629376463628,0.6270111799240112,0.7385452389717102,0.8223382830619812,0.639884352684021
1629376463691,0.6301184296607971,0.7681054472923279,0.8130714893341064,0.6528758406639099
1629376463722,0.6041613221168518,0.7998474836349487,0.7669847011566162,0.6422369480133057
1629376463785,0.5510428547859192,0.8339463472366333,0.6715673804283142,0.6065095067024231
1629376463925,0.4849205315113067,0.8704167604446411,0.5362054705619812,0.5544847249984741
1629376464006,0.4378263056278229,0.909393310546875,0.386689692735672,0.509297788143158
1629376464084,0.4308471977710724,0.9514607787132264,0.2643858194351196,0.4936392307281494
1629376464256,0.4527906477451324,0.9982619881629944,0.1766435801982879,0.5281737446784973
1629376464303,0.4712260365486145,1.052414059638977,0.1218980252742767,0.5281737446784973
1629376464396,0.4712260365486145,1.116340160369873,0.1218980252742767,0.5281737446784973
1629376464459,0.4712260365486145,1.193234920501709,0.1218980252742767,0.5281737446784973
1629376464553,0.4712260365486145,1.2879923582077026,0.1218980252742767,0.5281737446784973
1629376464616,0.4712260365486145,1.3027867078781128,0.1218980252742767,0.5281737446784973
1629376464678,1.5261106491088867,1.2755337953567505,0.1218980252742767,0.5281737446784973
1629376464774,1.5562939643859863,1.1443040370941162,0.1218980252742767,0.5281737446784973
1629376464868,1.5604673624038696,0.3585081994533539,0.1218980252742767,0.5281737446784973
1629376464977,1.546839952468872,0.3239315748214721,0.1218980252742767,1.3128809928894043
1629376465071,1.5235471725463867,0.2864239513874054,1.1052632331848145,1.274755358695984
1629376465133,1.5043046474456787,0.2412602305412292,1.0554471015930176,1.262978196144104
1629376465336,1.4944697618484497,0.1942651718854904,1.0202819108963013,1.262978196144104
1629376465383,1.4862444400787354,0.1510207802057266,0.9881235957145692,1.262978196144104
1629376465508,1.4736895561218262,0.1137018278241157,0.956462860107422,1.2539066076278689
1629376465649,1.456059455871582,0.0869126841425895,0.9236941933631896,1.2277255058288574
1629376465808,1.4354207515716553,0.068825215101242,0.8906846642494202,1.1934690475463867
1629376465855,1.4150636196136477,0.0584829971194267,0.8587247133255005,1.160327434539795
1629376465917,1.397571086883545,0.0524760261178016,0.8277248740196228,1.132238268852234
1629376466120,1.3708640336990356,0.0474862046539783,0.796710193157196,1.1059765815734863
1629376466183,1.327592849731445,-0.03530890122056,0.7663456797599792,1.0802007913589478
1629376466214,1.2621476650238037,-0.084997110068798,0.7375922203063965,1.0095553398132324
1629376466402,1.185054063796997,-0.1245907247066497,0.639946699142456,0.9241801500320436
1629376466464,1.1100409030914309,-0.1553435176610946,0.5264243483543396,0.8473701477050781
1629376466558,1.0470978021621704,-0.1647440940141677,0.4200434684753418,0.7812547087669373
1629376466651,0.9993000626564026,-0.1439170390367508,0.3414291441440582,0.7124351859092712
1629376466761,0.951135754585266,-0.0984810218214988,0.2769387662410736,0.6022910475730896
1629376466858,0.899965226650238,-0.0530694015324115,0.2077907472848892,0.5883839726448059
1629376466920,0.8638650178909302,-0.022560641169548,0.146291583776474,0.6010642647743225
1629376467029,0.874136745929718,-0.0033637322485446,0.099356010556221,0.5713571906089783
1629376467139,0.9429227709770204,0.0070544434711337,0.0731758624315261,0.6436783671379089
1629376467186,0.938508152961731,0.0098054194822907,0.0653131306171417,0.7679845094680786
1629376467420,0.9390708804130554,0.0120239118114113,0.0676928088068962,0.8899244070053101
1629376467467,0.9417185187339784,0.0305752977728843,0.0906382650136947,0.9838305711746216
1629376467545,0.9553622007369996,0.0721844211220741,0.1723352968692779,1.049308180809021
1629376467576,0.9814120531082152,0.1234053969383239,0.2931644916534424,1.0924972295761108
1629376467685,1.0208531618118286,0.1406161934137344,0.3197532594203949,1.118106484413147
1629376467877,1.0671465396881104,0.1599169671535492,0.3473549485206604,1.1475611925125122
1629376467939,1.1174010038375854,0.1744402199983596,0.3758252561092376,1.180306077003479
1629376467986,1.1727677583694458,0.1825411468744278,0.4061474800109863,1.2167624235153198
1629376468143,1.23668110370636,0.1812996864318847,0.4363745450973511,1.2571860551834106
1629376468189,1.30955970287323,0.1727472841739654,0.4610442221164703,1.3010544776916504
1629376468293,1.30955970287323,0.1675258129835128,0.4795877635478973,1.3467777967453003
1629376468493,1.30955970287323,0.1789624840021133,0.4990843534469604,1.390872597694397
1629376468555,1.30955970287323,0.2075462341308593,0.5225304961204529,1.427221179008484
1629376468696,1.30955970287323,0.2489703744649887,0.5552852749824524,1.4495927095413208
1629376468759,1.30955970287323,0.3090909421443939,0.6028041839599609,1.4530973434448242
1629376468805,1.30955970287323,0.3090909421443939,0.6028041839599609,1.4530973434448242
1629376468918,1.30955970287323,0.3090909421443939,0.6028041839599609,1.4530973434448242
1629376469011,1.30955970287323,0.3090909421443939,0.6028041839599609,1.4530973434448242
1629376469089,1.30955970287323,0.3090909421443939,0.6028041839599609,1.4530973434448242
1629376469230,1.30955970287323,0.3375501632690429,0.6028041839599609,1.4530973434448242
1629376469339,1.30955970287323,0.3375501632690429,0.6028041839599609,1.4530973434448242
1629376469575,1.30955970287323,0.3375501632690429,0.6028041839599609,1.4530973434448242
1629376469716,1.30955970287323,0.3375501632690429,0.6028041839599609,1.4530973434448242
1629376469794,1.30955970287323,0.3375501632690429,0.6028041839599609,1.4530973434448242
1629376469825,1.30955970287323,0.3375501632690429,0.6028041839599609,1.4530973434448242
1629376469856,1.30955970287323,0.3375501632690429,0.6028041839599609,1.4530973434448242
1629376469952,1.30955970287323,0.3375501632690429,0.6028041839599609,1.4530973434448242
1629376470062,1.30955970287323,0.3085513412952423,0.6028041839599609,1.4530973434448242
1629376470202,1.30955970287323,0.2729205787181854,0.6028041839599609,1.4530973434448242
1629376470311,1.30955970287323,0.2408826500177383,0.6028041839599609,1.4530973434448242
1629376470405,1.30955970287323,0.2167062163352966,0.6028041839599609,1.4530973434448242
1629376470468,1.30955970287323,0.2155807912349701,0.6028041839599609,1.4530973434448242
1629376470499,1.30955970287323,0.229987233877182,0.6028041839599609,1.4530973434448242
1629376470639,1.30955970287323,0.260492205619812,0.6028041839599609,1.4530973434448242
1629376470749,1.30955970287323,0.2441742420196533,0.6028041839599609,1.4530973434448242
1629376470908,1.30955970287323,0.2855756282806396,0.6028041839599609,1.4530973434448242
1629376470955,1.30955970287323,0.3003414273262024,0.6028041839599609,1.4530973434448242
1629376471049,1.30955970287323,0.2933576703071594,0.6028041839599609,1.4530973434448242
1629376471158,1.30955970287323,0.2811821699142456,0.6028041839599609,1.4530973434448242
1629376471221,0.0126154469326138,0.2701962888240814,0.8344565629959106,0.5536584258079529
1629376471564,-0.0243404041975736,0.2617416977882385,0.7596695423126221,0.6254941821098328
1629376471627,-0.0545535832643508,0.2502523362636566,0.7030476331710815,0.6826545596122742
1629376471720,-0.0754879340529441,0.2387225776910781,0.6649339199066162,0.7295458316802979
1629376471767,-0.0983670204877853,0.2281437963247299,0.6402316093444824,0.7636706233024597
1629376471892,-0.1108066588640213,0.2163773626089096,0.6183946132659912,0.778397262096405
1629376471974,-0.1089489161968231,0.2025351524353027,0.5932594537734985,0.773811399936676
1629376472036,-0.0747980028390884,0.1821198761463165,0.5658544898033142,0.7736231684684753
1629376472192,0.0040813283994793,0.1490342170000076,0.5442390441894531,0.7964677214622498
1629376472255,0.0917571634054184,0.0982938036322593,0.5324599742889404,0.8395575284957886
1629376472349,0.1567374169826507,0.0332787409424781,0.5271152853965759,0.8852466344833374
1629376472411,0.1882064938545227,-0.0263293404132127,0.517851710319519,0.9111075401306152
1629376472505,0.1954279541969299,-0.0661603808403015,0.3945142328739166,0.934023916721344
1629376472708,0.2015295177698135,-0.0838394537568092,0.3099915683269501,0.9374349117279052
1629376472755,0.2144530564546585,-0.1036975011229515,0.2463412135839462,0.9296292066574096
1629376472833,0.2235876619815826,-0.1363944113254547,0.2147376090288162,0.9141891002655028
1629376472975,0.2308200001716613,-0.1806530207395553,0.1932277381420135,0.8923935294151306
1629376473085,0.2402538657188415,-0.2159211188554763,0.1829323470592498,0.8684282302856445
1629376473133,0.2520820498466491,-0.215884193778038,0.20635686814785,0.8428375124931335
1629376473198,0.2752907872200012,-0.148265540599823,0.32429039478302,0.8158051371574402
1629376473291,0.3135624527931213,-0.0254034325480461,0.5222513675689697,0.7910408973693848
1629376473401,0.3607226908206939,0.1030348464846611,0.7097181677818298,0.7723843455314636
1629376473494,0.4000158607959747,0.2061119079589843,0.8414689898490906,0.7488207817077637
1629376473635,0.4168119430541992,0.270204484462738,0.914417803287506,0.7025784254074097
1629376473729,0.4006665647029876,0.2925585508346557,0.9362542629241944,0.626639723777771
1629376473822,0.3801284730434418,0.3106633722782135,0.958172619342804,0.5381147861480713
1629376473901,0.3701776564121246,0.3243865072727203,0.984389066696167,0.5538058876991272
1629376473994,0.3763865232467651,0.3381969332695007,1.016879916191101,0.7270606756210327
1629376474119,0.3924646973609924,0.358563631772995,1.0558571815490725,0.9309934377670288
1629376474198,0.909068763256073,0.3896122574806213,1.10058856010437,1.082868576049805
1629376474275,1.1023880243301392,0.432151734828949,1.1510305404663086,1.1723911762237549
1629376474385,1.1835111379623413,0.4841113686561584,1.2081035375595093,1.2139887809753418
1629376474541,1.2260555028915403,0.5440899133682251,1.27125084400177,1.2278718948364258
1629376474650,1.2734309434890747,0.6069539785385132,1.2702633142471311,1.230046272277832
1629376474744,1.27149498462677,0.6590041518211365,1.2390305995941162,1.228522777557373
1629376474807,1.2633841037750244,0.6590041518211365,1.1499168872833252,1.2264117002487185
1629376474900,1.251511812210083,0.6590041518211365,0.9798819422721864,1.225155234336853
1629376475043,1.2384332418441772,0.6590041518211365,0.6997472047805786,1.224623441696167
1629376475121,1.2272679805755615,0.6590041518211365,0.2570317387580871,1.2248549461364746
1629376475200,1.1794044971466064,-0.0417224392294883,0.2360444515943527,1.2232882976531982
1629376475309,1.1371078491210938,-0.0399203076958656,0.2113161385059356,1.2155948877334597
1629376475403,1.0999720096588137,-0.0374574698507785,0.2025578618049621,1.187335968017578
1629376475512,1.068163275718689,-0.0482956208288669,0.2093268483877182,1.1181446313858032
1629376475653,1.042785882949829,-0.0530311539769172,0.2652789950370788,0.9878373146057128
1629376475762,0.8410862684249878,-0.0414596609771251,0.362057089805603,0.7848727703094482
1629376475828,0.5821284651756287,-0.0192901492118835,0.4715195894241333,0.5224509239196777
1629376476000,0.3508816659450531,-0.0023752772249281,0.5685778260231018,0.2696755528450012
1629376476078,0.3973938524723053,0.0092059932649135,0.6669891476631165,0.1107118874788284
1629376476203,0.4234589338302612,0.0250718351453542,0.8003370761871338,0.0452521741390228
1629376476265,0.4608394205570221,0.0474133305251598,0.9442646503448486,0.0332569926977157
1629376476312,0.5016211271286011,0.0697956606745719,0.9695361256599426,0.0505650974810123
1629376476437,0.5328204035758972,0.0857947841286659,0.997315526008606,0.0782876014709472
1629376476562,0.5566752552986145,0.090098813176155,1.0462757349014282,0.1138227358460426
1629376476796,0.5725105404853821,0.0832471325993537,1.0606905221939087,0.170561209321022
1629376476871,0.5802736282348633,0.0702324956655502,1.0644508600234983,0.2437280118465423
1629376476909,0.578819751739502,0.051894012838602,1.0659838914871216,0.3199756741523742
1629376477018,0.5730879306793213,0.0305590331554412,1.067537784576416,0.3799518942832947
1629376477284,0.5667935013771057,0.015836302191019,1.06841778755188,0.4142017662525177
1629376477362,0.5572898983955383,0.005086375400424,1.0627057552337646,0.4285953938961029
1629376477393,0.5363972187042236,-0.0074548632837831,1.0459911823272705,0.4416109621524811
1629376477565,0.496743381023407,-0.0232328306883573,1.0184112787246704,0.4577508270740509
1629376477612,0.4463261663913727,-0.0410861894488334,0.987114667892456,0.4751694500446319
1629376477706,0.4024544060230255,-0.0590122900903224,0.9556584358215332,0.4955050051212311
1629376477737,0.373254656791687,-0.074927419424057,0.916022539138794,0.5135462880134583
1629376477784,0.3474931716918945,-0.092392660677433,0.8564614653587341,0.5239256620407104
1629376477899,0.325929194688797,-0.1191079765558242,0.9348889589309692,0.5245603322982788
1629376477975,0.3066917657852173,-0.1435198187828064,0.9731239080429076,0.520517110824585
1629376478115,0.2850063443183899,-0.1634618490934372,0.9596656560897828,0.508680522441864
1629376478240,0.266160637140274,-0.173355221748352,0.9630472660064696,0.4781478643417358
1629376478400,0.2553586363792419,-0.1753128618001938,0.972309112548828,0.4249888360500335
1629376478432,0.2598959803581238,-0.1676662117242813,0.9771879315376282,0.3514405190944671
1629376478650,0.271695613861084,-0.1632408797740936,0.9766653180122375,0.2749435603618622
1629376478697,0.2783167064189911,-0.1660238653421402,0.9746658205986024,0.2172723710536956
1629376478951,0.2787860333919525,-0.1782912015914917,0.9745668172836304,0.1864403337240219
1629376479091,0.2762479782104492,-0.1986388266086578,0.9786610007286072,0.1609974950551986
1629376479215,0.2808631956577301,-0.2221927940845489,0.9870521426200868,0.1579853445291519
1629376479293,0.2919938862323761,-0.2277352660894394,0.9943238496780396,0.2554537057876587
1629376479481,0.2962545454502105,-0.2127443104982376,0.9867202043533324,0.2330732494592666
1629376479559,0.2870970070362091,-0.2059598565101623,0.953783929347992,0.2097146958112716
1629376479684,0.2612207531929016,-0.2155948281288147,0.8966810703277588,0.1917805522680282
1629376479752,0.2161621898412704,-0.2168672531843185,0.8340107798576355,0.1889807730913162
1629376479936,0.1737563461065292,-0.1975580602884292,0.7862297892570496,0.1933130472898483
1629376479999,0.1486470401287078,-0.160980686545372,0.7651524543762207,0.8965579867362976
1629376480077,0.1333799660205841,-0.1254643052816391,0.7615575790405273,1.1439214944839478
1629376480202,0.1333799660205841,-0.1031118556857109,0.7606538534164429,1.2666141986846924
1629376480311,0.1333799660205841,-0.0855257585644722,0.7626566290855408,1.319389581680298
1629376480405,0.1333799660205841,-0.0598717927932739,0.7658373713493347,1.36447012424469
1629376480436,0.1333799660205841,-0.0295498017221689,0.7673537135124207,1.4149694442749023
1629376480467,0.1333799660205841,-0.0028169851284474,0.942434787750244,1.472097873687744
1629376480592,0.1333799660205841,0.0154133448377251,0.939470648765564,1.5373107194900513
1629376480670,0.1333799660205841,0.0228142701089382,0.9312281012535096,1.611276626586914
1629376480813,0.1333799660205841,0.0163253154605627,0.9169817566871644,1.6900707483291626
1629376480845,0.2526182234287262,-0.0036272415891289,0.9006661772727966,1.6900707483291626
1629376480892,0.2682801187038421,-0.0278991423547267,0.8787919878959656,1.6900707483291626
1629376480970,0.2770128846168518,-0.050558615475893,0.8459085822105408,1.6900707483291626
1629376481126,0.2672728896141052,-0.0776508003473281,0.8001604676246643,1.6900707483291626
1629376481188,0.2444179207086563,-0.1110006645321846,0.7557353377342224,1.6900707483291626
1629376481329,0.2195746600627899,-0.1492371708154678,0.7190475463867188,1.6900707483291626
1629376481376,0.2110907584428787,-0.1665782183408737,0.7064565420150757,1.6900707483291626
1629376481454,0.2450686544179916,-0.1348247677087783,0.735687255859375,1.6900707483291626
1629376481516,0.329526275396347,-0.0441947877407074,0.8198168873786926,1.6900707483291626
1629376481548,0.4293607175350189,0.066343255341053,0.9291247129440308,1.6900707483291626
1629376481610,0.5097631812095642,0.1668181419372558,1.024753451347351,0.1529599279165268
1629376481735,0.555992841720581,0.2316164672374725,0.969748079776764,0.1581699699163437
1629376481847,0.5794872641563416,0.2654346823692322,1.011785626411438,0.1373764425516128
1629376481956,0.5908651351928711,0.2834800779819488,1.028988242149353,0.0991775691509246
1629376482019,0.5929639935493469,0.2977737784385681,1.0330973863601685,0.0573225356638431
1629376482097,0.584900438785553,0.3099063038825989,1.031643033027649,0.0222101267427206
1629376482222,0.5748514533042908,0.3238853514194488,1.032061219215393,0.0019963220693171
1629376482347,0.5675521492958069,0.3364590108394623,1.0353209972381592,-0.0010946238180622
1629376482425,0.5644930601119995,0.3446443676948547,1.0394212007522583,0.0009250930161215
1629376482518,0.5644122362136841,0.3493050932884216,1.0429654121398926,-0.0007272139773704
1629376482638,0.5651471614837646,0.3509966731071472,1.044158935546875,-0.0139007987454533
1629376482700,0.5611039400100708,0.3443867862224579,1.036319613456726,-0.0294974371790885
1629376482810,0.5429907441139221,0.3238463699817657,1.0101318359375,-0.0417069345712661
1629376482969,0.4967565238475799,0.2780402898788452,0.9491117000579834,-0.049725204706192
1629376483032,0.4113548099994659,0.2024149596691131,0.8387386202812195,-0.0584631264209747
1629376483125,0.2864681184291839,0.0981922373175621,0.6769833564758301,-0.066372126340866
1629376483219,0.1410054862499237,-0.0042349398136138,0.4813430905342102,-0.0727030858397483
1629376483391,0.0151331946253776,-0.078994520008564,0.3014674186706543,-0.0538071319460868
1629376483609,-0.0647299587726593,-0.1250931918621063,0.1787352114915847,-0.0047965357080101
1629376483688,-0.0998424664139747,-0.1596114784479141,0.1283250451087951,0.0537743307650089
1629376483719,-0.0998313501477241,-0.1874535530805587,0.1261917799711227,0.0990406423807144
1629376483844,-0.1059146672487258,-0.2254182398319244,0.1132586225867271,0.1212588027119636
1629376483891,-0.1246058642864227,-0.2647690176963806,0.0773261934518814,0.1221872717142105
1629376483937,-0.1374293118715286,-0.2798880934715271,0.0282192025333642,0.1183676868677139
1629376484047,-0.1371260434389114,-0.2569291591644287,-0.0208064205944538,0.115624763071537
1629376484187,-0.1337432116270065,-0.2134017050266266,-0.0604270696640014,0.1240824908018112
1629376484234,-0.1213548555970192,-0.1653183400630951,-0.090684100985527,0.137967899441719
1629376484313,-0.0861044228076934,-0.1204342097043991,-0.1055605635046958,0.1567442417144775
1629376484437,-0.019223179668188,-0.0799064487218856,-0.107442982494831,0.1820891946554184
1629376484531,0.0725468471646308,-0.0451238751411438,-0.1046952009201049,0.2191915512084961
1629376484765,0.1633225530385971,-0.0139780919998884,-0.1042633056640625,0.252749502658844
1629376484828,0.2360361069440841,0.0220945905894041,-0.0155914509668946,0.2744381725788116
1629376484875,0.2931497991085052,0.0584464743733406,0.1908029466867447,0.2730697393417358
1629376485033,0.3609161078929901,0.1048542410135269,0.4573733508586883,0.2605714797973633
1629376485127,0.4446368217468261,0.1617281138896942,0.6986467838287354,0.252792477607727
1629376485299,0.5202285647392273,0.2146272808313369,0.8750178813934326,0.2553791999816894
1629376485377,0.575274646282196,0.2533691823482513,0.9853794574737548,0.2632644176483154
1629376485424,0.6034520268440247,0.2719700634479522,1.0412495136260986,0.2688255608081817
1629376485518,0.6134312152862549,0.2721540033817291,1.0641398429870603,0.2659863233566284
1629376485564,0.6219682693481445,0.2600568234920501,1.072078824043274,0.2668157815933227
1629376485627,0.6353693008422852,0.2443453073501587,1.0737833976745603,0.2712224721908569
1629376485721,0.6471890807151794,0.2286825180053711,1.0738255977630615,0.2755410969257355
1629376485830,0.6477838158607483,0.2137661278247833,1.0734632015228271,0.2690048515796661
1629376486036,0.6329339146614075,0.1988978087902069,1.0727044343948364,0.2433462888002395
1629376486146,0.6054722666740417,0.1816304922103881,1.0715229511260986,0.1965446174144745
1629376486208,0.5728768110275269,0.1591115146875381,1.0699223279953003,0.1491171866655349
1629376486302,0.545423150062561,0.1271673291921615,1.063878059387207,0.1220139041543006
1629376486473,0.5324757695198059,0.095044657588005,1.04585862159729,0.1283789426088333
1629376486520,0.522218644618988,0.0553794801235199,1.0054993629455566,0.1376357525587082
1629376486598,0.497185081243515,-0.0040896572172641,0.9323115348815918,0.1272732764482498
1629376486723,0.4582282304763794,-0.0794610157608985,0.8265954852104187,0.1012705564498901
1629376486755,0.4116386175155639,-0.1551247686147689,0.7065148949623108,0.0797409638762474
1629376486864,0.3787899911403656,-0.2003231197595596,0.610908031463623,0.0778690502047538
1629376486989,0.3620675802230835,-0.208317756652832,0.5608912110328674,0.0967140719294548
1629376487167,0.3407050371170044,-0.202524796128273,0.5528271794319153,0.1166146323084831
1629376487245,0.3050416111946106,-0.2031767219305038,0.5871942043304443,0.133377730846405
1629376487323,0.2660951912403106,-0.2036422491073608,0.6437831521034241,0.1537326723337173
1629376487510,0.2401095032691955,-0.1976553797721862,0.7005882263183594,0.1810904145240783
1629376487557,0.2307984828948974,-0.1845001131296157,0.7416718602180481,0.202365294098854
1629376487604,0.230632022023201,-0.1697026193141937,0.7639911770820618,0.2113606631755828
1629376487651,0.2311119437217712,-0.1561163067817688,0.7778693437576294,0.203329786658287
1629376487838,0.2266675531864166,-0.1428706347942352,0.7915979623794556,0.1829244792461395
1629376488010,0.2138228267431259,-0.124797485768795,0.8038394451141357,0.1577070951461792
1629376488139,0.198415145277977,-0.0953463464975357,0.8132482767105103,0.1424520611763
1629376488217,0.1901251822710037,-0.0590369626879692,0.8207892179489136,0.1412390172481537
1629376488280,0.1895438581705093,-0.0305957198143005,0.825537919998169,0.1514210402965545
1629376488371,0.1955409944057464,-0.0125982724130153,0.8291638493537903,0.1617994904518127
1629376488527,0.2021948993206024,-0.0010649060131981,0.834433913230896,0.1649864912033081
1629376488605,0.2059664577245712,0.008356356061995,0.8388975262641907,0.1559333801269531
1629376488684,0.2254759222269058,0.0288782808929681,0.841103196144104,0.1358837634325027
1629376488762,0.2937179803848266,0.0752868205308914,0.8543573021888733,0.1200875788927078
1629376488824,0.4233800768852234,0.1502237766981125,0.8977243304252625,0.1334901005029678
1629376488903,0.5796379446983337,0.2450351566076278,0.9756710529327391,0.1938327550888061
1629376489077,0.6076686978340149,0.3347567319869995,1.06712543964386,0.2761649787425995
1629376489233,0.6373541951179504,0.3994351327419281,1.0852417945861816,0.3516067564487457
1629376489295,0.6686304807662964,0.4390943944454193,1.1091816425323486,0.4053840637207031
1629376489405,0.7095562219619751,0.4614986777305603,1.1333884000778198,0.441963791847229
1629376489498,0.7301355004310608,0.4837639629840851,1.1567213535308838,0.4656687378883362
1629376489530,0.746696949005127,0.514303982257843,1.1750088930130005,0.475428968667984
1629376489670,0.7651932239532471,0.5463867783546448,1.186415195465088,0.4739488959312439
1629376489847,0.7928528189659119,0.5775423645973206,1.197651743888855,0.466867059469223
1629376489923,0.8223870992660522,0.5986416935920715,1.219557523727417,0.4626833796501159
1629376489970,0.8492993712425232,0.6124215126037598,1.2607520818710327,0.468224823474884
1629376490095,0.8843098878860474,0.6226091980934143,1.325230598449707,0.4832030534744262
1629376490345,0.919963836669922,0.6286717057228088,1.4096871614456177,0.5013037323951721
1629376490408,0.9428143501281738,0.6256803274154663,1.4096871614456177,0.5079867243766785
1629376490454,0.9296462535858154,0.6097120642662048,1.4096871614456177,0.4916794896125793
1629376490548,0.8079130053520203,0.5795906186103821,1.4096871614456177,0.4446688890457153
1629376490673,0.770905613899231,0.5414057970046997,1.4096871614456177,0.3762300908565521
1629376490720,0.7397658824920654,0.5081706643104553,1.4096871614456177,0.3031845092773437
1629376490879,0.7208797931671143,0.484442263841629,0.4201481938362121,0.2496611028909683
1629376490942,0.7024388909339905,0.4683396518230438,0.3524496257305145,0.2179493457078933
1629376491084,0.6929585933685303,0.4424570202827453,0.3040209114551544,0.1960604339838028
1629376491178,0.6639308929443359,0.3930534720420837,0.2784755527973175,0.181509643793106
1629376491224,0.6029481291770935,0.3254129588603973,0.2862770557403564,0.1714824587106704
1629376491584,0.5027316212654114,0.2484396696090698,0.320572018623352,0.1625763028860092
1629376491662,0.3798830509185791,0.1860648542642593,0.3505348265171051,0.1486507207155227
1629376491709,0.3507575988769531,0.1372700631618499,0.3617050945758819,0.1218000650405883
1629376491740,0.3349964916706085,0.0908349007368087,0.3565096855163574,0.0926698744297027
1629376491834,0.3368178308010101,0.0416960529983043,0.3502089083194732,0.076191522181034
1629376491961,0.3503848612308502,0.00145850260742,0.3818524777889251,0.0823613256216049
1629376492070,0.3701336979866028,-0.0213273465633392,0.4760154187679291,0.0966555848717689
1629376492133,0.381694346666336,-0.037537470459938,0.5815836787223816,0.0999184399843216
1629376492226,0.3980584740638733,-0.0620857886970043,0.7020536661148071,0.089060440659523
1629376492320,0.3987502455711365,-0.1008072644472122,0.7867502570152283,0.067389078438282
1629376492367,0.37883061170578,-0.1429556608200073,0.8310796022415161,0.0335381403565406
1629376492539,0.3467598855495453,-0.1757078170776367,0.848910927772522,-0.0089021706953644
1629376492586,0.3290199339389801,-0.1899966746568679,0.8546158075332642,-0.0486622378230094
1629376492617,0.3367931842803955,-0.1905706971883773,0.8536521196365356,-0.0774723887443542
1629376492758,0.3696019649505615,-0.1871612966060638,0.8479670286178589,-0.0902485027909278
1629376492804,0.4090971648693084,-0.1922058910131454,0.8386199474334717,-0.0927633419632911
1629376492898,0.4436885714530945,-0.2002135217189788,0.8326907157897949,-0.0973081737756729
1629376492976,0.4702768921852112,-0.196854367852211,0.8379423022270203,-0.1063956543803215
1629376493132,0.4866192638874054,-0.1758820414543151,0.8544154763221741,-0.1383091062307357
1629376493164,0.4903387427330017,-0.1512309610843658,0.8709954619407654,-0.1975556164979934
1629376493320,0.4841786623001098,-0.1389656364917755,0.8725754022598267,-0.2646033465862274
1629376493398,0.467034101486206,-0.1446563303470611,0.8438869714736938,-0.2938160598278045
1629376493507,0.4400560259819031,-0.1641662120819091,0.7788982391357422,-0.251244455575943
1629376493554,0.4082528054714203,-0.1926979720592498,0.6822550892829895,-0.159646064043045
1629376493679,0.390447586774826,-0.2151223123073578,0.5903829336166382,-0.0658154562115669
1629376493775,0.3871977925300598,-0.2185801267623901,0.5481183528900146,0.0039559616707265
1629376493885,0.3928823173046112,-0.1976178437471389,0.5811267495155334,0.0419094301760196
1629376493963,0.4060395061969757,-0.156987190246582,0.6791980862617493,0.0566414557397365
1629376494088,0.4226012527942657,-0.1023993194103241,0.7995876669883728,0.0576612167060375
1629376494166,0.4329907596111297,-0.0507191345095634,0.8951560854911804,0.05552189797163
1629376494323,0.4369180202484131,-0.0013997906353324,0.9585320353507996,0.0593066923320293
1629376494400,0.4364441633224487,0.0424321293830871,0.9928398728370668,0.0759897455573082
1629376494557,0.4301826655864715,0.0738072544336319,1.0035322904586792,0.1037631332874298
1629376494650,0.4165148735046386,0.0858821347355842,0.999365508556366,0.1389679163694381
1629376494697,0.4038231670856476,0.0896803140640258,0.9943937659263612,0.1680075824260711
1629376494775,0.3950877785682678,0.0962810069322586,0.9933594465255736,0.1824196577072143
1629376494916,0.3981921076774597,0.1087276935577392,0.9951038956642152,0.1810016632080078
1629376494978,0.4183505177497864,0.1246048286557197,0.9989781379699708,0.1675331443548202
1629376495135,0.4438057839870453,0.1371338069438934,1.0030205249786377,0.1406398862600326
1629376495197,0.4634600877761841,0.1437044739723205,1.002273678779602,0.1033666357398033
1629376495369,0.472282201051712,0.1454582065343856,0.99592387676239,0.0652369633316993
1629376495431,0.4663161635398865,0.1416647732257843,0.9784798622131348,0.039819698780775
1629376495572,0.4415917992591858,0.1313621401786804,0.9371976256370544,0.0323567353188991
1629376495681,0.4011586606502533,0.1109447926282882,0.8651039004325867,0.040900882333517
1629376495778,0.351939857006073,0.0815300941467285,0.776782751083374,0.0549958497285842
1629376495856,0.3045484721660614,0.0408156812191009,0.692030131816864,0.0677673444151878
1629376495934,0.2698537409305572,-0.0103450389578938,0.6363393664360046,0.0811801552772522
1629376496043,0.2628394663333893,-0.0586403161287307,0.6429696083068848,0.0908218473196029
1629376496106,0.2948871850967407,-0.0704323947429657,0.7205991744995117,0.0895042270421981
1629376496262,0.3501884043216705,-0.0328886173665523,0.8293615579605103,0.0742586478590965
1629376496372,0.4029797911643982,0.0309275370091199,0.9331846833229064,0.0533942393958568
1629376496418,0.4340214431285858,0.0902437716722488,1.0091365575790403,0.0349648557603359
1629376496622,0.4378854632377624,0.1323178857564926,1.050133228302002,0.0185525044798851
1629376496637,0.4284518659114837,0.1614346504211425,1.062479019165039,0.0060219382867217
1629376496715,0.420074850320816,0.1878072023391723,1.0625172853469849,-0.007021153345704
1629376496812,0.4193664789199829,0.2120111584663391,1.062444090843201,-0.0161993857473135
1629376497001,0.4272136092185974,0.2282480150461197,1.0640438795089722,-0.0182710830122232
1629376497143,0.4420434236526489,0.2383738905191421,1.0648504495620728,-0.0057142795994877
1629376497226,0.4587792158126831,0.2468283027410507,1.0659308433532717,0.0197726301848888
1629376497281,0.4755493104457855,0.2547927498817444,1.0671894550323486,0.0549106076359748
1629376497315,0.4906680881977081,0.2627994120121002,1.0672903060913086,0.0909187570214271
1629376497446,0.5048476457595825,0.2713379263877868,1.0634548664093018,0.1468333899974823
1629376497602,0.5258563756942749,0.2763322293758392,1.0472204685211182,0.2567256689071655
1629376497692,0.5567787885665894,0.2708921432495117,1.007429122924805,0.4046283066272735
1629376497796,0.6001096963882446,0.2441564947366714,0.9335487484931946,0.5436002016067505
1629376497878,0.5835430026054382,0.1969369053840637,0.8239818811416626,0.6548737287521362
1629376497960,0.5722492933273315,0.137550488114357,0.6972696781158447,0.7298688292503357
1629376498033,0.6857588887214661,0.077707290649414,0.5941285490989685,0.7796010375022888
1629376498198,0.7584031224250793,0.0253212396055459,0.548856794834137,0.8136625289916992
1629376498330,0.7889257669448853,-0.0266023967415094,0.5384892821311951,0.837644100189209
1629376498426,0.794217586517334,-0.0788988023996353,0.5243545174598694,0.8521391153335571
1629376498531,0.791138768196106,-0.1238206997513771,0.4983677864074707,0.8617284297943115
1629376498568,0.7851284146308899,-0.166032537817955,0.4643101692199707,0.865433394908905
1629376498715,0.7743383646011353,-0.2121319323778152,0.4229221940040588,0.8636347651481628
1629376498796,0.7618813514709473,-0.2516522407531738,0.37940114736557,0.8585665225982666
1629376498882,0.7516052722930908,-0.2729914486408233,0.3427934646606445,0.8526769876480103
1629376499010,0.7420203685760498,-0.2726259231567383,0.3210662305355072,0.8398301005363464
1629376499127,0.7243396043777466,-0.2552505135536194,0.3110164105892181,0.8099530935287476
1629376499194,0.6866579651832581,-0.2361658960580825,0.2936073839664459,0.7536072134971619
1629376499246,0.6139383316040039,-0.220201626420021,0.2666458785533905,0.6721266508102417
1629376499449,0.5915006399154663,-0.2168658822774887,0.2220515012741089,0.5702149868011475
1629376499532,0.5707276463508606,-0.2247621864080429,0.1561956107616424,0.467937558889389
1629376499654,0.4151346385478973,-0.2412061244249344,0.070283755660057,0.3728406727313995
1629376499738,0.2434904277324676,-0.255028486251831,-0.0139404237270355,0.2835309505462646
1629376499786,0.1159693673253059,-0.2569436132907867,-0.0777539387345314,0.1999280452728271
1629376499918,0.052184097468853,-0.2514422833919525,-0.1166020631790161,0.1348588615655899
1629376500028,0.0162459854036569,-0.2468552738428115,-0.137914091348648,0.0787264555692672
1629376500113,-0.0127573460340499,-0.2493675649166107,-0.1430143415927887,0.0381393171846866
1629376500238,-0.0262159053236246,-0.2618843913078308,-0.1504902690649032,0.0171042773872613
1629376500327,-0.0334488674998283,-0.2846804559230804,-0.1646845489740371,0.0083523802459239
1629376500385,-0.0495211221277713,-0.3207944929599762,-0.1928227096796035,0.0054683643393218
1629376500512,-0.0775978118181228,-0.3694221675395965,-0.2476603090763092,0.0109741920605301
1629376500636,-0.1137220337986946,-0.4253507256507873,-0.3332387506961822,0.0196497440338134
1629376500688,-0.148884579539299,-0.4705089032649994,-0.4318093657493591,0.0334071405231952
1629376500840,-0.1680050641298294,-0.4868737757205963,-0.5135650038719177,0.068364217877388
1629376500907,-0.1712400317192077,-0.4817838370800018,-0.5534323453903198,0.1162662357091903
1629376500996,-0.1737828999757766,-0.4783588349819183,-0.5579636096954346,0.1634979844093322
1629376501104,-0.1680412143468856,-0.4838042557239532,-0.5459361672401428,0.1950369030237198
1629376501202,-0.1503963768482208,-0.4897235631942749,-0.5430911183357239,0.2102659195661544
1629376501333,-0.1265686303377151,-0.4848456680774688,-0.563631534576416,0.2156643569469452
1629376501418,-0.1090218350291252,-0.4699154794216156,-0.6068596839904785,0.2191559821367263
1629376501529,-0.0887859314680099,-0.4467499852180481,-0.6523808836936951,0.229731947183609
1629376501611,-0.0685185343027114,-0.4052141010761261,-0.6797953844070435,0.2468619346618652
1629376501743,-0.0377022251486778,-0.3427104353904724,-0.678162693977356,0.2675134241580963
1629376501887,0.0101874014362692,-0.2680970132350921,-0.6471583843231201,0.2888987958431244
1629376501967,0.0646302253007888,-0.1977602392435073,-0.6060152053833008,0.3054504096508026
1629376502027,0.1174778118729591,-0.1514729857444763,-0.5702990293502808,0.313183069229126
1629376502122,0.1668351590633392,-0.1312248110771179,-0.5451642274856567,0.3089163899421692
1629376502224,0.2139892578125,-0.1315349787473678,-0.530737042427063,0.2952342331409454
1629376502344,0.2560321688652038,-0.1415700167417526,-0.5212277173995972,0.2633461654186249
1629376502451,0.2877861559391022,-0.154037520289421,-0.5080776214599609,0.2161395847797393
1629376502534,0.3083562850952148,-0.1620537638664245,-0.4888139963150024,0.1570929735898971
1629376502747,0.3197315335273742,-0.1653905063867569,-0.4747622013092041,0.1035104021430015
1629376502854,0.3243115246295929,-0.1681218594312667,-0.4635264575481415,0.0675411969423294
1629376502920,0.3368721604347229,-0.1751304268836975,-0.4434956908226013,0.0608320012688636
1629376502962,0.3575820028781891,-0.1049585789442062,-0.4211272597312927,0.0671382471919059
1629376503055,0.3814384043216705,-0.1035997495055198,-0.3421125710010528,0.0684534609317779
1629376503152,0.4072380661964416,-0.1072615459561348,-0.3247469365596771,0.0611158795654773
1629376503258,0.4296449422836303,-0.1224214658141136,-0.3125451207160949,0.0413574501872062
1629376503352,0.4430772364139557,0.6612694263458252,-0.3085713386535644,0.0037898933514952
1629376503550,0.448137491941452,0.92026287317276,-0.3130296766757965,-0.0545536428689956
1629376503635,0.4468264877796173,1.0469603538513184,-0.3172264397144317,-0.1156779378652572
1629376503713,0.4372845590114593,1.1089870929718018,-0.3128000497817993,-0.1527536958456039
1629376503840,0.4140011668205261,1.1391668319702148,-0.2931998670101166,-0.1614144742488861
1629376503888,0.3727861046791076,1.1547061204910278,-0.2628334164619446,-0.1402188539505005
1629376503930,0.3727861046791076,1.1614474058151243,-0.236374631524086,-0.1238770931959152
1629376504096,0.3727861046791076,1.1649713516235352,-0.2274305522441864,-0.1238770931959152
1629376504183,0.3727861046791076,1.1663886308670044,-0.2085642218589782,-0.1238770931959152
1629376504334,0.3727861046791076,1.1674171686172483,-0.2085642218589782,-0.1238770931959152
1629376504408,0.3727861046791076,1.1700890064239502,-0.2085642218589782,-0.1238770931959152
1629376504440,0.3727861046791076,1.173005223274231,-0.2085642218589782,1.093490719795227
1629376504574,0.3727861046791076,1.1618462800979614,-0.2085642218589782,1.2449064254760742
1629376504632,0.3727861046791076,1.1618462800979614,-0.2085642218589782,1.2449064254760742
1629376504802,0.3727861046791076,1.1618462800979614,-0.2085642218589782,1.2449064254760742
1629376504977,0.3727861046791076,1.0712260007858276,-0.2085642218589782,1.2449064254760742
1629376505053,0.3727861046791076,0.9366328120231628,-0.2085642218589782,1.2449064254760742
1629376505192,0.3727861046791076,0.7786521315574646,-0.2085642218589782,1.2449064254760742
1629376505255,0.3727861046791076,0.6346510052680969,-0.2085642218589782,1.2449064254760742
1629376505304,0.3727861046791076,0.5331515669822693,-0.2085642218589782,1.2449064254760742
1629376505365,0.3727861046791076,0.4773483276367187,-0.2085642218589782,1.2449064254760742
1629376505478,0.3727861046791076,0.4796282649040222,-0.2085642218589782,1.2449064254760742
1629376505592,0.3727861046791076,0.5172579288482666,-0.2085642218589782,1.2449064254760742
1629376505742,0.3727861046791076,0.5931427478790283,-0.2085642218589782,1.2930141687393188
1629376505788,0.3727861046791076,0.5931427478790283,-0.2085642218589782,1.2930141687393188
1629376505904,0.3727861046791076,0.5931427478790283,-0.2085642218589782,1.2930141687393188
1629376506043,0.3727861046791076,0.5931427478790283,-0.2085642218589782,1.2930141687393188
1629376506114,0.3727861046791076,0.5931427478790283,-0.2085642218589782,1.2930141687393188
1629376506296,0.3727861046791076,0.5931427478790283,-0.2085642218589782,1.2930141687393188
1629376506335,0.3727861046791076,0.5931427478790283,-0.2085642218589782,1.2930141687393188
1629376506384,0.3727861046791076,0.5931427478790283,-0.2085642218589782,1.2930141687393188
1629376506504,0.3727861046791076,0.5931427478790283,-0.2085642218589782,1.2930141687393188
1629376506570,0.3727861046791076,0.5931427478790283,0.3902010321617126,1.2930141687393188
1629376506687,0.3727861046791076,0.5931427478790283,0.6046530604362488,1.2930141687393188
1629376506868,0.3727861046791076,0.5931427478790283,0.763279139995575,1.2930141687393188
1629376506930,0.3727861046791076,0.5931427478790283,0.8524532318115234,1.2930141687393188
1629376507004,0.3727861046791076,0.5931427478790283,0.8802944421768188,1.2930141687393188
1629376507164,0.3727861046791076,0.5931427478790283,0.8660607933998108,1.2930141687393188
1629376507205,0.3727861046791076,0.5931427478790283,0.8335360884666443,1.2930141687393188
1629376507425,0.3727861046791076,0.5931427478790283,0.7989603281021118,1.2930141687393188
1629376507500,0.3727861046791076,0.5931427478790283,0.7741930484771729,1.2930141687393188
1629376507546,0.3727861046791076,0.5931427478790283,0.7727046012878418,1.2930141687393188
1629376507694,0.3727861046791076,0.5931427478790283,0.8000930547714233,1.2930141687393188
1629376507815,0.3727861046791076,0.5931427478790283,0.8433225154876709,1.2930141687393188
1629376507956,0.3727861046791076,0.5931427478790283,0.9038156270980836,1.2930141687393188
1629376508054,0.3727861046791076,0.5931427478790283,0.9439005851745604,1.2930141687393188
1629376508116,0.3727861046791076,1.4273464679718018,0.9576666951179504,1.2930141687393188
1629376508210,0.3727861046791076,1.3488807678222656,0.9479069709777832,1.2930141687393188
1629376508273,0.3727861046791076,1.27715802192688,0.9428882002830504,1.2930141687393188
1629376508326,0.3727861046791076,1.27715802192688,0.9198028445243835,1.2930141687393188
1629376508417,0.3727861046791076,1.27715802192688,0.8894481062889099,1.2930141687393188
1629376508651,0.3727861046791076,1.27715802192688,0.8731669187545776,1.2930141687393188
1629376508714,0.3727861046791076,1.27715802192688,0.8850941061973572,1.2930141687393188
1629376508761,0.3727861046791076,1.27715802192688,0.9191203117370604,1.2930141687393188
1629376508886,0.3727861046791076,1.27715802192688,0.963958501815796,1.2930141687393188
1629376509026,0.3727861046791076,1.27715802192688,1.009338617324829,1.2930141687393188
1629376509104,0.3727861046791076,1.27715802192688,1.0403412580490112,1.2930141687393188
1629376509183,0.3727861046791076,1.2460441589355469,1.037548542022705,1.2930141687393188
1629376509370,0.3727861046791076,1.125908136367798,0.9811011552810668,1.2930141687393188
1629376509464,0.3727861046791076,1.125908136367798,0.9811011552810668,1.2930141687393188
1629376509495,0.3727861046791076,1.125908136367798,0.9811011552810668,1.2930141687393188
1629376509604,0.3727861046791076,1.125908136367798,0.9811011552810668,1.2930141687393188
1629376509636,0.3727861046791076,1.125908136367798,0.9811011552810668,1.2930141687393188
1629376509776,0.3727861046791076,1.125908136367798,0.9811011552810668,1.2930141687393188
1629376509858,0.3727861046791076,1.125908136367798,0.9811011552810668,1.2930141687393188
1629376509983,0.3727861046791076,1.125908136367798,0.9811011552810668,1.2930141687393188
1629376510077,0.3727861046791076,1.125908136367798,0.9811011552810668,1.2930141687393188
1629376510233,0.3727861046791076,1.125908136367798,0.9811011552810668,1.2930141687393188
1629376510295,0.3727861046791076,1.125908136367798,0.9811011552810668,1.2930141687393188
1629376510372,0.3727861046791076,1.125908136367798,0.9811011552810668,1.2930141687393188
1629376510419,0.3727861046791076,1.125908136367798,0.9811011552810668,1.2930141687393188
1629376510622,1.4384585618972778,1.125908136367798,0.9811011552810668,1.2930141687393188
1629376510669,1.5513461828231812,1.125908136367798,0.9811011552810668,1.2930141687393188
1629376510732,1.5513461828231812,1.125908136367798,0.1024756729602813,1.2930141687393188
1629376510875,1.5513461828231812,1.125908136367798,0.1734124422073364,1.2930141687393188
1629376511063,1.5513461828231812,1.125908136367798,0.2266839742660522,1.2930141687393188
1629376511157,1.5513461828231812,1.125908136367798,0.2611561417579651,1.2930141687393188
1629376511203,1.5513461828231812,1.125908136367798,0.2753470242023468,1.2930141687393188
1629376511282,1.5513461828231812,1.125908136367798,0.2716525793075561,1.2930141687393188
1629376511453,1.5513461828231812,1.125908136367798,0.2565548419952392,1.2930141687393188
1629376511516,1.4911330938339231,1.125908136367798,0.24236860871315,1.2930141687393188
1629376511594,1.4911330938339231,1.125908136367798,0.2254770547151565,1.2930141687393188
1629376511641,1.4911330938339231,1.125908136367798,0.2059983909130096,1.2930141687393188
1629376511766,1.5022022724151611,-0.2808437645435333,0.1855610907077789,1.2930141687393188
1629376511847,1.5351192951202393,-0.1946798115968704,0.1660155206918716,1.1819403171539309
1629376512003,1.5351192951202393,-0.1367082297801971,0.1671657115221023,1.1633498668670654
1629376512128,1.5351192951202393,-0.1133292838931083,0.1583274900913238,1.136546969413757
1629376512237,1.5351192951202393,-0.1136043816804885,0.1358187645673751,1.1012018918991089
1629376512300,0.9224355816841124,-0.126862570643425,0.0994300246238708,1.0614643096923828
1629376512378,0.858881950378418,-0.1492763459682464,0.0501272566616535,1.020218849182129
1629376512456,0.8050115704536438,-0.172063872218132,-0.0044301901943981,0.981452703475952
1629376512628,0.7565153241157532,-0.1865216493606567,-0.0473943054676055,0.945814311504364
1629376512706,0.741764485836029,-0.1911356896162033,-0.0585747994482517,0.918708086013794
1629376512911,0.7759266495704651,-0.1889781355857849,-0.0275322664529085,0.9100328087806702
1629376512958,0.8466684222221375,-0.1842057853937149,0.0294850282371044,0.9281943440437316
1629376513020,0.9261063933372498,-0.1689425110816955,0.1008775606751442,0.9778246879577636
1629376513098,0.9850619435310364,-0.1466846913099289,0.1799282431602478,1.0253381729125977
1629376513192,1.0096194744110107,-0.1242543011903762,0.2429227977991104,1.0086101293563845
1629376513286,1.0087249279022217,-0.1069144308567047,0.2839979827404022,0.9893337488174438
1629376513395,0.997211456298828,-0.0975215137004852,0.3237670361995697,0.9723424315452576
1629376513551,0.997211456298828,-0.0883790180087089,0.3809510469436645,0.9611108303070068
1629376513708,0.986396551132202,-0.0629955381155014,0.4657472372055053,0.9601975679397584
1629376513786,0.9925823211669922,-0.024357046931982,0.5532047748565674,0.975384533405304
1629376513914,1.0139509439468384,0.013519081287086,0.6237224340438843,1.0067185163497925
1629376513992,1.0450096130371094,0.0515015199780464,0.6878893971443176,1.2669354677200315
1629376514038,1.0821938514709473,0.1454198956489563,0.7138504981994629,1.3204114437103271
1629376514101,1.1266577243804932,0.349243015050888,0.7384064793586731,1.383550047874451
1629376514242,1.167344093322754,0.5993454456329346,0.760994553565979,1.4554338455200195
1629376514288,1.191844463348389,0.6242619752883911,0.781419038772583,1.5331764221191406
1629376514492,1.1863631010055542,0.6508514881134033,0.8013541102409363,1.5331764221191406
1629376514554,1.1363227367401123,0.6796636581420898,0.8184994459152222,1.5331764221191406
1629376514637,1.1363227367401123,0.7104917764663696,0.8335636854171753,1.5331764221191406
1629376514699,1.1363227367401123,0.743678092956543,0.8561810255050659,1.5331764221191406
1629376514840,1.1363227367401123,0.7795631289482117,0.8947826623916626,1.5331764221191406
1629376514887,1.1363227367401123,0.8197160959243774,1.1480722427368164,1.5331764221191406
1629376514999,1.1363227367401123,0.8656959533691406,1.3148247003555298,1.5331764221191406
1629376515124,1.1363227367401123,0.9176003336906432,1.400075912475586,1.5331764221191406
1629376515265,1.1363227367401123,0.979158341884613,1.4256386756896973,1.5331764221191406
1629376515327,1.1363227367401123,1.058836579322815,1.419153332710266,1.5331764221191406
1629376515437,1.1363227367401123,1.058836579322815,1.395488977432251,1.5331764221191406
1629376515546,1.1363227367401123,1.058836579322815,1.330965876579285,1.5331764221191406
1629376515624,1.1363227367401123,1.058836579322815,1.275335431098938,1.5331764221191406
1629376515734,1.1363227367401123,1.058836579322815,1.2262253761291504,1.5331764221191406
1629376515874,1.1363227367401123,1.058836579322815,1.182247757911682,1.5331764221191406
1629376515937,1.1363227367401123,1.058836579322815,1.1428042650222778,1.5331764221191406
1629376516080,1.1620792150497437,0.0522648245096206,1.108008861541748,1.5331764221191406
1629376516174,1.1620792150497437,0.2158343493938446,1.077746033668518,1.5331764221191406
1629376516220,1.1620792150497437,0.3984476625919342,1.056240439414978,1.5331764221191406
1629376516330,1.1620792150497437,0.5528913140296936,1.0480769872665403,1.5331764221191406
1629376516423,1.1620792150497437,0.6529970169067383,0.9693297147750854,1.263535499572754
1629376516642,1.1620792150497437,0.7047860622406006,0.8635226488113403,1.2218455076217651
1629376516816,1.1620792150497437,0.7177215814590454,0.7560448050498962,1.1841144561767578
1629376516863,1.0924971103668213,0.7081407904624939,0.682831883430481,1.1445047855377195
1629376516925,1.027922511100769,0.6874786615371704,0.653217613697052,1.0999387502670288
1629376516988,0.9683550000190736,0.660921573638916,0.6492053866386414,1.0549094676971436
1629376517066,0.915363073348999,0.6348233819007874,0.653913140296936,1.0133858919143677
1629376517159,0.8692122101783752,0.6106793880462646,0.6597628593444824,0.9756178259849548
1629376517238,0.7785998582839966,0.613071620464325,0.6642746329307556,0.9410160779953004
1629376517363,0.6332753300666809,0.6163472533226013,0.678177535533905,0.910276472568512
1629376517456,0.4206724762916565,0.6177607178688049,0.7242789268493652,0.8185319304466248
1629376517628,0.1177411526441574,0.616416335105896,0.8229289054870605,0.7199059128761292
1629376517706,0.1262683123350143,0.606237530708313,0.94874370098114,0.6410939693450928
1629376517777,0.1363463103771209,0.57676100730896,1.0580508708953855,0.6705706715583801
1629376517980,0.1385712772607803,0.5187397599220276,1.1252795457839966,0.6915654540061951
1629376518042,0.1313019543886184,0.4377023577690124,1.126572608947754,0.6515883207321167
1629376518089,0.1201826483011245,0.3452618718147278,1.1242839097976685,0.5985435843467712
1629376518183,0.113429844379425,0.2643948197364807,1.1299391984939575,0.5402867794036865
1629376518323,0.0536444932222366,0.2097999602556228,1.1510871648788452,0.5004000067710876
1629376518433,0.0336031839251518,0.1834008991718292,1.1595332622528076,0.4986538290977478
1629376518573,0.0418360978364944,0.1867775917053222,1.1784162521362305,0.5308547616004944
1629376518620,0.074423536658287,0.202761173248291,1.2013986110687256,0.5890622735023499
1629376518683,0.1204512864351272,0.2204502373933792,1.2209854125976562,0.65152907371521
1629376518761,0.1952983289957046,0.2397445887327194,1.2395349740982056,0.6765169501304626
1629376518873,0.2953981757164001,0.2589713335037231,1.2567082643508911,0.7022855877876282
1629376519013,0.3971669673919678,0.277823805809021,1.2604185342788696,0.7241380214691162
1629376519091,0.4767540991306305,0.2849760353565216,1.2314221858978271,0.7337385416030884
1629376519154,0.4912668168544769,0.2764331698417663,1.1640281677246094,0.722740650177002
1629376519279,0.5062730312347412,0.2497090101242065,1.0650752782821655,0.6905320882797241
1629376519388,0.5256335139274597,0.2097703665494918,0.9692245721817015,0.645082414150238
1629376519591,0.5516225695610046,0.1699980348348617,0.993316411972046,0.6052451133728027
1629376519654,0.5832144021987915,0.1505066603422165,1.0243206024169922,0.5998285412788391
1629376519685,0.6167659759521484,0.154693141579628,1.0243206024169922,0.6163465976715088
1629376519891,0.6461784243583679,0.1669401079416275,1.0243206024169922,0.6393915414810181
1629376519954,0.6664904356002808,0.1716401726007461,1.0406494140625,0.6644267439842224
1629376519985,0.6767448782920837,0.1574049890041351,1.0499521493911743,0.6811769604682922
1629376520110,0.6760873198509216,0.1272145807743072,1.0328799486160278,0.6659699082374573
1629376520219,0.6705173254013062,0.0904885903000831,1.0068665742874146,0.626943051815033
1629376520298,0.6517686247825623,0.0460355542600154,0.9784526228904724,0.6445583701133728
1629376520376,0.6009172797203064,-0.0136768510565161,0.9430914521217346,0.6560124754905701
1629376520563,0.5127946138381958,-0.0893437191843986,0.9052753448486328,0.6624296307563782
1629376520641,0.401794970035553,-0.1518276035785675,0.875511646270752,0.6646126508712769
1629376520782,0.3974684774875641,-0.1671495884656906,0.8461900949478149,0.6590628027915955
1629376520813,0.4188222885131836,-0.1118829101324081,0.8099552989006042,0.6474518179893494
1629376520957,0.4571830630302429,-0.0057977880351245,0.7578575015068054,0.6374421119689941
1629376521004,0.4918105006217956,0.10390505194664,0.6854084134101868,0.6395002603530884
1629376521113,0.5105091333389282,0.1963565945625305,0.6058458089828491,0.6388323903083801
1629376521254,0.5024847984313965,0.2666091322898865,0.7118849158287048,0.6350411772727966
1629376521317,0.478979229927063,0.330264151096344,0.8423981666564941,0.6255586743354797
1629376521410,0.4653496444225311,0.345566838979721,0.9554144740104676,0.6018471717834473
1629376521504,0.484345406293869,0.3696278929710388,1.0274218320846558,0.5643253326416016
1629376521645,0.495207667350769,0.4007004797458648,1.07423734664917,0.5428938865661621
1629376521738,0.5055403113365173,0.4359076023101806,1.099514126777649,0.586661696434021
1629376521816,0.514938473701477,0.4743430912494659,1.118462324142456,0.5692118406295776
1629376521947,0.5323730707168579,0.5158180594444275,1.144778847694397,0.5508172512054443
1629376522022,0.5578231811523438,0.5618969798088074,1.1733534336090088,0.5322710275650024
1629376522178,0.5870294570922852,0.6112003326416016,1.2036107778549194,0.5146303176879883
1629376522225,0.609169065952301,0.6572901010513306,1.2264184951782229,0.507564127445221
1629376522381,0.6100597381591797,0.694388210773468,1.2440544366836548,0.514432966709137
1629376522444,0.5787971615791321,0.7194462418556213,1.2523272037506104,0.5308730006217957
1629376522568,0.5199174880981445,0.7194462418556213,1.2492812871932983,0.5522871017456055
1629376522647,0.4549324810504913,0.7194462418556213,1.2351975440979004,0.5892091989517212
1629376522758,0.3950274288654327,0.7194462418556213,1.2006986141204834,0.6015957593917847
1629376522898,0.4550938606262207,0.7194462418556213,1.1312317848205566,0.613279402256012
1629376522945,0.5614627599716187,0.7194462418556213,1.0205905437469482,0.6219737529754639
1629376523008,0.6152521371841431,0.3448184728622436,0.8796393275260925,0.6367331743240356
1629376523133,0.6499141454696655,0.3141238093376159,0.7528949975967407,0.6172277331352234
1629376523273,0.6490408778190613,0.2734795212745666,0.6653239727020264,0.4314644932746887
1629376523351,0.6282014846801758,0.2300741672515869,0.58356112241745,0.4371147751808166
1629376523429,0.5967372059822083,0.1869969218969345,0.5548033118247986,0.4336448013782501
1629376523523,0.5657166838645935,0.1445766240358352,0.5295562148094177,0.4212696552276611
1629376523633,0.5489650964736938,0.1050729677081108,0.5057407021522522,0.4006499946117401
1629376523775,0.5464229583740234,0.0703992620110511,0.3784852921962738,0.3738738596439361
1629376523838,0.5487995147705078,0.0399795100092887,0.2234328389167785,0.343349814414978
1629376524009,0.5481031537055969,0.0144759071990847,0.0855974927544593,0.3136529624462127
1629376524056,0.5397990942001343,-0.0022642309777438,-0.0093514155596494,0.2907576262950897
1629376524150,0.5255985856056213,-0.0065587572753429,-0.0978126227855682,0.2714836001396179
1629376524259,0.5216554999351501,-0.0301534701138734,-0.2077393978834152,0.2448510974645614
1629376524415,0.5033482313156128,-0.0729053765535354,-0.3209845721721649,0.2115664184093475
1629376524540,0.4605801999568939,-0.1290448457002639,-0.4087639153003692,0.1878473311662674
1629376524572,0.4007610380649566,-0.1849410980939865,-0.4682362675666809,0.173301562666893
1629376524681,0.3433943092823028,-0.2231696397066116,-0.5040861964225769,0.1670770347118377
1629376524761,0.3017618656158447,-0.2338531017303466,-0.5398495197296143,0.1587292253971099
1629376524855,0.2786642611026764,-0.2289952039718628,-0.5820565223693848,0.1434575170278549
1629376524949,0.2720213234424591,-0.2220049649477005,-0.6388782262802124,0.1198051646351814
1629376525105,0.2687937915325165,-0.2167331725358963,-0.7122150659561157,0.1045662462711334
1629376525214,0.2542561590671539,-0.210021361708641,-0.7530151605606079,0.109544850885868
1629376525277,0.2211038172245025,-0.2025976628065109,-0.715873658657074,0.1418201476335525
1629376525386,0.1737045645713806,-0.196556881070137,-0.6225734949111938,0.1948476731777191
1629376525495,0.1216964870691299,-0.1942846179008484,-0.5228366255760193,0.2521137297153473
1629376525558,0.0808771252632141,-0.2004894018173217,-0.4434629678726196,0.2970337271690368
1629376525714,0.056419089436531,-0.2200822532176971,-0.3900650441646576,0.3267407417297363
1629376525764,0.0488872788846492,-0.2535485327243805,-0.3561659455299377,0.342552900314331
1629376525906,0.0553442053496837,-0.2919940948486328,-0.3261021673679352,0.348162442445755
1629376525969,0.0784888938069343,-0.3239925503730774,-0.2886198461055755,0.3460272252559662
1629376526047,0.1091731265187263,-0.3412443995475769,-0.2428809404373169,0.3326919078826904
1629376526234,0.1370771825313568,-0.3561833202838897,-0.2002057433128357,0.3094011545181274
1629376526312,0.1608278453350067,-0.3803782165050506,-0.1736803352832794,0.2848198115825653
1629376526453,0.1900728791952133,-0.4141617119312286,-0.1564723700284958,0.2745878398418426
1629376526515,0.2390358597040176,-0.4436302483081817,-0.1430217623710632,0.2880212962627411
1629376526593,0.3052020967006683,-0.4617255330085754,-0.132775142788887,0.312092661857605
1629376526687,0.3609667718410492,-0.4675052165985107,-0.1203107982873916,0.328495055437088
1629376526816,0.4019958078861236,-0.4379332959651947,-0.064722791314125,0.3257097899913788
1629376526956,0.4366904497146606,-0.3463235795497894,0.0666374415159225,0.3057500720024109
1629376527050,0.4750942289829254,-0.2193510085344314,0.2469375878572464,0.2833144962787628
1629376527128,0.5224564671516418,-0.0921036303043365,0.409861147403717,0.2814191579818725
1629376527253,0.5453736782073975,0.0100869387388229,0.5252819657325745,0.3166892230510711
1629376527362,0.5687869787216187,0.0732460469007492,0.5943543314933777,0.3695933520793915
1629376527425,0.5914722681045532,0.1087474599480629,0.6284753680229187,0.4157677590847015
1629376527534,0.6133047342300415,0.1266121864318847,0.6438552141189575,0.4500786066055298
1629376527644,0.6336471438407898,0.133726879954338,0.651989221572876,0.4753774404525757
1629376527706,0.637786328792572,0.1362507194280624,0.6542256474494934,0.492898166179657
1629376527816,0.6241801381111145,0.1376906484365463,0.6537458896636963,0.5037171244621277
1629376527881,0.6383574604988098,0.1759813278913498,0.6555811762809753,0.5195809006690979
1629376528084,0.6400408744812012,0.2024577409029007,0.662588894367218,0.5292263031005859
1629376528178,0.6225417852401733,0.2319210767745971,0.684171736240387,0.5332379341125488
1629376528303,0.5990127921104431,0.2616512477397918,0.7317445278167725,0.5400596857070923
1629376528403,0.581773042678833,0.2849708199501037,0.7964412569999695,0.5563061833381653
1629376528512,0.567291259765625,0.29143887758255,0.8535717725753784,0.5808933973312378
1629376528590,0.567291259765625,0.2745404541492462,0.8812271356582642,0.6046684384346008
1629376528825,0.567291259765625,0.22733174264431,0.8748147487640381,0.6145750880241394
1629376528891,0.567291259765625,0.1484641581773758,0.8570786118507385,0.5948857665061951
1629376528954,0.567291259765625,0.0654673054814338,0.8655587434768677,0.5488905310630798
1629376529031,0.567291259765625,0.0020845523104071,0.92217218875885,0.4982350766658783
1629376529063,0.567291259765625,-0.0180740635842084,1.0050824880599976,0.4982350766658783
1629376529141,0.567291259765625,0.3401154577732086,1.0815112590789795,0.4982350766658783
1629376529266,0.567291259765625,0.5107187628746033,1.1340550184249878,0.4982350766658783
1629376529344,0.567291259765625,0.6013588905334473,1.163559913635254,0.4982350766658783
1629376529438,0.2063363045454025,0.6043931841850281,1.176551103591919,0.8887239694595337
1629376529578,0.1679054349660873,0.5529924631118774,1.181691288948059,0.852199912071228
1629376529672,0.1712822616100311,0.505478024482727,1.1804964542388916,0.8266323804855347
1629376529781,0.1870053857564926,0.4664428830146789,1.1685094833374023,0.8008341789245605
1629376529875,0.2057339996099472,0.4322337508201599,1.1433558464050293,0.7738924622535706
1629376530035,0.2102535516023636,0.3981899917125702,1.1129869222640991,0.7466138005256653
1629376530175,0.1983362138271331,0.3671213686466217,1.0940909385681152,0.7199193835258484
1629376530222,0.1787911355495453,0.345784455537796,1.1046472787857056,0.6956616640090942
1629376530269,0.1573612689971923,0.3329502940177917,1.1353007555007937,0.6725738644599915
1629376530379,0.1407857835292816,0.3198119103908539,1.1562601327896118,0.648349404335022
1629376530472,0.1388337016105651,0.3005374073982239,1.145135521888733,0.6247701644897461
1629376530566,0.1534570306539535,0.2758071720600128,1.0976479053497314,0.6039645671844482
1629376530644,0.1536371409893036,0.1817920058965683,1.026431918144226,0.5367773771286011
1629376530753,0.156156986951828,0.0823297500610351,0.9573487043380736,0.4650202095508575
1629376530959,0.1497565507888794,-0.006207114085555,0.907302737236023,0.4038059413433075
1629376531008,0.145641028881073,-0.0688094645738601,0.8812798857688904,0.3566533923149109
1629376531211,0.1453017890453338,-0.1124350652098655,0.8691450953483582,0.3133133053779602
1629376531274,0.1410787552595138,-0.1300536841154098,0.8640832901000977,0.2811525464057922
1629376531305,0.1396548897027969,-0.1372507512569427,0.8643107414245605,0.2805493474006653
1629376531336,0.1365175694227218,-0.1413770914077758,0.8662846684455872,0.3021663129329681
1629376531508,0.135150596499443,-0.145071730017662,0.860126256942749,0.3399005830287933
1629376531571,0.1440593004226684,-0.142007291316986,0.8390971422195435,0.33896204829216
1629376531680,0.1823640465736389,-0.138136088848114,0.7907930612564087,0.3400463759899139
1629376531776,0.2606498599052429,-0.1233252063393592,0.7235669493675232,0.3451237380504608
1629376531888,0.3483806252479553,-0.0774805396795272,0.6776894330978394,0.3596279919147491
1629376531966,0.4159518778324127,-0.0172834824770689,0.6807906031608582,0.3805780112743377
1629376532154,0.4471359550952911,0.0302689839154481,0.7189350724220276,0.4029842317104339
1629376532294,0.456396222114563,0.0858887955546379,0.7712059617042542,0.4301310181617737
1629376532372,0.4599876403808594,0.1750116348266601,0.8326793313026428,0.4636582434177398
1629376532404,0.4780440628528595,0.3018318116664886,0.9118938446044922,0.5042051672935486
1629376532529,0.5001575946807861,0.4554718434810638,0.940238118171692,0.5555425882339478
1629376532732,0.5233173966407776,0.6006536483764648,0.9683852791786194,0.6177573800086975
1629376532828,0.544471263885498,0.6240991353988647,0.9956254959106444,0.6177573800086975
1629376533078,0.5632721185684204,0.6481532454490662,1.0223147869110107,0.6177573800086975
1629376533156,0.5833020806312561,0.6749568581581116,1.0512309074401855,0.6177573800086975
1629376533328,0.6094343662261963,0.706753671169281,1.0852497816085815,0.6177573800086975
1629376533391,0.641085147857666,0.741499125957489,1.1218496561050415,0.6177573800086975
1629376533422,0.6636596322059631,0.7777218222618103,1.158762812614441,0.6177573800086975
1629376533516,0.6551475524902344,0.915510594844818,1.186573147773743,0.6177573800086975
1629376533562,0.6077516674995422,0.9802966117858888,1.1965720653533936,0.6177573800086975
1629376533609,0.5229540467262268,1.005673885345459,1.1958385705947876,0.6177573800086975
1629376533790,0.5229540467262268,1.032608151435852,1.1958385705947876,0.6177573800086975
1629376533893,0.5229540467262268,1.0706720352172852,1.1958385705947876,0.6177573800086975
1629376533956,0.5229540467262268,1.0996257066726685,1.1958385705947876,0.6177573800086975
1629376534003,0.5229540467262268,1.1077531576156616,1.1958385705947876,0.6177573800086975
1629376534065,0.5229540467262268,1.094792366027832,1.1958385705947876,0.6177573800086975
1629376534143,0.5229540467262268,1.0804264545440674,1.1958385705947876,0.6177573800086975
1629376534284,0.5229540467262268,1.1235047578811646,1.1958385705947876,0.6177573800086975
1629376534346,0.5229540467262268,1.1845711469650269,1.1958385705947876,0.6177573800086975
1629376534424,0.5229540467262268,1.231552243232727,1.1958385705947876,0.6177573800086975
1629376534518,0.5229540467262268,1.2479851245880127,1.1958385705947876,0.6177573800086975
1629376534596,0.5229540467262268,1.238660454750061,1.1958385705947876,0.6177573800086975
1629376534768,0.5229540467262268,1.216550588607788,1.1958385705947876,0.6177573800086975
1629376534897,0.5229540467262268,1.1789872646331787,1.1958385705947876,0.6177573800086975
1629376534944,0.5229540467262268,1.1802290678024292,1.1958385705947876,0.6177573800086975
1629376535163,0.5229540467262268,1.196005940437317,1.1958385705947876,0.6177573800086975
1629376535194,0.5229540467262268,1.2137585878372192,1.1958385705947876,0.6177573800086975
1629376535256,0.5229540467262268,1.226027488708496,1.1958385705947876,0.6177573800086975
1629376535366,0.5229540467262268,1.2394888401031494,1.1958385705947876,0.6177573800086975
1629376535491,0.5229540467262268,1.2598384618759155,1.191628098487854,0.6177573800086975
1629376535569,0.5229540467262268,1.284610390663147,1.2340075969696045,0.6177573800086975
1629376535741,0.5229540467262268,1.3015214204788208,1.2228647470474243,0.6177573800086975
1629376535819,0.5229540467262268,1.284711837768555,1.2228647470474243,0.6177573800086975
1629376535916,0.5229540467262268,1.2052865028381348,1.2228647470474243,0.6177573800086975
1629376536010,0.5229540467262268,1.040895700454712,1.2228647470474243,0.6177573800086975
1629376536073,0.5229540467262268,1.040895700454712,1.2153271436691284,0.6177573800086975
1629376536182,0.5229540467262268,1.040895700454712,1.2153271436691284,0.6177573800086975
1629376536244,0.5229540467262268,1.040895700454712,1.2153271436691284,0.6177573800086975
1629376536323,0.5229540467262268,1.040895700454712,1.2153271436691284,0.6177573800086975
1629376536432,0.5229540467262268,1.040895700454712,1.2153271436691284,0.6177573800086975
1629376536573,0.5229540467262268,1.040895700454712,1.2153271436691284,0.6177573800086975
1629376536666,0.5229540467262268,1.040895700454712,1.2648015022277832,0.6177573800086975
1629376536885,0.5229540467262268,1.040895700454712,1.2981332540512085,0.6177573800086975
1629376536919,0.5229540467262268,1.040895700454712,1.2944918870925903,0.6177573800086975
1629376536981,0.5229540467262268,1.040895700454712,1.2944918870925903,0.6177573800086975
1629376537075,0.5229540467262268,1.040895700454712,1.2944918870925903,0.6177573800086975
1629376537216,0.5229540467262268,1.040895700454712,1.2944918870925903,0.6177573800086975
1629376537263,0.5229540467262268,1.040895700454712,1.2944918870925903,1.1462700366973877
1629376537403,0.5229540467262268,1.040895700454712,1.2944918870925903,1.0798814296722412
1629376537481,0.5229540467262268,0.6460456252098083,1.2944918870925903,1.0257525444030762
1629376537591,0.5229540467262268,0.6088491678237915,1.2944918870925903,0.974318265914917
1629376537716,0.5229540467262268,0.5600629448890686,1.2944918870925903,0.925020396709442
1629376537794,0.3276284039020538,0.5312628746032715,1.060059905052185,0.8787739872932434
1629376537937,0.3137917220592499,0.3755786418914795,0.9830039143562316,0.8376442193984985
1629376537984,0.2936100363731384,0.3196907639503479,0.9195008873939514,0.8038024306297302
1629376538109,0.268278568983078,0.2722498774528503,0.870509147644043,0.7792869806289673
1629376538140,0.2343805283308029,0.2302688360214233,0.8345807194709778,0.7616389989852905
1629376538312,0.2003654241561889,0.1941787302494049,0.8077905774116516,0.746573805809021
1629376538500,0.1672536730766296,0.1619992852210998,0.7840594053268433,0.7303110957145691
1629376538547,0.1598128527402877,0.1328205466270446,0.7624467015266418,0.4964171051979065
1629376538562,0.2479873448610305,0.1065374836325645,0.7428134083747864,0.4154108166694641
1629376538719,0.4511934816837311,0.0834868624806404,0.7278702855110168,0.504680335521698
1629376538797,0.4511934816837311,0.0656745061278343,0.7207825183868408,0.4943542778491974
1629376538890,0.4511934816837311,-0.052724614739418,0.7137246131896973,0.4839886724948883
1629376539049,0.4505231082439422,-0.1772349625825882,0.6040603518486023,0.4777597486972809
1629376539127,0.4603607654571533,-0.2760904133319855,0.515486478805542,0.4867241084575653
1629376539205,0.4778102934360504,-0.3365747332572937,0.4637117087841034,0.5105937123298645
1629376539314,0.4965380132198334,-0.368680864572525,0.4460883140563965,0.5459786057472229
1629376539486,0.5191976428031921,-0.3706429004669189,0.4582243859767914,0.5870029330253601
1629376539548,0.5518521070480347,-0.3586025834083557,0.4725985527038574,0.6276987791061401
1629376539627,0.5976359248161316,-0.3490563631057739,0.4758441746234894,0.6616529226303101
1629376539705,0.6630622148513794,-0.3458428978919983,0.4650568962097168,0.6924654841423035
1629376539861,0.7494224309921265,-0.3524224460124969,0.4424611330032348,0.7325801253318787
1629376539924,0.7494224309921265,-0.3603397309780121,0.4179025292396545,0.7325801253318787
1629376540051,0.7494224309921265,-0.3664625585079193,0.3966139853000641,0.7325801253318787
1629376540160,0.7494224309921265,-0.371684581041336,0.3840679824352264,0.7325801253318787
1629376540223,0.7494224309921265,-0.3664745390415191,0.382905513048172,0.7325801253318787
1629376540301,0.7494224309921265,-0.3704832196235657,0.3784793615341186,1.2833629846572876
1629376540395,1.183812141418457,-0.39105224609375,0.4070263206958771,1.320840835571289
1629376540551,1.3042035102844238,-0.4206519424915313,0.4950682818889618,1.4221699237823486
1629376540629,1.4433741569519043,-0.4441203773021698,0.617139995098114,1.4221699237823486
1629376540692,1.4433741569519043,-0.4550433456897735,0.7252057194709778,1.4221699237823486
1629376540863,1.4433741569519043,-0.4565549492835998,0.7978349924087524,1.4221699237823486
1629376540926,1.4433741569519043,-0.4737096726894378,0.8323559165000916,1.4221699237823486
1629376541004,1.4433741569519043,-0.5217529535293579,0.8449980616569519,1.4221699237823486
1629376541191,1.4433741569519043,-0.585268497467041,0.8526480793952942,1.4221699237823486
1629376541238,1.4433741569519043,-0.6336609721183777,0.8638156652450562,1.4221699237823486
1629376541332,1.4433741569519043,-0.6336609721183777,0.8723438382148743,1.4221699237823486
1629376541426,1.3774218559265137,-0.6336609721183777,0.8818648457527161,1.3585569858551023
1629376541535,1.3206567764282229,-0.6336609721183777,0.8940613865852356,1.2991907596588137
1629376541674,1.2726343870162964,-0.6336609721183777,0.9076998829841614,1.2298953533172607
1629376541736,1.2385610342025757,-0.3476487994194031,0.9178812503814696,1.1699016094207764
1629376541783,1.2119340896606443,-0.3510670363903045,0.922777533531189,1.1056830883026123
1629376541955,1.1569825410842896,-0.3264431655406952,0.911796510219574,0.9569610953330994
1629376542036,0.9902449250221252,-0.313200443983078,0.8730486035346985,0.2041683197021484
1629376542216,0.2673356533050537,-0.3165758550167084,0.8030027151107788,0.2196850627660751
1629376542281,0.2651290893554687,-0.325847178697586,0.7115602493286133,0.2520663440227508
1629376542360,0.2593336701393127,-0.3140287399291992,0.6300071477890015,0.2897472679615021
1629376542460,0.2659384906291961,-0.2538997530937195,0.611957311630249,0.3194582760334015
1629376542580,0.2938839793205261,-0.1574353873729705,0.6591222882270813,0.3296258747577667
1629376542683,0.3324425816535949,-0.073677971959114,0.7211002707481384,0.3225429654121399
1629376542800,0.3630600571632385,-0.022832291200757,0.7604560852050781,0.3071444630622864
1629376542862,0.3816949129104614,-0.0079387994483113,0.7815532088279724,0.2945965826511383
1629376542969,0.4070432186126709,0.0025327927432954,0.7959109544754028,0.3062198460102081
1629376543030,0.4334515929222107,0.0188175942748785,0.806678295135498,0.3181777596473694
1629376543177,0.4583082497119903,0.0423921979963779,0.8123177289962769,0.33098304271698
1629376543272,0.4742233157157898,0.070268340408802,0.8160256743431091,0.3411238491535187
1629376543410,0.477345734834671,0.0969224199652671,0.8250425457954407,0.343781977891922
1629376543543,0.4731636047363281,0.1212608367204666,0.8488979339599609,0.3490090370178222
1629376543601,0.4718294739723205,0.1509488075971603,0.8905273079872131,0.3607264757156372
1629376543648,0.4836404621601105,0.1910893470048904,0.942754864692688,0.366871029138565
1629376543722,0.5130248665809631,0.2421367615461349,0.998733401298523,0.3514750301837921
1629376543861,0.5551932454109192,0.2955992221832275,1.0482721328735352,0.3041357100009918
1629376544003,0.5974456071853638,0.3323291838169098,1.0427160263061523,0.2178300470113754
1629376544097,0.5974456071853638,0.3323291838169098,1.0076904296875,0.2178300470113754
1629376544175,0.5974456071853638,0.3323291838169098,0.965477466583252,0.2178300470113754
1629376544279,0.5974456071853638,0.3323291838169098,0.9332799911499025,0.2178300470113754
1629376544352,0.5974456071853638,0.3323291838169098,0.9332799911499025,0.2178300470113754
1629376544493,0.5974456071853638,0.3323291838169098,0.9332799911499025,0.2178300470113754
1629376544617,0.5974456071853638,0.3323291838169098,0.9332799911499025,0.2178300470113754
1629376544711,0.5974456071853638,0.3323291838169098,0.9332799911499025,0.2178300470113754
1629376544758,0.5974456071853638,0.3323291838169098,0.9332799911499025,0.2178300470113754
1629376544917,0.5974456071853638,0.3323291838169098,0.9332799911499025,0.2178300470113754
1629376544963,0.5974456071853638,0.3323291838169098,0.9332799911499025,0.2178300470113754
1629376545104,0.5974456071853638,0.3323291838169098,0.9332799911499025,0.2178300470113754
1629376545229,0.5974456071853638,0.3323291838169098,0.9332799911499025,0.2178300470113754
1629376545323,0.5974456071853638,0.3323291838169098,0.9332799911499025,0.2178300470113754
1629376545370,0.5974456071853638,0.3323291838169098,0.9332799911499025,0.2178300470113754
1629376545510,0.5974456071853638,0.3323291838169098,0.9332799911499025,0.2178300470113754
1629376545588,0.5974456071853638,0.3323291838169098,0.9332799911499025,0.2178300470113754
1629376545760,0.5974456071853638,0.3323291838169098,0.9332799911499025,0.2178300470113754
1629376545823,0.5974456071853638,0.3323291838169098,0.3671457171440124,0.2178300470113754
1629376545885,-0.1695395708084106,-0.0561557598412036,0.3686706125736236,0.3236264884471893
1629376546061,-0.1285300254821777,-0.0299144890159368,0.3421497642993927,0.2765640318393707
1629376546139,-0.0876021534204483,-0.0306939836591482,0.3023918271064758,0.2360972315073013
1629376546186,-0.0784596353769302,-0.0449340045452117,0.2652746737003326,0.1956821829080581
1629376546295,-0.0888948142528534,-0.0499312207102775,0.2405673563480377,0.1753879934549331
1629376546389,-0.1118605732917785,-0.0452317669987678,0.2202823013067245,0.2005596905946731
1629376546514,-0.1194787919521331,-0.0437600798904895,0.1960270702838897,0.3161212503910064
1629376546686,-0.1194787919521331,-0.0513892844319343,0.1984287351369857,0.3161212503910064
1629376546857,-0.1194787919521331,-0.0700906589627265,0.2477536797523498,0.3161212503910064
1629376546889,-0.1194787919521331,-0.0909002348780632,0.3891295492649078,0.3161212503910064
1629376546982,-0.1194787919521331,-0.1050642505288124,0.5971147418022156,0.3161212503910064
1629376547045,-0.1194787919521331,-0.1169623211026191,0.8072719573974609,0.3161212503910064
1629376547170,-0.1150079295039177,-0.1223247721791267,0.95659077167511,0.3048532009124756
1629376547217,-0.1054756864905357,-0.1337614506483078,1.0450265407562256,0.2938727438449859
1629376547388,-0.0913159400224685,-0.1503073275089264,1.0671149492263794,0.2935769259929657
1629376547443,-0.0890480726957321,-0.1722355633974075,1.0929546356201172,0.3110447227954864
1629376547536,-0.1106123477220535,-0.189016193151474,1.123634934425354,0.3523743152618408
1629376547629,-0.1721623539924621,-0.1828422248363495,1.1381536722183228,0.4138724207878113
1629376547723,-0.1721623539924621,-0.1497225016355514,1.1606756448745728,0.4138724207878113
1629376547832,-0.1721623539924621,-0.1120984852313995,1.1858052015304563,0.4138724207878113
1629376547895,-0.1721623539924621,-0.0869236662983894,1.2065279483795166,0.4138724207878113
1629376547976,-0.1721623539924621,-0.0738550424575805,1.219717025756836,0.4138724207878113
1629376548179,-0.1721623539924621,-0.0616668500006198,1.2244641780853271,0.4138724207878113
1629376548289,-0.1721623539924621,-0.0415615066885948,1.2204275131225586,0.4138724207878113
1629376548374,-0.1721623539924621,-0.0038647493347525,1.2009048461914062,0.4138724207878113
1629376548406,-0.1721623539924621,0.0734835565090179,1.1543209552764893,0.4138724207878113
1629376548596,-0.1721623539924621,0.1847699880599975,1.0748449563980105,0.4138724207878113
1629376548659,-0.1721623539924621,0.2954188585281372,0.9740809798240662,0.4138724207878113
1629376548755,-0.1721623539924621,0.3763120472431183,0.8790902495384216,0.4138724207878113
1629376548888,-0.1721623539924621,0.4200925230979919,0.8810141682624817,0.4138724207878113
1629376548982,-0.1721623539924621,0.4373412132263183,0.8698638081550598,0.4138724207878113
1629376549122,-0.1721623539924621,0.4419801533222198,0.8539370894432068,0.4138724207878113
1629376549185,-0.1721623539924621,0.4376080334186554,0.8401288986206055,0.4138724207878113
1629376549294,-0.1721623539924621,0.4270028471946716,0.8167299032211304,0.4138724207878113
1629376549435,-0.1721623539924621,0.4147412180900574,0.7889151573181152,0.4138724207878113
1629376549497,-0.1721623539924621,0.4058199524879455,0.7659085988998413,0.4138724207878113
1629376549544,-0.1721623539924621,0.4016745686531067,0.7574021816253662,0.4138724207878113
1629376549622,-0.1721623539924621,0.3993008136749267,0.761905312538147,0.4138724207878113
1629376549763,-0.1721623539924621,0.3952911794185638,0.7722706198692322,0.4138724207878113
1629376549966,-0.1721623539924621,0.3858209550380707,0.7820509672164917,0.4138724207878113
1629376550029,-0.1721623539924621,0.3572681844234466,0.7789643406867981,0.4138724207878113
1629376550075,-0.1721623539924621,0.2953059375286102,0.7529159784317017,0.4138724207878113
1629376550138,-0.1721623539924621,0.1953223645687103,0.7073286175727844,0.4138724207878113
1629376550310,-0.1721623539924621,0.0744934901595115,0.6568189263343811,0.4138724207878113
1629376550560,-0.1721623539924621,-0.0220161061733961,0.6233607530593872,0.4138724207878113
1629376550591,-0.1721623539924621,-0.0650098919868469,0.6146860122680664,0.4138724207878113
1629376550685,-0.1721623539924621,-0.0709755793213844,0.6213100552558899,0.4138724207878113
1629376550716,0.206930011510849,-0.0592440888285636,0.6300338506698608,0.8134135007858276
1629376550778,0.1712008267641067,-0.0480765886604785,0.627183198928833,0.7802280783653259
1629376550952,0.133062869310379,-0.0511635281145572,0.6064680814743042,0.7390927672386169
1629376551155,0.090423546731472,-0.0663832351565361,0.5784626007080078,0.694675862789154
1629376551311,0.0691366419196128,-0.0815676003694534,0.5507301688194275,0.6537127494812012
1629376551343,0.0791433006525039,-0.0909497663378715,0.522660493850708,0.6168164610862732
1629376551374,0.1082408651709556,-0.0925719067454338,0.4977079033851623,0.5788635611534119
1629376551436,0.138199508190155,-0.0975384265184402,0.466473639011383,0.5427483320236206
1629376551742,0.153724119067192,-0.1142979711294174,0.4223292768001556,0.5107858777046204
1629376551869,0.1569173336029052,-0.1367790251970291,0.3774608373641968,0.4833702445030212
1629376551931,0.1495979726314544,-0.1593754440546035,0.3396712243556976,0.4586633741855621
1629376551978,0.1366647481918335,-0.1768212765455246,0.3151669502258301,0.4359889328479767
1629376552041,0.1037395372986793,-0.1958929300308227,0.2967535853385925,0.3804511725902557
1629376552244,0.0667158737778663,-0.225744679570198,0.2710279524326324,0.3131445944309234
1629376552291,0.1469109058380127,-0.2535516917705536,0.2262876480817794,0.2277669906616211
1629376552384,0.1521586626768112,-0.2469961941242218,0.1747570484876632,0.135284423828125
1629376552432,0.162509024143219,-0.1717482209205627,0.1409374773502349,0.0555489063262939
1629376552557,0.1800433546304702,-0.0341405235230922,0.1595257073640823,-0.0048630209639668
1629376552682,0.2064658552408218,0.1043117120862007,0.2123158872127533,-0.0397422052919864
1629376552877,0.2287876456975937,0.2201130539178848,0.3031529784202575,-0.065520130097866
1629376552934,0.2365527302026748,0.2976492345333099,0.4077206254005432,-0.0877159461379051
1629376552965,0.2267670631408691,0.3771630227565765,0.4204704761505127,-0.0770835131406784
1629376552996,0.2038951069116592,0.3994332253932953,0.437259703874588,-0.0459204986691474
1629376553153,0.1865411400794983,0.4244995415210724,0.462743878364563,-0.0105866678059101
1629376553309,0.1851339042186737,0.4525012075901031,0.4952462911605835,0.0228344239294528
1629376553371,0.2147366851568222,0.4837862253189087,0.5280616879463196,0.0228344239294528
1629376553465,0.2147366851568222,0.5194780826568604,0.5586587190628052,0.0228344239294528
1629376553512,0.2147366851568222,0.5606713891029358,0.5869064331054688,0.0228344239294528
1629376553606,0.2147366851568222,0.6085757613182068,0.6165836453437805,0.0228344239294528
1629376553637,0.2147366851568222,0.6600818634033203,0.6585756540298462,0.0228344239294528
1629376553762,0.2147366851568222,0.711519181728363,0.7154502272605896,0.0228344239294528
1629376553902,0.2147366851568222,0.7546746134757996,0.7394824028015137,0.0228344239294528
1629376553974,0.2147366851568222,0.7797116041183472,0.7091944813728333,0.0228344239294528
1629376554099,0.2147366851568222,0.67172771692276,0.649743378162384,0.0228344239294528
1629376554146,0.2147366851568222,0.5078233480453491,0.5189958810806274,0.0228344239294528
1629376554255,0.2147366851568222,0.2947897315025329,0.2359409928321838,0.0228344239294528
1629376554411,0.2147366851568222,-0.3696092069149017,0.2467527091503143,1.00459885597229
1629376554489,0.2147366851568222,-0.3693790733814239,0.25058513879776,0.9690766334533693
1629376554583,0.2147366851568222,-0.3593449890613556,0.2398863136768341,0.9346197247505188
1629376554630,0.2147366851568222,-0.3479208946228027,0.2262029945850372,0.918889343738556
1629376554727,0.2147366851568222,-0.3402525186538696,0.2284086942672729,0.918889343738556
1629376554853,1.0660430192947388,-0.3442370295524597,0.253591775894165,0.918889343738556
1629376555008,1.1470799446105957,-0.3460462689399719,0.2826110422611236,0.918889343738556
1629376555071,1.2185723781585691,-0.3332520127296448,0.3215964734554291,0.918889343738556
1629376555133,1.2185723781585691,-0.2994022369384765,0.3753394782543182,0.918889343738556
1629376555258,1.2185723781585691,-0.2501258254051208,0.454273909330368,0.9746646285057068
1629376555305,1.2185723781585691,-0.1922624260187149,0.5561196208000183,1.0053967237472534
1629376555446,1.2185723781585691,-0.1373263001441955,0.6806218028068542,1.0053967237472534
1629376555555,1.2185723781585691,-0.0785157978534698,0.7784482836723328,1.0048595666885376
1629376555791,1.2185723781585691,-0.0432408936321735,0.8369355797767639,0.9868866205215454
1629376555823,1.2185723781585691,-0.0251059252768754,0.8673650026321411,0.955995798110962
1629376555963,1.1943304538726809,-0.0184231884777545,0.8842607736587524,0.9415785670280457
1629376556041,1.1845645904541016,-0.0193678345531225,0.8954463005065918,0.9534573554992676
1629376556120,1.2206462621688845,-0.0290056280791759,0.900920867919922,0.9765957593917848
1629376556151,1.2503807544708252,-0.0422241501510143,0.9034965634346008,0.9959017634391784
1629376556245,1.270374774932861,-0.0534202679991722,0.9034067392349244,0.9959017634391784
1629376556369,1.2702821493148804,-0.0557655580341815,0.901811420917511,0.9959017634391784
1629376556494,1.2404301166534424,-0.0530045330524444,0.9007115960121155,0.9959017634391784
1629376556541,1.2404301166534424,-0.0533264987170696,0.8968129754066467,0.9959017634391784
1629376556635,1.2404301166534424,-0.0674698576331138,0.8851919770240784,0.9959017634391784
1629376556729,1.2404301166534424,-0.1002876088023185,0.8594591617584229,0.9374403357505798
1629376556856,1.2404301166534424,-0.1527269333600998,0.8092595338821411,0.8608402013778687
1629376556967,1.2404301166534424,-0.2232926487922668,0.7266769409179688,0.8608402013778687
1629376557064,1.2404301166534424,-0.3084007799625397,0.6193554401397705,0.8447990417480469
1629376557147,1.0510629415512085,-0.3822956383228302,0.5154825448989868,0.8447990417480469
1629376557314,0.9924026727676392,-0.4349784553050995,0.4334722757339477,0.8447990417480469
1629376557381,0.9344581961631776,-0.46287402510643,0.370256632566452,0.8447990417480469
1629376557491,0.833799421787262,-0.4747751653194427,0.3238307535648346,0.8447990417480469
1629376557602,0.6065440773963928,-0.4697774350643158,0.301605075597763,0.8447990417480469
1629376557683,0.5724354386329651,-0.443940132856369,0.2925858795642853,0.7222237586975098
1629376557749,0.5266826152801514,-0.3821957409381866,0.2968387603759765,0.6817114353179932
1629376557946,0.4826648235321045,-0.2725035846233368,0.3126060664653778,0.6554659605026245
1629376558007,0.4826648235321045,-0.1431864351034164,0.3325209021568298,0.6530393958091736
1629376558164,0.4826648235321045,-0.0281573645770549,0.3407077193260193,0.6917725801467896
1629376558232,0.4826648235321045,0.05696552246809,0.3510339558124542,0.7734168767929077
1629376558307,0.773770272731781,0.1109129562973976,0.3848441541194916,0.8770995736122131
1629376558392,0.9773712158203124,0.1400652825832367,0.4476880431175232,0.8770995736122131
1629376558570,0.9773712158203124,0.1566056907176971,0.5323554873466492,0.8770995736122131
1629376558635,0.9773712158203124,0.171622022986412,0.6121034622192383,0.8770995736122131
1629376558711,1.002013921737671,0.1865275800228119,0.6707015037536621,0.8770995736122131
1629376558782,1.032800555229187,0.2037423104047775,0.7116522192955017,0.8770995736122131
1629376558909,1.06955087184906,0.2246144860982895,0.7420850992202759,0.8724867701530457
1629376559009,1.1150110960006714,0.2512119114398956,0.7596583962440491,0.8922946453094482
1629376559189,1.1744399070739746,0.2794264256954193,0.767035961151123,0.9175074100494384
1629376559246,1.2583107948303225,0.3009072244167328,0.7688656449317932,0.956270694732666
1629376559312,1.2583107948303225,0.307343989610672,0.7654505968093872,1.0113744735717771
1629376559432,1.2583107948303225,0.2901067733764648,0.7543773055076599,1.081098556518555
1629376559517,1.2583107948303225,0.2492208778858184,0.7367916107177734,1.081098556518555
1629376559615,1.2583107948303225,0.1935644894838333,0.7216252088546753,1.081098556518555
1629376559707,1.2583107948303225,0.1447758674621582,0.7072913646697998,1.081098556518555
1629376559793,1.2583107948303225,0.1315351277589798,0.6823448538780212,1.081098556518555
1629376559981,1.2583107948303225,0.1782362163066864,0.6389825940132141,1.081098556518555
1629376560046,1.2583107948303225,0.2698546648025512,0.5739894509315491,1.081098556518555
1629376560132,1.2583107948303225,0.3656666576862335,0.5091329216957092,1.081098556518555
1629376560239,1.2583107948303225,0.4374973773956299,0.4768335521221161,1.081098556518555
1629376560319,1.2583107948303225,0.4769476950168609,0.4934063553810119,1.081098556518555
1629376560493,1.2583107948303225,0.4904853403568268,0.5427127480506897,1.081098556518555
1629376560560,1.2583107948303225,0.4870881736278534,0.5987635254859924,1.081098556518555
1629376560631,1.2583107948303225,0.4747378528118133,0.637935221195221,1.081098556518555
1629376560718,1.2583107948303225,0.4634206891059875,0.6585829257965088,1.081098556518555
1629376560785,1.2583107948303225,0.4564818143844604,0.6647546887397766,1.081098556518555
1629376561020,1.2583107948303225,0.454721450805664,0.6640037894248962,1.081098556518555
1629376561093,1.2583107948303225,0.4646273851394653,0.6652901768684387,1.081098556518555
1629376561127,1.2583107948303225,0.4893165528774261,0.682508111000061,1.081098556518555
1629376561252,1.2583107948303225,0.5359508991241455,0.7246368527412415,1.081098556518555
1629376561359,1.2583107948303225,0.6021906137466431,0.7927370071411133,1.081098556518555
1629376561482,1.2583107948303225,0.6688141822814941,0.8736872673034668,1.081098556518555
1629376561573,1.2583107948303225,0.7168270349502563,0.8941798806190491,1.081098556518555
1629376561636,1.2583107948303225,0.7417101263999939,0.9099043607711792,1.081098556518555
1629376561756,1.2583107948303225,0.752799928188324,0.9175453782081604,1.081098556518555
1629376561883,1.2583107948303225,0.7586688995361328,0.9413931369781494,1.081098556518555
1629376561951,1.2583107948303225,0.7598870992660522,0.922506868839264,1.081098556518555
1629376562069,1.2583107948303225,0.7584025859832764,0.8827559351921082,1.081098556518555
1629376562159,1.2583107948303225,0.7571836113929749,0.8484196066856384,1.081098556518555
1629376562250,1.2583107948303225,0.7552143335342407,0.8286951780319214,1.081098556518555
1629376562348,1.2583107948303225,0.7532760500907898,0.8258318305015564,1.081098556518555
1629376562470,1.2583107948303225,0.7521520256996155,0.8330276012420654,1.081098556518555
1629376562546,1.2583107948303225,0.7475354671478271,0.8391371965408325,1.081098556518555
1629376562776,1.2583107948303225,0.7352810502052307,0.8280388116836548,1.081098556518555
1629376562820,1.2583107948303225,0.7050068378448486,0.7860753536224365,1.081098556518555
1629376563029,0.0899926647543907,0.6442504525184631,0.6911563277244568,-0.4835849404335022
1629376563111,0.0599129684269428,0.5442213416099548,0.5050979256629944,-0.5021575689315796
1629376563206,0.043790366500616,0.4044167399406433,0.4721091687679291,-0.4986384510993957
1629376563304,0.0330040194094181,0.2323994934558868,0.4425487220287323,-0.5008319616317749
1629376563437,0.0204540714621543,0.0347170419991016,0.41751828789711,-0.4612398445606231
1629376563487,0.0091933375224471,-0.1687415540218353,0.2235850989818573,-0.3570451736450195
1629376563577,0.0138757918030023,-0.2931333482265472,0.1061947345733642,-0.2200734466314315
1629376563645,0.071989968419075,-0.300780713558197,0.0925051197409629,-0.0486930273473262
1629376563696,0.2954704165458679,-0.2658403813838959,0.1282263696193695,-0.0486930273473262
1629376563783,0.2954704165458679,-0.2259853482246399,0.1760780066251754,-0.0486930273473262
1629376563891,0.2954704165458679,-0.1586861461400985,0.2144018858671188,-0.0486930273473262
1629376563978,0.2954704165458679,-0.0448274835944175,0.2505717873573303,-0.0486930273473262
1629376564104,0.3073213994503021,0.1007874011993408,0.3018153011798858,-0.027955112978816
1629376564192,0.319072961807251,0.2378607243299484,0.3640377819538116,0.0005114538362249
1629376564283,0.3395184874534607,0.3369016349315643,0.4169741570949554,0.0393904820084571
1629376564435,0.3704606592655182,0.3982886075973511,0.4515344500541687,0.0853248536586761
1629376564504,0.4090899527072906,0.4307497143745422,0.4739845097064972,0.1388290673494339
1629376564636,0.4537816047668457,0.4491735398769378,0.4898615181446075,0.2003023028373718
1629376564716,0.508988082408905,0.4666079580783844,0.5037479996681213,0.2801200747489929
1629376564800,0.5828849673271179,0.4829771816730499,0.5125399231910706,0.2801200747489929
1629376564864,0.5828849673271179,0.4939173460006714,0.5147805213928223,0.2801200747489929
1629376564992,0.5828849673271179,0.498727023601532,0.5087035894393921,0.2801200747489929
1629376565113,0.5828849673271179,0.4991443455219269,0.4948454797267914,0.2801200747489929
1629376565241,0.5828849673271179,0.4978496432304382,0.4778288900852203,0.2801200747489929
1629376565333,-0.2517695426940918,0.4938295185565948,0.4579948484897613,0.1184178739786148
1629376565428,-0.2632910311222076,0.4795285165309906,0.4340731501579284,0.1117199808359146
1629376565568,-0.1830428391695022,0.4448661506175995,0.4047638773918152,0.1128008663654327
1629376565602,0.0475682877004146,0.3801794350147247,0.3754646182060241,0.1737957596778869
1629376565704,0.3398578464984894,0.2879097461700439,0.3869101107120514,0.3200974464416504
1629376565863,0.5844376087188721,0.2035155296325683,0.4735990166664123,0.5000495314598083
1629376566019,0.7487018704414368,0.1698367148637771,0.5950434803962708,0.6492571234703064
1629376566145,0.8383429050445557,0.1885266155004501,0.6953166723251343,0.7410702705383301
1629376566235,0.8704830408096313,0.2155283391475677,0.754024863243103,0.7796013951301575
1629376566273,0.8670795559883118,0.2182777523994445,0.7774884104728699,0.7804835438728333
1629376566510,0.8461146354675293,0.2009097635746002,0.781312108039856,0.7616615891456604
1629376566613,0.8213505744934082,0.1797354966402053,0.7789270281791687,0.737654983997345
1629376566671,0.8217083811759949,0.1601905822753906,0.7765300869941711,0.7353634238243103
1629376566711,0.8224387764930725,0.1432175636291504,0.7741032838821411,0.7333962917327881
1629376566754,0.8234639167785645,0.1304373890161514,0.7727291584014893,0.7318102717399597
1629376566845,0.8243224620819092,0.1270475536584854,0.773127019405365,0.7297731637954712
1629376566911,0.8235160112380981,0.1330621242523193,0.7748333811759949,0.7263965010643005
1629376567113,0.8190305233001709,0.1423915773630142,0.7766396403312683,0.7224634289741516
1629376567179,0.8023054003715515,0.1466395556926727,0.7726457118988037,0.7108758091926575
1629376567220,0.7567417621612549,0.1352793872356414,0.7500317692756653,0.6784874200820923
1629376567337,0.6617854237556458,0.096466340124607,0.6960955262184143,0.6070235967636108
1629376567442,0.5017039775848389,0.02342957444489,0.6084145307540894,0.481994092464447
1629376567536,0.2734246253967285,-0.0782369151711463,0.4960716962814331,0.3063266575336456
1629376567704,0.0058510405942797,-0.183265820145607,0.39199098944664,0.1132389605045318
1629376567802,-0.2319870144128799,-0.2581287622451782,0.327065497636795,-0.035913411527872
1629376567946,-0.3634332120418548,-0.2909127175807953,0.3074348270893097,-0.1057049483060836
1629376568086,-0.4335806369781494,-0.2957027852535248,0.3156903684139251,-0.133250281214714
1629376568164,-0.4916003942489624,-0.2934456467628479,0.3347839117050171,-0.153724804520607
1629376568196,-0.5326905250549316,-0.2841767370700836,0.3571237921714782,-0.17558653652668
1629376568321,-0.5488854050636292,-0.2527119219303131,0.3684145510196686,-0.191091850399971
1629376568411,-0.5340499877929688,-0.1956593096256256,0.3648917078971863,-0.1857256740331649
1629376568487,-0.5011352300643921,-0.1320268660783767,0.350951224565506,-0.1629419177770614
1629376568596,-0.4680794179439544,-0.079681172966957,0.3283651471138,-0.1477691382169723
1629376568659,-0.4388647675514221,-0.0487581714987754,0.3018569350242615,-0.1467127948999405
1629376568846,-0.4156780540943146,-0.0351916812360286,0.2671023905277252,-0.1665463596582412
1629376568975,-0.3805504441261291,-0.0346545837819576,0.2131539285182953,-0.1994234174489975
1629376569069,-0.3130369782447815,-0.0472072623670101,0.1387849003076553,-0.2383583486080169
1629376569115,-0.2169719189405441,-0.0668403133749961,0.0679495483636856,-0.2731167078018188
1629376569147,-0.201351135969162,-0.0769137367606163,0.0293106529861688,-0.2854650318622589
1629376569272,-0.1820354610681533,-0.0599321797490119,0.0259946566075086,-0.2855967581272125
1629376569428,-0.1580259054899215,-0.0084928320720791,0.0351812578737735,-0.2774480879306793
1629376569538,-0.1315324753522873,0.0688657760620117,0.0282954722642898,-0.2675577402114868
1629376569600,-0.1048951148986816,0.1534442603588104,0.0010722063016146,-0.2614468932151794
1629376569647,-0.0788697451353073,0.2305014431476593,-0.0409559719264507,-0.2539269924163818
1629376569818,-0.0591450296342372,0.2907726764678955,-0.0804492309689521,-0.2639187574386596
1629376569912,-0.0427078194916248,0.3269164264202118,-0.1041871756315231,-0.3113923370838165
1629376569990,-0.0224259514361619,0.3406472504138946,-0.0911556109786033,-0.4161798059940338
1629376570147,0.01207294780761,0.3356853425502777,-0.0325803533196449,-0.5711061954498291
1629376570225,0.065168909728527,0.3247895836830139,0.050216905772686,-0.7354013919830322
1629376570303,0.065168909728527,0.3172715902328491,0.1306993961334228,-0.7354013919830322
1629376570366,0.065168909728527,0.3134655654430389,0.1863099783658981,-0.7354013919830322
1629376570537,0.065168909728527,0.3112576603889465,0.2118891775608062,-0.7354013919830322
1629376570662,0.065168909728527,0.3103580176830292,0.2157845199108123,-0.7354013919830322
1629376570725,0.065168909728527,0.3076787889003753,0.2044650912284851,-0.7354013919830322
1629376570850,0.065168909728527,0.2982100248336792,0.185118094086647,-0.7354013919830322
1629376570993,0.065168909728527,0.2754474282264709,0.1707772314548492,-0.7354013919830322
1629376571102,0.4160244166851043,0.233196422457695,0.1656136661767959,0.0590056031942367
1629376571164,0.3703413009643554,0.1718571037054062,0.1678406745195388,0.0278429333120584
1629376571228,0.3412525951862335,0.0940558090806007,0.1774827539920807,0.0182319525629282
1629376571431,0.3207712769508362,0.0007949806167744,0.1927017122507095,0.0143764931708574
1629376571556,0.3048132061958313,-0.0997748374938964,0.2084895223379135,0.0059158676303923
1629376571634,0.3051272928714752,-0.1957042515277862,0.2088033854961395,0.0077968263067305
1629376571681,0.3051272928714752,-0.2478966414928436,0.1809249818325042,0.0077968263067305
1629376571775,0.3051272928714752,-0.2478031665086746,0.1212541908025741,0.0077968263067305
1629376571822,0.3051272928714752,-0.2281651943922042,0.0354309119284153,0.0077968263067305
1629376572028,0.3051272928714752,-0.1812855005264282,-0.0444185137748718,0.0077968263067305
1629376572185,0.3051272928714752,-0.1018662303686142,-0.0852062553167343,0.0077968263067305
1629376572263,0.3051272928714752,-0.0061023249290883,-0.0859375819563865,0.0077968263067305
1629376572325,0.2644687592983246,0.0771306306123733,-0.0610223710536956,-0.0439832769334316
1629376572466,0.2151883095502853,0.1335383355617523,-0.0321335680782794,-0.070315808057785
1629376572559,0.1866789162158966,0.1593979001045227,-0.0191289354115724,-0.0599850751459598
1629376572591,0.1900750547647476,0.162740483880043,-0.022555349394679,-0.0380169264972209
1629376572778,0.2068435698747635,0.1544946581125259,-0.0391114167869091,-0.0186364669352769
1629376572888,0.2068435698747635,0.1382956504821777,-0.0704298242926597,-0.0186364669352769
1629376572966,0.2068435698747635,0.1148885935544967,-0.1090059429407119,-0.0186364669352769
1629376573015,0.2068435698747635,0.0915272682905197,-0.142523244023323,-0.0186364669352769
1629376573062,0.2068435698747635,0.0751035436987876,-0.1290538012981414,-0.0186364669352769
1629376573234,0.2068435698747635,0.0651570558547973,-0.0553924366831779,-0.0186364669352769
1629376573343,0.2068435698747635,0.0584885962307453,0.0455331578850746,-0.0186364669352769
1629376573640,0.2068435698747635,0.0566945374011993,0.129958376288414,-0.0186364669352769
1629376573703,0.2068435698747635,0.0418474934995174,0.1873132437467575,-0.0186364669352769
1629376573767,0.2068435698747635,-0.0040402137674391,0.2341537326574325,-0.0186364669352769
1629376573845,0.2068435698747635,-0.093014657497406,0.2933625876903534,-0.0186364669352769
1629376574002,0.2068435698747635,-0.2149821817874908,0.3876537978649139,-0.0186364669352769
1629376574049,0.2068435698747635,-0.3375658094882965,0.5082544684410095,-0.0186364669352769
1629376574174,0.2068435698747635,-0.4150038659572601,0.6189958453178406,-0.0186364669352769
1629376574189,0.2068435698747635,-0.4232169091701507,0.7014473080635071,-0.0186364669352769
