timestamp,TP9,AF7,AF8,TP10
1629376437350,0.0,0.0,0.0,0.0
1629376437457,0.0,0.0,0.0,0.0
1629376437527,0.0,0.0,0.0,0.0
1629376437613,0.0,0.0,0.0,0.0
1629376437727,0.0,0.0,0.0,0.0
1629376437914,0.0,0.0,0.0,0.0
1629376437994,0.0,0.0,0.0,0.0
1629376438082,0.0,0.0,0.0,0.0
1629376438121,0.0,0.0,0.0,0.0
1629376438199,0.0,0.0,0.0,0.0
1629376438346,0.0,0.0,0.0,0.0
1629376438525,0.0,0.0,0.0,0.0
1629376438562,0.0,0.0,0.0,0.0
1629376438670,0.0,0.0,0.0,0.0
1629376438748,0.0,0.0,0.0,0.0
1629376438817,0.0,0.0,0.0,0.0
1629376438919,0.0,0.0,0.0,0.0
1629376439101,0.0,0.0,0.0,0.0
1629376439153,0.0,0.0,0.0,0.0
1629376439272,0.0,0.0,0.0,0.0
1629376439385,0.0,0.0,0.0,0.0
1629376439522,0.0,0.0,0.0,0.0
1629376439634,0.0797629877924919,0.0,-0.5501331090927124,0.6036885380744934
1629376439686,0.1462238878011703,0.0602400116622448,-0.5390162467956543,0.6038825511932373
1629376439776,0.1995086967945099,0.0203991327434778,-0.5308816432952881,0.5974865555763245
1629376439865,0.2343436926603317,-0.011399382725358,-0.5204424262046814,0.5890383124351501
1629376439973,0.2554819583892822,-0.0330902151763439,-0.5052043199539185,0.5794061422348022
1629376440126,0.2720292508602142,-0.048696469515562,-0.4885492324829101,0.5719689726829529
1629376440217,0.2896504402160644,-0.060811523348093,-0.475098967552185,0.568117082118988
1629376440437,0.3105161488056183,-0.0697743594646453,-0.4666145145893097,0.5680484771728516
1629376440523,0.3340410888195038,-0.0770283192396164,-0.461204469203949,0.572360634803772
1629376440560,0.3544122576713562,-0.0859183669090271,-0.4565480947494507,0.5765718221664429
1629376440593,0.3661603033542633,-0.0986134558916091,-0.4530230462551117,0.5776306390762329
1629376440681,0.3691881895065307,-0.1144581064581871,-0.4532969295978546,0.5759550929069519
1629376440785,0.3816049695014953,-0.1311804205179214,-0.451371282339096,0.5767945051193237
1629376440890,0.3902804851531982,-0.1663533747196197,-0.4541442692279815,0.5699513554573059
1629376441082,0.392848402261734,-0.2071727216243744,-0.459384024143219,0.5574295520782471
1629376441126,0.3865063488483429,-0.2369369119405746,-0.4638563692569732,0.5420836210250854
1629376441254,0.3751109838485718,-0.2431943714618683,-0.4641799628734588,0.5276809930801392
1629376441315,0.3669449985027313,-0.2313481569290161,-0.4602121412754059,0.5177757143974304
1629376441375,0.3667614161968231,-0.2167569398880005,-0.4569912552833557,0.5176225900650024
1629376441528,0.3717986047267914,-0.208132266998291,-0.4608054161071777,0.5245925784111023
1629376441621,0.3746023178100586,-0.2039394527673721,-0.4736232757568359,0.5334279537200928
1629376441774,0.3695639073848724,-0.1982512325048446,-0.4910986721515655,0.5372049808502197
1629376441880,0.3552895188331604,-0.1867581903934478,-0.5065122246742249,0.5343055129051208
1629376441946,0.3329150080680847,-0.1686821430921554,-0.515544593334198,0.5273551940917969
1629376442053,0.3094483613967895,-0.1450230777263641,-0.5179016590118408,0.5247710943222046
1629376442155,0.2925319075584411,-0.1181541010737419,-0.5166471600532532,0.5352319478988647
1629376442194,0.2820813655853271,-0.0924111306667327,-0.5141862034797668,0.5573256611824036
1629376442329,0.2788074910640716,-0.0722162276506424,-0.5123172402381897,0.5831926465034485
1629376442459,0.2825735509395599,-0.0603346601128578,-0.5128209590911865,0.6037663221359253
1629376442535,0.2953337728977203,-0.0571435950696468,-0.5159883499145508,0.6170960664749146
1629376442651,0.3344407379627228,-0.06186980381608,-0.520811915397644,0.6258511543273926
1629376442765,0.3543254435062408,-0.0726241171360015,-0.5270493626594543,0.6319144368171692
1629376442858,0.3644537627696991,-0.0853387638926506,-0.5347034335136414,0.6329607367515564
1629376442946,0.3596192002296448,-0.0917586088180542,-0.5403112769126892,0.626411497592926
1629376443083,0.3429192304611206,-0.0855306461453437,-0.5388274788856506,0.6160794496536255
1629376443197,0.3146236538887024,-0.0703924000263214,-0.5294228196144104,0.6081575155258179
1629376443238,0.2903057634830475,-0.0578367635607719,-0.5179095268249512,0.6091240644454956
1629376443361,0.2690000534057617,-0.056758128106594,-0.5104074478149414,0.6167558431625366
1629376443482,0.2571476101875305,-0.0651009306311607,-0.5081326365470886,0.625627875328064
1629376443590,0.2558320462703705,-0.0712814927101135,-0.5140800476074219,0.6280468702316284
1629376443698,0.2690551578998565,-0.0641354471445083,-0.5247300863265991,0.6174638867378235
1629376443746,0.2820277512073517,-0.0438685044646263,-0.5340660810470581,0.5945296883583069
1629376443814,0.2853338420391083,-0.0195872317999601,-0.5354862213134766,0.563895583152771
1629376444033,0.2797941267490387,-0.0111867859959602,-0.526197075843811,0.538249135017395
1629376444121,0.2703063488006592,0.0041538430377841,-0.509493887424469,0.5257442593574524
1629376444171,0.2355381697416305,0.0246873870491981,-0.4918361604213714,0.5230302810668945
1629376444320,0.2355381697416305,0.0491635613143444,-0.4781406223773956,0.5232823491096497
1629376444424,0.2355381697416305,0.065124973654747,-0.4692458808422088,0.5242255926132202
1629376444612,0.2355381697416305,0.0706047415733337,-0.4661252200603485,0.532505452632904
1629376444687,0.2355381697416305,0.0698869749903678,-0.4666031301021576,0.5412403345108032
1629376444721,0.2328681796789169,0.0692997127771377,-0.4547792971134186,0.5448595285415649
1629376444845,0.2370302677154541,0.0693962052464485,-0.4352417886257171,0.5394283533096313
1629376444905,0.2500191032886505,0.0773035958409309,-0.4209785461425781,0.5271238684654236
1629376444980,0.2629360556602478,0.0922264978289604,-0.4209785461425781,0.5089516639709473
1629376445084,0.2652170658111572,0.1029149442911148,-0.4209785461425781,0.4911916851997375
1629376445198,0.2483555972576141,0.0946964025497436,-0.4209785461425781,0.4812089204788208
1629376445378,0.2141184359788894,0.0605961009860038,-0.4209785461425781,0.4806954562664032
1629376445420,0.2141184359788894,0.0063442871905863,-0.4209785461425781,0.4933739602565765
1629376445467,0.2141184359788894,0.0063442871905863,-0.4209785461425781,0.5037389397621155
1629376445739,0.2141184359788894,0.0063442871905863,-0.4209785461425781,0.5037389397621155
1629376445832,0.2141184359788894,0.0063442871905863,-0.4209785461425781,0.5037389397621155
1629376445902,0.2141184359788894,0.0063442871905863,-0.4209785461425781,0.5037389397621155
1629376446037,0.2141184359788894,0.0063442871905863,-0.4209785461425781,0.5037389397621155
1629376446125,0.2141184359788894,0.0063442871905863,-0.4209785461425781,0.5037389397621155
1629376446249,0.2141184359788894,0.0063442871905863,-0.4209785461425781,0.5037389397621155
1629376446312,0.4335717558860779,0.0063442871905863,-0.4209785461425781,0.5037389397621155
1629376446387,0.4132811725139618,0.0063442871905863,-0.4209785461425781,0.5037389397621155
1629376446437,0.3916953206062317,0.0063442871905863,-0.4209785461425781,0.5037389397621155
1629376446474,0.3661665320396423,0.0063442871905863,-0.4209785461425781,0.5037389397621155
1629376446549,0.3410036563873291,-0.1164798215031623,-0.4209785461425781,0.5037389397621155
1629376446670,0.319946825504303,-0.0851840153336525,-0.4209785461425781,0.5046775341033936
1629376446776,0.3024582862854004,-0.0571253411471843,-0.4209785461425781,0.514043927192688
1629376446925,0.2876036763191223,-0.0353383347392082,-0.338799774646759,0.5163215398788452
1629376447083,0.2761186063289642,-0.0237509943544864,-0.3315798640251159,0.5163215398788452
1629376447163,0.2680277228355407,-0.0223718099296093,-0.3354280292987823,0.5163215398788452
1629376447210,0.261624276638031,-0.0223718099296093,-0.3523952066898346,0.5163215398788452
1629376447260,0.255783200263977,-0.0223718099296093,-0.3768640160560608,0.5163215398788452
1629376447348,0.2151196599006652,-0.0223718099296093,-0.3995192945003509,0.5163215398788452
1629376447495,0.195463165640831,-0.0223718099296093,-0.4136435389518738,0.5163215398788452
1629376447610,0.1941481381654739,-0.0450389571487903,-0.4171845018863678,0.5201718807220459
1629376447702,0.2058262526988983,-0.0596845485270023,-0.4136675596237182,0.5338341593742371
1629376447817,0.2235988080501556,-0.0545164830982685,-0.4065097272396087,0.5479636788368225
1629376447871,0.2402739375829696,-0.0514395758509635,-0.3974989056587219,0.5622071623802185
1629376447956,0.2524078786373138,-0.0560620725154876,-0.3883694410324096,0.5832087397575378
1629376448128,0.2618337571620941,-0.0711220949888229,-0.3847183287143707,0.6126400232315063
1629376448203,0.2716110348701477,-0.0969366952776908,-0.3805994391441345,0.6380226612091064
1629376448350,0.2817809581756592,-0.1319424957036972,-0.3830879032611847,0.655322790145874
1629376448418,0.2921765148639679,-0.1595465391874313,-0.3890373408794403,0.6684674620628357
1629376448527,0.302749752998352,-0.1904949694871902,-0.3969526886940002,0.6684674620628357
1629376448621,0.3129490911960602,-0.2191081345081329,-0.400955468416214,0.6684674620628357
1629376448683,0.3239824771881103,-0.2191081345081329,-0.3945311307907104,0.6684674620628357
1629376448811,0.3371292054653168,-0.2191081345081329,-0.3765227198600769,0.6684674620628357
1629376448921,0.3533231616020202,-0.2191081345081329,-0.3523510992527008,0.6684674620628357
1629376449014,0.3689323365688324,-0.2191081345081329,-0.3288060426712036,0.6684674620628357
1629376449108,0.3749353587627411,-0.2052525877952575,-0.311013251543045,0.6819172501564026
1629376449233,0.3622222542762756,-0.1994035392999649,-0.2989804446697235,0.6901994347572327
1629376449280,0.3310162723064422,-0.2087007761001587,-0.2918529212474823,0.6970017552375793
1629376449420,0.2953430414199829,-0.235203132033348,-0.2918529212474823,0.682685375213623
1629376449514,0.2483143359422683,-0.1910715699195861,-0.2918529212474823,0.6694837808609009
1629376449655,0.1961712539196014,-0.1201662346720695,-0.2918529212474823,0.6536263823509216
1629376449687,0.1358087956905365,-0.0382904857397079,-0.2918529212474823,0.639973521232605
1629376449798,0.0669809505343437,0.0364320464432239,-0.5455019474029541,0.6333073377609253
1629376450048,0.0622371733188629,0.0375512354075908,-0.5686761140823364,0.6330384016036987
1629376450111,0.0575817972421646,0.0294208526611328,-0.580675482749939,0.6329563856124878
1629376450157,0.0585117787122726,0.0134009299799799,-0.5797278881072998,0.6267635822296143
1629376450360,0.0649006962776184,-0.0064383978024125,-0.5733270049095154,0.6144183278083801
1629376450439,0.0714860633015632,-0.0243266392499208,-0.5707193613052368,0.5982407331466675
1629376450610,0.0727728754281997,-0.0339112728834152,-0.5754629373550415,0.58058762550354
1629376450673,0.0687771812081337,-0.033186450600624,-0.5834461450576782,0.563258707523346
1629376450751,0.0626450851559639,-0.0257057957351207,-0.5884062647819519,0.5461163520812988
1629376450860,0.056579552590847,-0.0173940286040306,-0.5880764722824097,0.5308293700218201
1629376450892,0.0506500639021396,-0.0121735138818621,-0.5855894684791565,0.5189619660377502
1629376450938,0.0450495481491088,-0.0108254551887512,-0.5840998888015747,0.5056027173995972
1629376451079,0.0338079035282135,-0.0134519422426819,-0.5902563333511353,0.4898638427257538
1629376451157,0.041937343776226,-0.0234777983278036,-0.5958723425865173,0.4718869030475616
1629376451267,0.0670421123504638,-0.0396474823355674,-0.5968223810195923,0.4521879255771637
1629376451391,0.101942628622055,-0.0576488077640533,-0.5914327502250671,0.4342865347862243
1629376451438,0.1342386752367019,-0.0703417733311653,-0.5806171894073486,0.4235096871852875
1629376451563,0.1554926633834839,-0.0703275203704834,-0.5633652210235596,0.4234840869903564
1629376451720,0.1671196818351745,-0.0565461963415145,-0.5392867922782898,0.4355635046958923
1629376451813,0.1783543676137924,-0.0356315523386001,-0.5113868117332458,0.4554444253444671
1629376451877,0.1951507478952407,-0.0258501414209604,-0.4851747453212738,0.4719218909740448
1629376451987,0.2141790688037872,-0.0187089145183563,-0.4618018865585327,0.4805159866809845
1629376452049,0.2292712181806564,-0.0181064885109663,-0.4387656152248382,0.4833254516124725
1629376452190,0.2370805889368057,-0.0247603133320808,-0.4151359796524048,0.4850580394268036
1629376452236,0.2401114255189895,-0.0356878340244293,-0.3951478600502014,0.4974843263626098
1629376452315,0.2442793548107147,-0.0464166291058063,-0.3822988271713257,0.509243369102478
1629376452596,0.2590031325817108,-0.0536697432398796,-0.375370591878891,0.5212951302528381
1629376452627,0.2740580439567566,-0.0540465787053108,-0.3699763119220733,0.5344113111495972
1629376452658,0.2837522327899933,-0.0427042841911315,-0.3626994490623474,0.5472056269645691
1629376452768,0.2811025083065033,-0.0162284113466739,-0.354110985994339,0.5578429698944092
1629376452861,0.2835506796836853,0.0227720998227596,-0.3471165299415588,0.5760260820388794
1629376453002,0.281450480222702,0.0227720998227596,-0.3454721868038177,0.5865359306335449
1629376453080,0.2741777598857879,0.0227720998227596,-0.3528517186641693,0.5795939564704895
1629376453158,0.2610681354999542,0.0227720998227596,-0.3693645894527435,0.5559898018836975
1629376453346,0.2396106719970703,0.0227720998227596,-0.3893225193023681,0.5236942172050476
1629376453392,0.2090809941291809,0.0593093112111091,-0.4028886258602142,0.5027230978012085
1629376453455,0.1754401475191116,0.0746573507785797,-0.4065492451190948,0.4978402256965637
1629376453549,0.1493081897497177,0.08281921595335,-0.4072201550006866,0.5033124685287476
1629376453689,0.1404646784067154,0.0856696814298629,-0.4139185547828674,0.512306809425354
1629376453814,0.1476948410272598,0.08725006878376,-0.4262286722660064,0.5073758959770203
1629376453879,0.1611389964818954,0.0896698608994484,-0.4346019327640533,0.5101597905158997
1629376454020,0.1701800972223281,0.0934153348207473,-0.4318042695522308,0.5221583843231201
1629376454098,0.1758991926908493,0.096325546503067,-0.4217384457588196,0.5372753739356995
1629376454160,0.1745259016752243,0.0955747440457344,-0.4149093329906463,0.5471049547195435
1629376454317,0.1662531495094299,0.0905856341123581,-0.4163531959056854,0.5475409626960754
1629376454395,0.1276253312826156,0.0829008668661117,-0.4234072864055633,0.5308411121368408
1629376454520,0.0903438851237297,0.0744529962539672,-0.4296394884586334,0.5093874335289001
1629376454598,0.0710263773798942,0.068393275141716,-0.4315405189990997,0.4935517311096191
1629376454692,0.0730161070823669,0.0606916956603527,-0.4315240383148193,0.48468017578125
1629376454786,0.0865387618541717,0.048690989613533,-0.4348991811275482,0.4809402525424957
1629376455013,0.0999452993273735,0.0327680446207523,-0.4457127153873443,0.4747279584407806
1629376455091,0.1071851775050163,0.0154834678396582,-0.4638195037841797,0.4648114144802093
1629376455185,0.1064816787838935,-0.0019947297405451,-0.4834651947021484,0.4538927376270294
1629376455278,0.0987318754196167,-0.0211274474859237,-0.494920939207077,0.4473415911197662
1629376455403,0.0866362527012825,-0.044268749654293,-0.4924582839012146,0.4502036869525909
1629376455575,0.0719588920474052,-0.0713299065828323,-0.4814759790897369,0.4592717587947845
1629376455669,0.0569084845483303,-0.099864512681961,-0.4740947484970093,0.4648452699184418
1629376455700,0.0449749901890754,-0.125727966427803,-0.4773610532283783,0.4631586670875549
1629376455872,0.0399724543094635,-0.1456166058778762,-0.4879084825515747,0.4588166773319244
1629376455903,0.0429537445306777,-0.1598674803972244,-0.4985069632530212,0.4576101005077362
1629376455998,0.0509133972227573,-0.1712905168533325,-0.5067128539085388,0.4629403352737427
1629376456077,0.0583031810820102,-0.1825013905763626,-0.5158406496047974,0.4717636406421661
1629376456233,0.0601141564548015,-0.1934134513139724,-0.5283944606781006,0.4799950718879699
1629376456295,0.0530495010316371,-0.2017906010150909,-0.5410830974578857,0.4842572808265686
1629376456327,0.0393568202853202,-0.2059492915868759,-0.5473218560218811,0.4867149591445923
1629376456436,0.0299427285790443,-0.2075873166322708,-0.5444632172584534,0.4964704811573028
1629376456498,0.0357225611805915,-0.2077980637550354,-0.5360563397407532,0.5173051953315735
1629376456623,0.0542619675397872,-0.2026359140872955,-0.5273901224136353,0.5430123805999756
1629376456782,0.0736351832747459,-0.1876048296689987,-0.5221041440963745,0.5620092749595642
1629376456860,0.0896198228001594,-0.164226159453392,-0.5216450691223145,0.566067636013031
1629376456985,0.1077477410435676,-0.1409059166908264,-0.5271747708320618,0.5550330877304077
1629376457016,0.1309651136398315,-0.1257726699113845,-0.5373572111129761,0.534001886844635
1629376457141,0.1548554301261901,-0.1201429888606071,-0.5481396913528442,0.5092527866363525
1629376457221,0.172815516591072,-0.1171800419688224,-0.5543181896209717,0.4869163036346435
1629376457362,0.1833112388849258,-0.105434700846672,-0.5523685216903687,0.4704160690307617
1629376457469,0.1877947896718979,-0.0800502002239227,-0.540771484375,0.4556146562099457
1629376457565,0.1888371855020523,-0.0490195453166961,-0.5209702849388123,0.4417719841003418
1629376457625,0.1883682459592819,-0.0248714070767164,-0.5002906918525696,0.4291756153106689
1629376457820,0.1885413080453872,-0.0142309619113802,-0.4878869652748108,0.4211627244949341
1629376457851,0.1889088898897171,-0.0154046574607491,-0.4886822998523712,0.4161624014377594
1629376458133,0.1845477372407913,-0.0220960862934589,-0.5007075667381287,0.4061047732830047
1629376458226,0.1710349172353744,-0.0289082266390323,-0.5177059769630432,0.3903003633022308
1629376458400,0.1500798016786575,-0.0344249755144119,-0.5359390377998352,0.3739900588989258
1629376458494,0.1285572499036789,-0.0404095835983753,-0.5571668148040771,0.3636276721954345
1629376458525,0.1083964705467224,-0.0491542927920818,-0.5839368104934692,0.3614358901977539
1629376458697,0.083108015358448,-0.0597588457167148,-0.6129717826843262,0.3640355169773102
1629376458776,0.0498787984251976,-0.06843813508749,-0.6367369294166565,0.3707089424133301
1629376458842,0.0140990503132343,-0.0719295367598533,-0.6503498554229736,0.3825196623802185
1629376458889,-0.0139957414939999,-0.0716156139969825,-0.6578479409217834,0.396498829126358
1629376458998,-0.0295240003615617,-0.0745960921049118,-0.6672140955924988,0.4093092978000641
1629376459045,-0.0356430672109127,-0.0866257473826408,-0.6832590103149414,0.4177624881267547
1629376459154,-0.0360646657645702,-0.1053367629647255,-0.7058846950531006,0.4186255633831024
1629376459232,-0.0335909500718116,-0.1216191574931144,-0.7273641228675842,0.4155574738979339
1629376459295,-0.0310621671378612,-0.1281959861516952,-0.7367530465126038,0.4097168147563934
1629376459560,-0.028796948492527,-0.1267236322164535,-0.7261767387390137,0.4046700894832611
1629376459607,-0.0243878029286861,-0.124220035970211,-0.6944385170936584,0.4035634398460388
1629376459654,-0.0153905302286148,-0.1249458715319633,-0.6500997543334961,0.4033689796924591
1629376459685,-0.0030938021373003,-0.1266657263040542,-0.6054960489273071,0.4019681215286255
1629376459811,0.0075076315551996,-0.1209237948060035,-0.5693130493164062,0.3989268839359283
1629376459923,0.0134308077394962,-0.1023508086800575,-0.5438222289085388,0.3953065574169159
1629376459970,0.0193781536072492,-0.0771926119923591,-0.5274472832679749,0.3926482498645782
1629376460111,0.0292388778179883,-0.0568523108959198,-0.5172757506370544,0.39055335521698
1629376460267,0.0434641614556312,-0.0481173954904079,-0.5116822123527527,0.3876290619373321
1629376460370,0.0583494752645492,-0.0493544340133667,-0.509233295917511,0.3825672566890716
1629376460557,0.0691156312823295,-0.0536299087107181,-0.5074977874755859,0.3760800361633301
1629376460651,0.0769057869911193,-0.0547369755804538,-0.5017095804214478,0.3741403520107269
1629376460682,0.0825729817152023,-0.0498488061130046,-0.4844289422035217,0.3805869519710541
1629376460745,0.0878374725580215,-0.0401093363761901,-0.4547656774520874,0.3964716792106628
1629376460845,0.0953592807054519,-0.0276684314012527,-0.422999233007431,0.4157191216945648
1629376460920,0.1086054816842079,-0.011756376363337,-0.4029448628425598,0.4299036264419555
1629376461060,0.1276163011789322,0.0088320579379796,-0.4021221995353699,0.4328993856906891
1629376461138,0.1490438133478164,0.0310241989791393,-0.4178780317306518,0.4260790944099426
1629376461232,0.1688009947538375,0.0470866300165653,-0.4405079782009125,0.4143204987049103
1629376461310,0.1859796196222305,0.0495857298374176,-0.4607999622821808,0.4059597551822662
1629376461420,0.2038360834121704,0.0379404723644256,-0.4742474555969238,0.4057261943817138
1629376461513,0.2210516035556793,0.0200240015983581,-0.4804551303386688,0.4106031656265259
1629376461716,0.2342248708009719,0.0060084513388574,-0.4810400605201721,0.4191818833351135
1629376461872,0.242085114121437,0.0012451980728656,-0.4769588410854339,0.4300569891929626
1629376461954,0.2473002970218658,0.0033542602322995,-0.4697037935256958,0.4430656433105469
1629376461985,0.2530403733253479,0.0058737318031489,-0.4616183936595917,0.4558884501457214
1629376462017,0.2572866380214691,0.0035753916017711,-0.4574644565582275,0.4614491164684295
1629376462126,0.2582741677761078,-0.0049232393503189,-0.4652852416038513,0.4598558247089386
1629376462220,0.2579974234104156,-0.0161356199532747,-0.4880618453025818,0.4507821202278137
1629376462298,0.2588206231594085,-0.0247779767960309,-0.5172519683837891,0.4415583312511444
1629376462423,0.2604507207870483,-0.0299030803143978,-0.5374022126197815,0.4393571615219116
1629376462533,0.2611390352249145,-0.0342843867838382,-0.5407281517982483,0.4459819197654724
1629376462610,0.2603526413440704,-0.0396977253258228,-0.5335699915885925,0.4568571746349334
1629376462876,0.258321076631546,-0.0450248681008815,-0.5261304974555969,0.4636693894863128
1629376463144,0.2549351453781128,-0.04899488016963,-0.52150958776474,0.4637835919857025
1629376463238,0.2470201849937439,-0.0518108829855918,-0.5180304050445557,0.4581154584884643
1629376463285,0.2335055917501449,-0.0540388599038124,-0.5140318870544434,0.4525635540485382
1629376463410,0.2271804362535476,-0.0565109476447105,-0.5128416419029236,0.4439649283885956
1629376463472,0.2191025912761688,-0.0608018115162849,-0.5148198008537292,0.4319566488265991
1629376463628,0.2099402099847793,-0.069176509976387,-0.5180379748344421,0.4163490533828735
1629376463691,0.2005203515291214,-0.0708476155996322,-0.5209284424781799,0.4003107845783233
1629376463722,0.1955121010541916,-0.0731986835598945,-0.5230701565742493,0.3954708576202392
1629376463785,0.1994853466749191,-0.0740750133991241,-0.522687554359436,0.4043880701065063
1629376463925,0.2096932083368301,-0.073439821600914,-0.5190091133117676,0.4226172864437103
1629376464006,0.2183597981929779,-0.0744496285915374,-0.5152055621147156,0.440785676240921
1629376464084,0.2163559794425964,-0.0814064815640449,-0.5161799192428589,0.4470143616199493
1629376464256,0.1997192353010177,-0.0973086133599281,-0.5240805745124817,0.4386201798915863
1629376464303,0.1676445454359054,-0.1218815818428993,-0.5352038741111755,0.4386201798915863
1629376464396,0.1676445454359054,-0.1499825865030288,-0.5352038741111755,0.4386201798915863
1629376464459,0.1676445454359054,-0.172464907169342,-0.5352038741111755,0.4386201798915863
1629376464553,0.1676445454359054,-0.1840420663356781,-0.5352038741111755,0.4386201798915863
1629376464616,0.1676445454359054,-0.1986849755048751,-0.5352038741111755,0.4386201798915863
1629376464678,0.1550421416759491,-0.2448345869779586,-0.5352038741111755,0.4386201798915863
1629376464774,0.1258347928524017,-0.3015698492527008,-0.5352038741111755,0.4386201798915863
1629376464868,0.0972213372588157,-0.3453420400619507,-0.5352038741111755,0.4386201798915863
1629376464977,0.0873723551630973,-0.3531472086906433,-0.5352038741111755,0.3337814211845398
1629376465071,0.1106538474559784,-0.3608543574810028,-0.5129005908966064,0.32725989818573
1629376465133,0.1557440459728241,-0.3619004487991333,-0.5388091206550598,0.3309049606323242
1629376465336,0.1987937688827514,-0.3440247774124145,-0.539968729019165,0.3309049606323242
1629376465383,0.2279000580310821,-0.3022153675556183,-0.5274639129638672,0.3309049606323242
1629376465508,0.2474765628576278,-0.245529219508171,-0.5105319619178772,0.3724724352359772
1629376465649,0.266256719827652,-0.1881766319274902,-0.4943259954452514,0.4203718304634094
1629376465808,0.2858728766441345,-0.1383269727230072,-0.4836308360099792,0.4606520235538482
1629376465855,0.3016360402107239,-0.0973581001162529,-0.4819123446941376,0.4862618446350097
1629376465917,0.3156615495681762,-0.0665309280157089,-0.4901136755943298,0.4975802004337311
1629376466136,0.3221578001976013,-0.0486010313034057,-0.5050759315490723,0.4970268309116363
1629376466183,0.3217965066432953,-0.0346920043230056,-0.5196925401687622,0.4915293455123901
1629376466230,0.3191601037979126,-0.0260512270033359,-0.5274786353111267,0.4911456704139709
1629376466402,0.3193887174129486,-0.020910682156682,-0.5396501421928406,0.4925817549228668
1629376466464,0.3245364725589752,-0.0167523566633462,-0.5341097712516785,0.4962617456912994
1629376466573,0.3297357261180877,-0.0122638223692774,-0.5161317586898804,0.499551773071289
1629376466651,0.3264307975769043,-0.0070368144661188,-0.4969763159751892,0.4987106025218963
1629376466776,0.3119734227657318,-0.0013805968919768,-0.4840329587459564,0.4942476451396942
1629376466858,0.2926446795463562,0.0019725991878658,-0.4790565073490143,0.4831833243370056
1629376466920,0.2761026620864868,-0.0014385276008397,-0.4807056486606598,0.4745383858680725
1629376467029,0.2623010277748108,-0.0158208329230546,-0.4878931045532226,0.4607872068881988
1629376467139,0.2436562478542328,-0.0423200465738773,-0.4978833496570587,0.438046932220459
1629376467186,0.2202414125204086,-0.0789344012737274,-0.505078911781311,0.4120778441429138
1629376467420,0.1923719048500061,-0.1217592880129814,-0.5028578639030457,0.3969011902809143
1629376467467,0.1677233576774597,-0.1592434197664261,-0.4875668287277221,0.4004918336868286
1629376467545,0.1546121537685394,-0.1728747487068176,-0.4610311985015869,0.4217272698879242
1629376467576,0.1559184938669204,-0.1505937725305557,-0.4301935732364654,0.4533953964710235
1629376467685,0.1693397462368011,-0.1504408866167068,-0.4178650081157684,0.4576855897903442
1629376467893,0.1872025430202484,-0.1429814249277115,-0.412296712398529,0.4634390473365783
1629376467939,0.2007285505533218,-0.1339887827634811,-0.413908302783966,0.4706012606620788
1629376467986,0.2075858861207962,-0.1247720196843147,-0.4185134470462799,0.4801282584667206
1629376468143,0.2126295864582061,-0.1146419942378997,-0.4205565452575683,0.4957219362258911
1629376468189,0.2200511246919632,-0.1055518835783004,-0.4183865189552307,0.5155779719352722
1629376468297,0.2200511246919632,-0.0995272994041442,-0.4126877188682556,0.5358986854553223
1629376468493,0.2200511246919632,-0.0957734435796737,-0.4034621119499206,0.558630108833313
1629376468571,0.2200511246919632,-0.0872640684247016,-0.3881437182426452,0.5851009488105774
1629376468696,0.2200511246919632,-0.0641450211405754,-0.3662481606006622,0.6177318096160889
1629376468774,0.2200511246919632,-0.0201200600713491,-0.3397367894649505,0.6577008366584778
1629376468805,0.2200511246919632,-0.0201200600713491,-0.3397367894649505,0.6577008366584778
1629376468918,0.2200511246919632,-0.0201200600713491,-0.3397367894649505,0.6577008366584778
1629376469011,0.2200511246919632,-0.0201200600713491,-0.3397367894649505,0.6577008366584778
1629376469105,0.2200511246919632,-0.0201200600713491,-0.3397367894649505,0.6577008366584778
1629376469230,0.2200511246919632,0.6869603991508484,-0.3397367894649505,0.6577008366584778
1629376469339,0.2200511246919632,0.6869603991508484,-0.3397367894649505,0.6577008366584778
1629376469590,0.2200511246919632,0.6869603991508484,-0.3397367894649505,0.6577008366584778
1629376469716,0.2200511246919632,0.6869603991508484,-0.3397367894649505,0.6577008366584778
1629376469794,0.2200511246919632,0.6869603991508484,-0.3397367894649505,0.6577008366584778
1629376469825,0.2200511246919632,0.6869603991508484,-0.3397367894649505,0.6577008366584778
1629376469856,0.2200511246919632,0.6869603991508484,-0.3397367894649505,0.6577008366584778
1629376469952,0.2200511246919632,0.6869603991508484,-0.3397367894649505,0.6577008366584778
1629376470062,0.2200511246919632,0.8280152082443237,-0.3397367894649505,0.6577008366584778
1629376470202,0.2200511246919632,0.8892533779144287,-0.3397367894649505,0.6577008366584778
1629376470327,0.2200511246919632,0.8998761773109436,-0.3397367894649505,0.6577008366584778
1629376470405,0.2200511246919632,0.8766189217567444,-0.3397367894649505,0.6577008366584778
1629376470468,0.2200511246919632,0.8791062831878662,-0.3397367894649505,0.6577008366584778
1629376470515,0.2200511246919632,0.8636061549186707,-0.3397367894649505,0.6577008366584778
1629376470639,0.2200511246919632,0.8227605223655701,-0.3397367894649505,0.6577008366584778
1629376470749,0.2200511246919632,0.7452226281166077,-0.3397367894649505,0.6577008366584778
1629376470908,0.2200511246919632,0.7021065950393677,-0.3397367894649505,0.6577008366584778
1629376470955,0.2200511246919632,0.6664730906486511,-0.3397367894649505,0.6577008366584778
1629376471049,0.2200511246919632,0.6366710662841797,-0.3397367894649505,0.6577008366584778
1629376471158,0.2200511246919632,0.6112880706787109,-0.3397367894649505,0.6577008366584778
1629376471236,0.0542456991970539,0.5896419286727905,-0.334739476442337,0.6508293747901917
1629376471564,0.0983755886554718,0.5710762143135071,-0.3400724232196808,0.6349416971206665
1629376471627,0.1419823467731475,0.5544236898422241,-0.3537819683551788,0.6244791746139526
1629376471720,0.1774149537086486,0.4375420212745666,-0.3744357526302337,0.6226437091827393
1629376471767,0.1995074898004531,0.2942998707294464,-0.3969630002975464,0.6250028014183044
1629376471892,0.2095403224229812,0.1564578413963318,-0.4182317852973938,0.6297280192375183
1629376471974,0.2103795707225799,0.0717699602246284,-0.4372894465923309,0.632283627986908
1629376472036,0.2104979902505874,0.044969268143177,-0.4530508816242218,0.6297872066497803
1629376472192,0.2138534188270568,0.0410971567034721,-0.4657690227031708,0.6229422092437744
1629376472270,0.2190277725458145,0.0414846017956733,-0.4765689373016357,0.611528754234314
1629376472349,0.2215311527252197,0.0394140966236591,-0.4853746592998504,0.5948110818862915
1629376472411,0.2178331762552261,0.0319675765931606,-0.4913594126701355,0.5770297050476074
1629376472505,0.222252756357193,0.0196112897247076,-0.510344386100769,0.5477340817451477
1629376472708,0.2255929410457611,0.0042004724964499,-0.5315530300140381,0.5238937139511108
1629376472770,0.2324052304029464,-0.0149473659694194,-0.5578727722167969,0.5074194669723511
1629376472848,0.2427162379026413,-0.0407385788857936,-0.5895923376083374,0.4928333461284637
1629376472975,0.2494236826896667,-0.073397971689701,-0.6205372214317322,0.4786734282970428
1629376473085,0.2454144954681396,-0.1081278696656227,-0.642151951789856,0.4665808081626892
1629376473133,0.2333225756883621,-0.1367723643779754,-0.6503623723983765,0.4526087343692779
1629376473198,0.2245960533618927,-0.1494899541139602,-0.6464903354644775,0.4378812909126282
1629376473291,0.2282780259847641,-0.1403200626373291,-0.635025680065155,0.4226302206516266
1629376473401,0.2416911423206329,-0.1117898449301719,-0.6226270794868469,0.4062480926513672
1629376473510,0.2515739202499389,-0.0752843767404556,-0.6163771748542786,0.3907285630702972
1629376473635,0.2482765167951584,-0.0415540523827075,-0.6163955330848694,0.3741816580295563
1629376473729,0.2461701184511184,-0.031391330063343,-0.6152464747428894,0.3615482449531555
1629376473822,0.2456538379192352,-0.0185683108866214,-0.6148949265480042,0.363998681306839
1629376473901,0.2519180178642273,-0.0034850006923079,-0.6174667477607727,0.3847990036010742
1629376473994,0.2661594748497009,0.0112228514626622,-0.6220149397850037,0.4177256524562835
1629376474119,0.2816720008850097,0.0244924183934927,-0.6228281259536743,0.4545394480228424
1629376474198,0.2689836919307709,0.0393118597567081,-0.614194929599762,0.4817269444465637
1629376474275,0.2412262260913849,0.0599861182272434,-0.5968095064163208,0.4956729412078857
1629376474385,0.2076854258775711,0.0876031965017318,-0.5766807794570923,0.4997101426124573
1629376474541,0.2019312679767608,0.1203074678778648,-0.5585682392120361,0.4978047013282776
1629376474650,0.2054919451475143,0.1554987281560897,-0.5329078435897827,0.4963178336620331
1629376474744,0.1877720355987548,0.1878998726606369,-0.5236979722976685,0.4965353310108185
1629376474807,0.1516586691141128,0.1878998726606369,-0.5312966108322144,0.4962135255336761
1629376474900,0.0958643332123756,0.1878998726606369,-0.5413833856582642,0.4970668256282806
1629376475043,0.037992101162672,0.1878998726606369,-0.532680332660675,0.5012415051460266
1629376475121,0.008406420238316,0.1878998726606369,-0.5003304481506348,0.5154438018798828
1629376475215,0.0160109028220176,0.0157227981835603,-0.4818770885467529,0.5410547852516174
1629376475309,0.0307235270738601,0.0577256046235561,-0.4703177809715271,0.5686221718788147
1629376475403,0.0450421646237373,0.0808784142136573,-0.4707772135734558,0.5851858854293823
1629376475528,0.0554686076939106,0.0819238349795341,-0.4809455275535583,0.5860283970832825
1629376475653,0.0676381438970565,0.0709870904684066,-0.4941427409648895,0.5778876543045044
1629376475762,0.0897286683320999,0.060136679559946,-0.5051591396331787,0.5775317549705505
1629376475828,0.1168723106384277,0.0534230135381221,-0.5132826566696167,0.5912721753120422
1629376476000,0.1380179971456527,0.0497635267674922,-0.5202146172523499,0.6099855303764343
1629376476078,0.1377541422843933,0.049844354391098,-0.524350106716156,0.6264147758483887
1629376476203,0.1362111121416092,0.0543999075889587,-0.5288127660751343,0.6359554529190063
1629376476265,0.1449462622404098,0.0606292299926281,-0.5299098491668701,0.6397372484207153
1629376476312,0.1570957452058792,0.0642424449324607,-0.5291403532028198,0.6406525373458862
1629376476437,0.1695760637521743,0.0713734030723571,-0.5271422863006592,0.638832688331604
1629376476562,0.1792695075273513,0.0736490562558174,-0.537084698677063,0.634273886680603
1629376476812,0.186071828007698,0.0709297433495521,-0.5527063012123108,0.625054657459259
1629376476874,0.1899491101503372,0.06092469394207,-0.5722350478172302,0.6074495315551758
1629376476909,0.19195356965065,0.0434680506587028,-0.5890477299690247,0.5846357345581055
1629376477018,0.1932529062032699,0.0233692433685064,-0.5946996808052063,0.5613335967063904
1629376477284,0.1939651072025299,0.0075604035519063,-0.5836153626441956,0.5396939516067505
1629376477362,0.1916941255331039,-0.0010176284704357,-0.562359631061554,0.519005537033081
1629376477393,0.1845131069421768,-0.0035092483740299,-0.5448967218399048,0.49345463514328
1629376477565,0.1752815246582031,-0.0024830799084156,-0.5396212935447693,0.4643675684928894
1629376477612,0.1691616177558899,-0.0015344625571742,-0.5449195504188538,0.4426769018173218
1629376477706,0.1660655438899994,-0.0062833782285451,-0.5545583963394165,0.437063068151474
1629376477737,0.1603079885244369,-0.0203348603099584,-0.5624994039535522,0.4524384438991546
1629376477784,0.1474433988332748,-0.0411610715091228,-0.5676543712615967,0.478645384311676
1629376477903,0.1295866668224334,-0.0613819696009159,-0.5696161985397339,0.5002990365028381
1629376477975,0.1158081293106079,-0.0743089318275451,-0.5745331645011902,0.5119110941886902
1629376478131,0.1134346276521682,-0.0774780660867691,-0.5734493136405945,0.5155954360961914
1629376478240,0.1206455007195472,-0.0727428570389747,-0.5689523220062256,0.5181825757026672
1629376478400,0.1293732821941375,-0.064382828772068,-0.5637215971946716,0.5249459147453308
1629376478432,0.1331336498260498,-0.0565936900675296,-0.5613845586776733,0.5311775803565979
1629376478650,0.1347164064645767,-0.0515632890164852,-0.5624436140060425,0.5352855324745178
1629376478697,0.1436091363430023,-0.0502098798751831,-0.5669281482696533,0.5375866889953613
1629376478957,0.1426762342453003,-0.054265160113573,-0.572818398475647,0.5396255254745483
1629376479091,0.1406741738319397,-0.0632406324148178,-0.5733642578125,0.5426259636878967
1629376479247,0.1383057832717895,-0.0636685341596603,-0.556226372718811,0.548444390296936
1629376479293,0.1379714757204055,-0.0270540453493595,-0.5017256140708923,0.56171715259552
1629376479481,0.1432757824659347,0.0533561035990715,-0.411637008190155,0.5580630302429199
1629376479559,0.1562699824571609,0.1477103531360626,-0.3128784000873565,0.5410091876983643
1629376479684,0.1762809753417968,0.2262843549251556,-0.228023424744606,0.5117329955101013
1629376479761,0.2007295936346054,0.2805082499980926,-0.1641723215579986,0.4818484783172607
1629376479936,0.2234351933002472,0.3146990239620209,-0.1171952784061431,0.4655508697032928
1629376479999,0.2384083569049835,0.3343245387077331,-0.0780442655086517,0.4800663292407989
1629376480077,0.2415484338998794,0.3421834707260132,-0.0388474352657794,0.5001615285873413
1629376480202,0.2415484338998794,0.342058002948761,0.0049676233902573,0.5170972347259521
1629376480311,0.2415484338998794,0.3399973213672638,0.0510587394237518,0.5328482389450073
1629376480405,0.2415484338998794,0.339743822813034,0.0908647328615188,0.5400012731552124
1629376480436,0.2415484338998794,0.3415738940238952,0.1184053570032119,0.5572200417518616
1629376480467,0.2415484338998794,0.3450179398059845,0.1629282683134079,0.5819673538208008
1629376480592,0.2415484338998794,0.3485596179962158,0.1741184294223785,0.608802318572998
1629376480670,0.2415484338998794,0.346976488828659,0.1850344538688659,0.6281726956367493
1629376480813,0.2415484338998794,0.3296442031860351,0.1919939815998077,0.616266131401062
1629376480845,0.1622118204832077,0.2879692018032074,0.1885974556207656,0.616266131401062
1629376480892,0.2168055772781372,0.2225019037723541,0.1729787737131118,0.616266131401062
1629376480970,0.2446945458650589,0.1438985168933868,0.1491347551345825,0.616266131401062
1629376481126,0.2497731745243072,0.0660378858447074,0.1237471848726272,0.616266131401062
1629376481188,0.2450976222753524,-0.0024105655029416,0.100167341530323,0.616266131401062
1629376481329,0.2424395084381103,-0.0569973550736904,0.0753530636429786,0.616266131401062
1629376481376,0.2436575591564178,-0.0908340513706207,0.0433251857757568,0.616266131401062
1629376481470,0.2470244914293289,-0.0963570326566696,-0.000669045432005,0.616266131401062
1629376481516,0.2494363784790039,-0.0761118754744529,-0.0562181062996387,0.616266131401062
1629376481548,0.2489708364009857,-0.041806548833847,-0.1140955835580825,0.616266131401062
1629376481610,0.2455364763736724,-0.0088138151913881,-0.1614461541175842,0.4889740645885467
1629376481751,0.2373304069042205,0.0112842433154582,-0.260021299123764,0.4679064154624939
1629376481847,0.2323103249073028,0.0174214746803045,-0.2911336421966553,0.4460304379463196
1629376481956,0.2267597317695617,0.0153133887797594,-0.3317911624908447,0.4307930171489715
1629376482019,0.2127901911735534,0.0101772733032703,-0.3867106437683105,0.4233991205692291
1629376482097,0.1883452534675598,0.0040435423143208,-0.4463262856006622,0.4239071607589721
1629376482222,0.1576431542634964,-0.0003571650595404,-0.4948852360248565,0.4267088770866394
1629376482378,0.1281453222036361,-0.0003624381497502,-0.5260326266288757,0.4262897372245788
1629376482425,0.1088143289089202,0.003346185432747,-0.5465143918991089,0.420824259519577
1629376482518,0.1015651077032089,0.0074882339686155,-0.5638256072998047,0.4137898683547973
1629376482638,0.0980392023921012,0.0097346222028136,-0.5768505930900574,0.408538281917572
1629376482700,0.0877128317952156,0.0087904641404747,-0.5800313353538513,0.4056808650493622
1629376482810,0.0638899877667427,-0.0002252182166557,-0.572576642036438,0.3960943818092346
1629376482969,0.0280437059700489,-0.0226445663720369,-0.557733416557312,0.3835310339927673
1629376483032,-0.0123971374705433,-0.0569965578615665,-0.5393891334533691,0.3739560842514038
1629376483125,-0.0501416623592376,-0.0918691232800483,-0.5211695432662964,0.3668637573719024
1629376483219,-0.0778005793690681,-0.1138219237327575,-0.5070974826812744,0.3634736835956573
1629376483406,-0.0893188863992691,-0.1196939572691917,-0.4993381798267364,0.3600374460220337
1629376483625,-0.0888053402304649,-0.1162114441394805,-0.4977405369281769,0.3549432754516601
1629376483688,-0.0850199162960052,-0.1105578392744064,-0.5028409361839294,0.3498784601688385
1629376483719,-0.0829555168747901,-0.1063602045178413,-0.5152374505996704,0.3456485867500305
1629376483859,-0.081157200038433,-0.1060259267687797,-0.5312798023223877,0.3450530469417572
1629376483891,-0.0739412158727645,-0.110084056854248,-0.5404576063156128,0.3485632538795471
1629376483937,-0.0612966306507587,-0.1158376336097717,-0.5333022475242615,0.3560258448123932
1629376484047,-0.0523548647761344,-0.1195301041007042,-0.5122559070587158,0.3629746735095978
1629376484187,-0.0506840609014034,-0.1192120760679245,-0.4891322255134582,0.3695095479488373
1629376484234,-0.0477517731487751,-0.1136129647493362,-0.4744196534156799,0.3782077729701996
1629376484313,-0.0342904478311538,-0.1025875881314277,-0.4725388884544372,0.3933809995651245
1629376484437,-0.0120904939249157,-0.089286595582962,-0.4836853146553039,0.41521155834198
1629376484531,0.0074839419685304,-0.0790266469120979,-0.5050433278083801,0.4380018413066864
1629376484765,0.0170723740011453,-0.0747100561857223,-0.5323748588562012,0.4575813412666321
1629376484844,0.0199268907308578,-0.0737002566456794,-0.5610372424125671,0.4729691445827484
1629376484875,0.0223195385187864,-0.0691553205251693,-0.5839262008666992,0.4871499836444855
1629376485033,0.0296916402876377,-0.056271705776453,-0.5946272611618042,0.5012010335922241
1629376485127,0.0417418144643306,-0.036445565521717,-0.5915944576263428,0.5134342908859253
1629376485299,0.0526249669492244,-0.0153913684189319,-0.5809687972068787,0.522131085395813
1629376485377,0.0561363436281681,0.0017286292277276,-0.5724760293960571,0.5255963802337646
1629376485424,0.0487371422350406,0.014263735152781,-0.5737518668174744,0.5257593989372253
1629376485518,0.030265798792243,0.0247142054140567,-0.5872578024864197,0.5256896615028381
1629376485564,0.0057949507609009,0.0352434180676937,-0.6100767254829407,0.5267277956008911
1629376485627,-0.0128220645710825,0.0469508320093154,-0.6353569626808167,0.5298855304718018
1629376485721,-0.0126394657418131,0.0595880486071109,-0.6544051170349121,0.5358602404594421
1629376485830,0.0075492863543331,0.0706464797258377,-0.6609355807304382,0.5404998064041138
1629376486036,0.0384786985814571,0.0779799818992614,-0.6548521518707275,0.5396742820739746
1629376486146,0.0718247443437576,0.0820373594760894,-0.6393802165985107,0.5312384366989136
1629376486208,0.1037982478737831,0.0842694416642189,-0.6168776750564575,0.5176133513450623
1629376486302,0.1326535791158676,0.0844996571540832,-0.5889450907707214,0.506071925163269
1629376486473,0.1551368981599807,0.0799314305186271,-0.5577707886695862,0.5000413656234741
1629376486520,0.1694896817207336,0.0689130574464798,-0.5281661748886108,0.4998425245285034
1629376486598,0.178599938750267,0.053656842559576,-0.5047468543052673,0.5041995644569397
1629376486723,0.1862027198076248,0.0377485528588295,-0.4898511469364166,0.5084559321403503
1629376486770,0.1952138394117355,0.0239226836711168,-0.4828275144100189,0.5119318962097168
1629376486864,0.206156238913536,0.013454464264214,-0.4813099205493927,0.5171200633049011
1629376486989,0.2185368090867996,0.0056580584496259,-0.4810911417007446,0.52421635389328
1629376487182,0.2326964139938354,-0.0010908611584454,-0.4762246012687683,0.532405436038971
1629376487245,0.2488018274307251,-0.0102842962369322,-0.4633767306804657,0.5374956727027893
1629376487323,0.2629420459270477,-0.0264685936272144,-0.4467774331569671,0.535793125629425
1629376487510,0.2690991163253784,-0.0505739487707614,-0.4350427687168121,0.5278323888778687
1629376487573,0.2635559439659118,-0.077583409845829,-0.4327629506587982,0.517107367515564
1629376487604,0.2480053901672363,-0.0978885740041732,-0.4376600384712219,0.5113319754600525
1629376487651,0.2282433062791824,-0.1041133180260658,-0.4425859451293945,0.5144643783569336
1629376487854,0.2120116204023361,-0.0984746813774108,-0.4410260617733001,0.526244580745697
1629376488010,0.2088458240032196,-0.0899626389145851,-0.4328227341175079,0.5398220419883728
1629376488139,0.224683791399002,-0.0867280140519142,-0.4229350686073303,0.5498464703559875
1629376488217,0.2531851232051849,-0.09128088504076,-0.4163980185985565,0.5552825331687927
1629376488280,0.2807817757129669,-0.099396102130413,-0.4138030409812927,0.5560332536697388
1629376488371,0.299953281879425,-0.1041234657168388,-0.4116689264774322,0.5541605353355408
1629376488527,0.3123286962509155,-0.102746233344078,-0.4071542024612427,0.5495637655258179
1629376488621,0.3205699622631073,-0.0986546799540519,-0.4030459821224212,0.5409278273582458
1629376488684,0.3234013617038727,-0.0975472331047058,-0.4059383273124695,0.5307016372680664
1629376488777,0.3166269361972809,-0.1017954647541046,-0.4181034862995147,0.5231924653053284
1629376488824,0.3014495968818664,-0.1087274998426437,-0.4329735338687897,0.5231125354766846
1629376488903,0.2854974269866943,-0.1142027452588081,-0.4403916895389557,0.5326813459396362
1629376489077,0.2842445373535156,-0.1178816184401512,-0.4363026916980743,0.5458171367645264
1629376489233,0.2942505776882171,-0.1245253607630729,-0.4272645711898803,0.5524671673774719
1629376489295,0.3138793110847473,-0.139089748263359,-0.4245321154594421,0.5506125688552856
1629376489405,0.3176324069499969,-0.1603139042854309,-0.435755968093872,0.5407748222351074
1629376489498,0.3157410621643066,-0.181204617023468,-0.4649590253829956,0.5307072997093201
1629376489530,0.2995956540107727,-0.1957591027021408,-0.5086601376533508,0.5247971415519714
1629376489670,0.266813576221466,-0.203480526804924,-0.555415689945221,0.5212729573249817
1629376489849,0.2296557128429412,-0.2072941809892654,-0.5914878845214844,0.522828221321106
1629376489923,0.205278992652893,-0.210269346833229,-0.6128206849098206,0.5314139127731323
1629376489970,0.1885260939598083,-0.2141001373529434,-0.6264761090278625,0.5460455417633057
1629376490095,0.1758868098258972,-0.2186368107795715,-0.6352260112762451,0.561219334602356
1629376490345,0.1686131507158279,-0.2213128805160522,-0.6268056631088257,0.5708134174346924
1629376490408,0.1712920665740966,-0.2179365009069442,-0.6268056631088257,0.5704987645149231
1629376490454,0.1803817301988601,-0.2070884853601455,-0.6268056631088257,0.5581731200218201
1629376490548,0.1865342259407043,-0.1913376003503799,-0.6268056631088257,0.5364886522293091
1629376490673,0.1917328536510467,-0.1735617369413375,-0.6268056631088257,0.5125330686569214
1629376490720,0.1944050788879394,-0.1555310040712356,-0.6268056631088257,0.4958821535110473
1629376490879,0.1922997534275055,-0.1384817659854889,-0.5301494598388672,0.4894477725028991
1629376490942,0.199356809258461,-0.1252306550741195,-0.5273427367210388,0.4850605130195617
1629376491099,0.1985496282577514,-0.1186926513910293,-0.5442238450050354,0.4753890931606293
1629376491178,0.1954528093338012,-0.1179551407694816,-0.5710532069206238,0.4608033299446106
1629376491224,0.1973616778850555,-0.1187210381031036,-0.5964651703834534,0.4464281797409057
1629376491584,0.2023389935493469,-0.1169050931930542,-0.6058262586593628,0.4383283853530884
1629376491662,0.1976209580898285,-0.1113649383187294,-0.5906457304954529,0.4347803890705108
1629376491709,0.1857866048812866,-0.102785550057888,-0.558376669883728,0.4308241605758667
1629376491740,0.1669835150241851,-0.0916227921843528,-0.5268881320953369,0.4273804426193237
1629376491834,0.1476798504590988,-0.0771747976541519,-0.5091215968132019,0.4255965650081634
1629376491961,0.1342657804489135,-0.0581874139606952,-0.5059295892715454,0.4288685321807861
1629376492070,0.1285135895013809,-0.0353284329175949,-0.5108910799026489,0.4397914409637451
1629376492133,0.1240686252713203,-0.0118065671995282,-0.5143357515335083,0.4551352858543396
1629376492226,0.1156156212091445,0.0089126816019415,-0.5175113677978516,0.4696839451789856
1629376492320,0.1074377223849296,0.0265706814825534,-0.523418128490448,0.4812963902950287
1629376492367,0.1037516668438911,0.0426885969936847,-0.5317697525024414,0.4886471927165985
1629376492539,0.104065217077732,0.0576092563569545,-0.5375888347625732,0.4941898584365845
1629376492586,0.1039184927940368,0.0693762153387069,-0.5351088643074036,0.4995442628860473
1629376492633,0.0978716388344764,0.075452409684658,-0.5229058265686035,0.5036776661872864
1629376492758,0.0852827504277229,0.0757522955536842,-0.5059103965759277,0.5052721500396729
1629376492898,0.0636943578720092,0.0657623186707496,-0.4930877685546875,0.4920735955238342
1629376492992,0.0737000554800033,0.0579178147017955,-0.5038523077964783,0.4752371907234192
1629376493132,0.0975275561213493,0.048648927360773,-0.5177624225616455,0.4536918699741363
1629376493164,0.1237010061740875,0.0368860885500907,-0.5265227556228638,0.4320972561836242
1629376493320,0.140970692038536,0.0191624797880649,-0.5286967158317566,0.4122342467308044
1629376493398,0.1482698768377304,-0.0072865411639213,-0.5271605849266052,0.3913662731647491
1629376493507,0.1515268981456756,-0.0402515679597854,-0.5236773490905762,0.3692339062690735
1629376493554,0.1570647656917572,-0.0739135444164276,-0.5168565511703491,0.3505638539791107
1629376493679,0.1642016768455505,-0.1051707491278648,-0.5050172209739685,0.3418555557727813
1629376493791,0.1684882044792175,-0.1338396668434143,-0.4879539608955383,0.3463501334190368
1629376493885,0.1707947254180908,-0.1541454046964645,-0.467644602060318,0.3654679656028747
1629376493963,0.1767885237932205,-0.1549022942781448,-0.4491256177425384,0.3949553072452545
1629376494088,0.1910551637411117,-0.132982537150383,-0.4366401135921478,0.4239863157272339
1629376494166,0.211335003376007,-0.1008027270436286,-0.4297299683094024,0.4444194734096527
1629376494338,0.2299736589193344,-0.0717787221074104,-0.4262512326240539,0.453923612833023
1629376494400,0.2405429184436798,-0.049329686909914,-0.4259050786495209,0.4580088853836059
1629376494557,0.2402177602052688,-0.0303753726184368,-0.4301629364490509,0.4668015837669372
1629376494650,0.2310025542974472,-0.0133071383461356,-0.4383081197738647,0.4810719192028045
1629376494697,0.2182744890451431,0.0012946865754202,-0.4455981254577636,0.4931574165821075
1629376494775,0.2084781676530838,0.0136911859735846,-0.448550820350647,0.4997016489505768
1629376494916,0.2016751319169998,0.0243212413042783,-0.4502443373203277,0.502519965171814
1629376494978,0.1924853920936584,0.031474020332098,-0.4558848738670349,0.5019881725311279
1629376495135,0.1775706708431244,0.0322604179382324,-0.4671988785266876,0.4993236660957336
1629376495197,0.159370020031929,0.0258464720100164,-0.4821640253067016,0.4898082613945007
1629376495369,0.1445888578891754,0.0150786079466342,-0.4973921179771423,0.4717206358909607
1629376495431,0.1349458694458007,0.0032068651635199,-0.5115589499473572,0.4474887251853943
1629376495572,0.1254186779260635,-0.0073887747712433,-0.5248162150382996,0.4205039143562317
1629376495681,0.1106767803430557,-0.0141663858667016,-0.5387498140335083,0.3985473811626434
1629376495778,0.0889346376061439,-0.0152314975857734,-0.5539501905441284,0.3858938217163086
1629376495856,0.0652458518743515,-0.0113649992272257,-0.5681353807449341,0.379638671875
1629376495934,0.0486409850418567,-0.0062676025554537,-0.5789168477058411,0.3736275136470794
1629376496043,0.0447003617882728,-0.0038497454952448,-0.5846855640411377,0.3684930503368377
1629376496106,0.0523444898426532,-0.0047892141155898,-0.5840467810630798,0.3721267580986023
1629376496262,0.0651747211813926,-0.0076152682304382,-0.5761516094207764,0.3941997289657593
1629376496372,0.0752173140645027,-0.0114533845335245,-0.5631353855133057,0.4289330542087555
1629376496418,0.0793075412511825,-0.0170497838407754,-0.5492376089096069,0.46231609582901
1629376496622,0.0803729146718978,-0.0250426288694143,-0.5377691388130188,0.4874345064163208
1629376496637,0.0810799598693847,-0.033423900604248,-0.5281325578689575,0.5034840703010559
1629376496715,0.0829668641090393,-0.0385868959128856,-0.5177224278450012,0.5158697962760925
1629376496812,0.083357460796833,-0.0401340834796428,-0.5069251656532288,0.525671124458313
1629376497006,0.0803323537111282,-0.0424095056951046,-0.5002057552337646,0.5309886336326599
1629376497144,0.0757849067449569,-0.0513813644647598,-0.499054878950119,0.5299661159515381
1629376497228,0.0713957920670509,-0.0701649188995361,-0.4983514547348022,0.5205074548721313
1629376497283,0.0713827461004257,-0.0952594503760337,-0.4895766675472259,0.5089339017868042
1629376497317,0.0779821425676345,-0.1194049343466758,-0.469554990530014,0.5019277334213257
1629376497448,0.0919299572706222,-0.1390571594238281,-0.4442214369773865,0.5033090114593506
1629376497603,0.1156777292490005,-0.1578336656093597,-0.4234127700328827,0.5116483569145203
1629376497693,0.1481141597032547,-0.1802716553211212,-0.4140306413173675,0.5259929299354553
1629376497797,0.1839456707239151,-0.2043534368276596,-0.4174955189228058,0.541858971118927
1629376497879,0.1851005405187606,-0.2197994291782379,-0.428572416305542,0.5539008975028992
1629376497962,0.191473588347435,-0.2152181565761566,-0.4388794302940368,0.5593134164810181
1629376498035,0.2144171744585037,-0.1900271624326706,-0.4439663589000702,0.5561034083366394
1629376498199,0.226693794131279,-0.1546836495399475,-0.4477749764919281,0.5491130948066711
1629376498334,0.2293665409088134,-0.1214749217033386,-0.4577375650405884,0.5411079525947571
1629376498426,0.2264853715896606,-0.0972969830036163,-0.4755889773368835,0.5352077484130859
1629376498533,0.2216673046350479,-0.0838358476758003,-0.4938352108001709,0.5328599810600281
1629376498570,0.2145662009716034,-0.0800305902957916,-0.5057764053344727,0.5318670868873596
1629376498716,0.2046060264110565,-0.08128422498703,-0.5133864283561707,0.5323812961578369
1629376498797,0.1921403855085373,-0.08053520321846,-0.5241584777832031,0.5343899130821228
1629376498883,0.1800740957260131,-0.0742043256759643,-0.5428459048271179,0.5375494956970215
1629376499042,0.1699451655149459,-0.0641738474369049,-0.5655790567398071,0.539578914642334
1629376499128,0.1554254591464996,-0.0532686933875083,-0.5846291184425354,0.5315080881118774
1629376499195,0.1264916956424713,-0.042776096612215,-0.5961969494819641,0.5029330253601074
1629376499246,0.0765456557273864,-0.0342050231993198,-0.601442813873291,0.4537558257579803
1629376499453,0.0721520483493805,-0.0317267104983329,-0.6038681268692017,0.3929083347320556
1629376499546,0.0596146695315837,-0.0396340116858482,-0.605482816696167,0.3357927203178406
1629376499656,0.0186902657151222,-0.0570342987775802,-0.6068969368934631,0.3023067712783813
1629376499740,-0.0079391952604055,-0.0791309922933578,-0.6075605750083923,0.290040522813797
1629376499787,-0.0210225395858287,-0.1012326478958129,-0.6070249676704407,0.2898079752922058
1629376499921,-0.0252395719289779,-0.1210439130663871,-0.6066772937774658,0.2896683514118194
1629376500032,-0.024666516110301,-0.1366659700870514,-0.6068204045295715,0.2815508544445038
1629376500115,-0.0194755252450704,-0.1449704319238662,-0.6054744124412537,0.2698857486248016
1629376500238,-0.0104523291811347,-0.146399974822998,-0.6016139984130859,0.2612977027893066
1629376500329,-0.003524181433022,-0.1487496644258499,-0.5994745492935181,0.2547681033611297
1629376500386,-0.0058582639321684,-0.1599266976118087,-0.6042611598968506,0.2495373785495758
1629376500517,-0.023488488048315,-0.1805686354637146,-0.6152002811431885,0.2447499185800552
1629376500638,-0.0517845228314399,-0.2034073323011398,-0.623244047164917,0.2559538781642914
1629376500692,-0.0744665265083313,-0.2187264114618301,-0.620398759841919,0.2978436052799225
1629376500843,-0.0771011859178543,-0.2216014862060547,-0.6095127463340759,0.3600659370422363
1629376500910,-0.0622081868350505,-0.2132352888584137,-0.5994583964347839,0.4208400547504425
1629376500998,-0.042985450476408,-0.1965385526418686,-0.5963980555534363,0.4672212600708008
1629376501108,-0.0271654482930898,-0.1740842163562774,-0.5977538228034973,0.4969834089279175
1629376501204,-0.0123014422133564,-0.1483975201845169,-0.5952154994010925,0.5171187520027161
1629376501334,0.003271060064435,-0.1229055821895599,-0.5823420286178589,0.5318799018859863
1629376501421,0.0156786125153303,-0.1006157249212265,-0.5614091157913208,0.541047215461731
1629376501530,0.0214484240859746,-0.08274956792593,-0.542719304561615,0.5452305674552917
1629376501614,0.0213817562907934,-0.0693294703960418,-0.5351048111915588,0.5451057553291321
1629376501746,0.0203082505613565,-0.0595434308052063,-0.5391219258308411,0.5410196781158447
1629376501887,0.0233472045511007,-0.0509702488780021,-0.5485992431640625,0.5358301401138306
1629376501968,0.0312880501151084,-0.040443692356348,-0.5574092268943787,0.5295669436454773
1629376502029,0.0406201593577861,-0.0265340320765972,-0.564500629901886,0.5221431851387024
1629376502126,0.0456315353512764,-0.0123425275087356,-0.5737919211387634,0.5094727277755737
1629376502225,0.0413656011223793,-0.0033742520026862,-0.5886000394821167,0.4853411018848419
1629376502346,0.0271894745528697,-0.0020182521548122,-0.6074765920639038,0.4491156339645386
1629376502452,0.0086691305041313,-0.0061641200445592,-0.6244125366210938,0.4100033342838287
1629376502535,-0.0065488815307617,-0.0127694094553589,-0.632058322429657,0.3788133561611175
1629376502748,-0.0149848824366927,-0.0213452503085136,-0.6285487413406372,0.3615111410617828
1629376502856,-0.0157258622348308,-0.031999260187149,-0.6215528249740601,0.354235827922821
1629376502923,-0.0173764899373054,-0.0424949340522289,-0.6215437650680542,0.3528538942337036
1629376502963,-0.0183853488415479,-0.0498147793114185,-0.6323725581169128,0.3467093706130981
1629376503056,-0.0170338973402977,-0.0528025515377521,-0.6471941471099854,0.3498307764530182
1629376503154,-0.0150984041392803,-0.0517850928008556,-0.6586336493492126,0.361718088388443
1629376503261,-0.0171741470694541,-0.0493025034666061,-0.6593160033226013,0.3791706562042236
1629376503355,-0.0259324871003627,-0.0478020794689655,-0.6519716382026672,0.3942936360836029
1629376503554,-0.0396514348685741,-0.0472782142460346,-0.6415425539016724,0.405946671962738
1629376503636,-0.0538237690925598,-0.0500631555914878,-0.6311405301094055,0.415486603975296
1629376503717,-0.0675506070256233,-0.0570832304656505,-0.6213269829750061,0.4239431321620941
1629376503842,-0.0806918293237686,-0.0660874098539352,-0.6103619337081909,0.4345083832740783
1629376503892,-0.0889889076352119,-0.0733170285820961,-0.5950170159339905,0.4481452107429504
1629376503931,-0.0889889076352119,-0.0769806429743766,-0.5753224492073059,0.4615644812583923
1629376504098,-0.0889889076352119,-0.0781592950224876,-0.556390106678009,0.4615644812583923
1629376504184,-0.0889889076352119,-0.0783623605966568,-0.5469995141029358,0.4615644812583923
1629376504336,-0.0889889076352119,-0.07880549877882,-0.5469995141029358,0.4615644812583923
1629376504409,-0.0889889076352119,-0.0815272778272628,-0.5469995141029358,0.4615644812583923
1629376504443,-0.0889889076352119,-0.0878566950559616,-0.5469995141029358,0.6201285123825073
1629376504577,-0.0889889076352119,-0.0940754935145378,-0.5469995141029358,0.579562246799469
1629376504633,-0.0889889076352119,-0.0940754935145378,-0.5469995141029358,0.579562246799469
1629376504803,-0.0889889076352119,-0.0940754935145378,-0.5469995141029358,0.579562246799469
1629376504980,-0.0889889076352119,-0.0994835719466209,-0.5469995141029358,0.579562246799469
1629376505054,-0.0889889076352119,-0.1101383715867996,-0.5469995141029358,0.579562246799469
1629376505197,-0.0889889076352119,-0.123326763510704,-0.5469995141029358,0.579562246799469
1629376505257,-0.0889889076352119,-0.1325506418943405,-0.5469995141029358,0.579562246799469
1629376505308,-0.0889889076352119,-0.1323548853397369,-0.5469995141029358,0.579562246799469
1629376505366,-0.0889889076352119,-0.124423086643219,-0.5469995141029358,0.579562246799469
1629376505480,-0.0889889076352119,-0.1159844994544982,-0.5469995141029358,0.579562246799469
1629376505593,-0.0889889076352119,-0.1128826886415481,-0.5469995141029358,0.579562246799469
1629376505743,-0.0889889076352119,-0.1166932731866836,-0.5469995141029358,0.5140869617462158
1629376505790,-0.0889889076352119,-0.1166932731866836,-0.5469995141029358,0.5140869617462158
1629376505906,-0.0889889076352119,-0.1166932731866836,-0.5469995141029358,0.5140869617462158
1629376506044,-0.0889889076352119,-0.1166932731866836,-0.5469995141029358,0.5140869617462158
1629376506115,-0.0889889076352119,-0.1166932731866836,-0.5469995141029358,0.5140869617462158
1629376506299,-0.0889889076352119,-0.1166932731866836,-0.5469995141029358,0.5140869617462158
1629376506336,-0.0889889076352119,-0.1166932731866836,-0.5469995141029358,0.5140869617462158
1629376506385,-0.0889889076352119,-0.1166932731866836,-0.5469995141029358,0.5140869617462158
1629376506511,-0.0889889076352119,-0.1166932731866836,-0.5469995141029358,0.5140869617462158
1629376506571,-0.0889889076352119,-0.1166932731866836,-0.6089097261428833,0.5140869617462158
1629376506690,-0.0889889076352119,-0.1166932731866836,-0.5498417615890503,0.5140869617462158
1629376506871,-0.0889889076352119,-0.1166932731866836,-0.5132555365562439,0.5140869617462158
1629376506931,-0.0889889076352119,-0.1166932731866836,-0.4973862469196319,0.5140869617462158
1629376507012,-0.0889889076352119,-0.1166932731866836,-0.494764119386673,0.5140869617462158
1629376507168,-0.0889889076352119,-0.1166932731866836,-0.494665265083313,0.5140869617462158
1629376507210,-0.0889889076352119,-0.1166932731866836,-0.4904766678810119,0.5140869617462158
1629376507426,-0.0889889076352119,-0.1166932731866836,-0.4832543730735779,0.5140869617462158
1629376507502,-0.0889889076352119,-0.1166932731866836,-0.4746491014957428,0.5140869617462158
1629376507551,-0.0889889076352119,-0.1166932731866836,-0.4629620611667633,0.5140869617462158
1629376507697,-0.0889889076352119,-0.1166932731866836,-0.4475001096725464,0.5140869617462158
1629376507815,-0.0889889076352119,-0.1166932731866836,-0.4317432343959808,0.5140869617462158
1629376507956,-0.0889889076352119,-0.1166932731866836,-0.4057549834251404,0.5140869617462158
1629376508054,-0.0889889076352119,-0.1166932731866836,-0.3899232149124145,0.5140869617462158
1629376508116,-0.0889889076352119,-0.0279210954904556,-0.3846411406993866,0.5140869617462158
1629376508210,-0.0889889076352119,-0.047879759222269,-0.386615127325058,0.5140869617462158
1629376508273,-0.0889889076352119,-0.0415179915726184,-0.3877336978912353,0.5140869617462158
1629376508330,-0.0889889076352119,-0.0415179915726184,-0.3894595205783844,0.5140869617462158
1629376508433,-0.0889889076352119,-0.0415179915726184,-0.3875771760940552,0.5140869617462158
1629376508651,-0.0889889076352119,-0.0415179915726184,-0.3803032636642456,0.5140869617462158
1629376508714,-0.0889889076352119,-0.0415179915726184,-0.370422899723053,0.5140869617462158
1629376508761,-0.0889889076352119,-0.0415179915726184,-0.3620122373104095,0.5140869617462158
1629376508886,-0.0889889076352119,-0.0415179915726184,-0.3556083440780639,0.5140869617462158
1629376509026,-0.0889889076352119,-0.0415179915726184,-0.3509386777877807,0.5140869617462158
1629376509104,-0.0889889076352119,-0.0415179915726184,-0.3523027598857879,0.5140869617462158
1629376509198,-0.0889889076352119,-0.0714713633060455,-0.3671773374080658,0.5140869617462158
1629376509370,-0.0889889076352119,-0.1058188453316688,-0.4000718891620636,0.5140869617462158
1629376509464,-0.0889889076352119,-0.1058188453316688,-0.4000718891620636,0.5140869617462158
1629376509495,-0.0889889076352119,-0.1058188453316688,-0.4000718891620636,0.5140869617462158
1629376509604,-0.0889889076352119,-0.1058188453316688,-0.4000718891620636,0.5140869617462158
1629376509636,-0.0889889076352119,-0.1058188453316688,-0.4000718891620636,0.5140869617462158
1629376509776,-0.0889889076352119,-0.1058188453316688,-0.4000718891620636,0.5140869617462158
1629376509858,-0.0889889076352119,-0.1058188453316688,-0.4000718891620636,0.5140869617462158
1629376509983,-0.0889889076352119,-0.1058188453316688,-0.4000718891620636,0.5140869617462158
1629376510077,-0.0889889076352119,-0.1058188453316688,-0.4000718891620636,0.5140869617462158
1629376510233,-0.0889889076352119,-0.1058188453316688,-0.4000718891620636,0.5140869617462158
1629376510295,-0.0889889076352119,-0.1058188453316688,-0.4000718891620636,0.5140869617462158
1629376510372,-0.0889889076352119,-0.1058188453316688,-0.4000718891620636,0.5140869617462158
1629376510419,-0.0889889076352119,-0.1058188453316688,-0.4000718891620636,0.5140869617462158
1629376510622,0.0603332854807376,-0.1058188453316688,-0.4000718891620636,0.5140869617462158
1629376510669,0.0650445595383644,-0.1058188453316688,-0.4000718891620636,0.5140869617462158
1629376510732,0.0650445595383644,-0.1058188453316688,-0.4753509163856506,0.5140869617462158
1629376510875,0.0650445595383644,-0.1058188453316688,-0.4502038955688476,0.5140869617462158
1629376511063,0.0650445595383644,-0.1058188453316688,-0.4457927048206329,0.5140869617462158
1629376511157,0.0650445595383644,-0.1058188453316688,-0.4512551724910736,0.5140869617462158
1629376511203,0.0650445595383644,-0.1058188453316688,-0.4552265107631683,0.5140869617462158
1629376511282,0.0650445595383644,-0.1058188453316688,-0.4552860856056213,0.5140869617462158
1629376511453,0.0650445595383644,-0.1058188453316688,-0.4550450444221496,0.5140869617462158
1629376511516,0.0573334209620952,-0.1058188453316688,-0.4587002396583557,0.5140869617462158
1629376511594,0.0573334209620952,-0.1058188453316688,-0.4677661657333374,0.5140869617462158
1629376511641,0.0573334209620952,-0.1058188453316688,-0.4796672463417053,0.5140869617462158
1629376511766,0.0341143831610679,-0.056176409125328,-0.4896357953548431,0.5140869617462158
1629376511847,0.0194926187396049,-0.0767457634210586,-0.4946858882904053,0.3208487331867218
1629376512003,0.0194926187396049,-0.0837964639067649,-0.4887355864048004,0.3548905253410339
1629376512128,0.0194926187396049,-0.0845890864729881,-0.4810356497764587,0.3789310157299042
1629376512237,0.0194926187396049,-0.0875763446092605,-0.4778078496456146,0.3906479775905609
1629376512300,0.1116738021373748,-0.0945437103509903,-0.4780101776123047,0.3912724256515503
1629376512378,0.1110033690929412,-0.1026996523141861,-0.4761712253093719,0.3887650370597839
1629376512456,0.1084362342953682,-0.1098045334219932,-0.4699840247631073,0.3869909346103668
1629376512628,0.1171158775687217,-0.1152655407786369,-0.4628573358058929,0.3919317126274109
1629376512706,0.1372199207544326,-0.1185170635581016,-0.4599248170852661,0.4015223681926727
1629376512911,0.1654330790042877,-0.1185437589883804,-0.4613164663314819,0.4107533693313598
1629376512958,0.1945608258247375,-0.1156173199415206,-0.4617771208286285,0.4147544205188751
1629376513020,0.2341793328523636,-0.1206208392977714,-0.4558861255645752,0.4131351113319397
1629376513098,0.2522272765636444,-0.1234932616353035,-0.4433625936508178,0.4222500622272491
1629376513192,0.2681894600391388,-0.1191570535302162,-0.4291688203811645,0.4316312968730926
1629376513286,0.2830421030521393,-0.1073734909296035,-0.4188604354858398,0.437566876411438
1629376513395,0.2952963411808014,-0.0952736809849739,-0.4139549434185028,0.4378966987133026
1629376513551,0.2952963411808014,-0.0894564688205719,-0.4129449725151062,0.4349204897880554
1629376513708,0.3050036430358886,-0.0899425074458122,-0.414378672838211,0.4298650324344635
1629376513786,0.315972626209259,-0.0921734794974327,-0.4184068739414215,0.4269805550575256
1629376513914,0.3296526968479156,-0.0933019518852233,-0.4264276325702667,0.4307461977005005
1629376514007,0.3466567695140838,-0.0929879024624824,-0.437027245759964,0.4845169186592102
1629376514054,0.3673551976680755,-0.0889095515012741,-0.4441019892692566,0.4985910654067993
1629376514117,0.3870551288127899,-0.0754102244973182,-0.4488982856273651,0.5078486204147339
1629376514242,0.4028524458408355,-0.0514527484774589,-0.4496435523033142,0.5103669762611389
1629376514288,0.4121512174606323,-0.0470138639211654,-0.4472474157810211,0.5108359456062317
1629376514492,0.4156411588191986,-0.0448199175298213,-0.4460207819938659,0.5108359456062317
1629376514554,0.4185546040534973,-0.0439214929938316,-0.4502244591712951,0.5108359456062317
1629376514637,0.4185546040534973,-0.0437755733728408,-0.4595926105976105,0.5108359456062317
1629376514699,0.4185546040534973,-0.0458553656935691,-0.4692418873310089,0.5108359456062317
1629376514856,0.4185546040534973,-0.0516762882471084,-0.4736983776092529,0.5108359456062317
1629376514887,0.4185546040534973,-0.0589881837368011,-0.3257885873317718,0.5108359456062317
1629376514999,0.4185546040534973,-0.0623041093349456,-0.2318083047866821,0.5108359456062317
1629376515124,0.4185546040534973,-0.056823868304491,-0.1919392794370651,0.5108359456062317
1629376515265,0.4185546040534973,-0.0410796366631984,-0.1881152689456939,0.5108359456062317
1629376515327,0.4185546040534973,-0.0132381711155176,-0.2003029733896255,0.5108359456062317
1629376515437,0.4185546040534973,-0.0132381711155176,-0.2193337231874466,0.5108359456062317
1629376515546,0.4185546040534973,-0.0132381711155176,-0.2694881856441498,0.5108359456062317
1629376515624,0.4185546040534973,-0.0132381711155176,-0.30302894115448,0.5108359456062317
1629376515734,0.4185546040534973,-0.0132381711155176,-0.3104294538497925,0.5108359456062317
1629376515874,0.4185546040534973,-0.0132381711155176,-0.2949933707714081,0.5108359456062317
1629376515937,0.4185546040534973,-0.0132381711155176,-0.2734337151050567,0.5108359456062317
1629376516080,0.3217926025390625,-0.1993737518787384,-0.2613708078861236,0.5108359456062317
1629376516174,0.3217926025390625,-0.065051682293415,-0.261852890253067,0.5108359456062317
1629376516236,0.3217926025390625,0.0425476133823394,-0.2674239873886108,0.5108359456062317
1629376516330,0.3217926025390625,0.1066127121448516,-0.266803115606308,0.5108359456062317
1629376516439,0.3217926025390625,0.1292509287595749,-0.287975937128067,0.6527039408683777
1629376516642,0.3217926025390625,0.1237569749355316,-0.2930317521095276,0.7161146402359009
1629376516816,0.3217926025390625,0.1068579033017158,-0.2799322605133056,0.7420641183853149
1629376516863,0.3968842625617981,0.0909788459539413,-0.2608025372028351,0.7417618632316589
1629376516925,0.4434239864349365,0.0800044536590576,-0.2468274384737014,0.7273239493370056
1629376517003,0.467341274023056,0.0726843103766441,-0.2396246790885925,0.7091935276985168
1629376517066,0.4714074730873108,0.0662042200565338,-0.2359486371278762,0.6943233013153076
1629376517159,0.4624851644039154,0.05922307446599,-0.2350282818078994,0.6840346455574036
1629376517238,0.4647295773029327,0.0711564496159553,-0.2390341907739639,0.6790670156478882
1629376517378,0.4726814329624176,0.0820648819208145,-0.2504446506500244,0.6795684099197388
1629376517456,0.4795531928539276,0.0873017013072967,-0.2668174207210541,0.6933605074882507
1629376517628,0.4751368761062622,0.0789428129792213,-0.2819856703281402,0.7054821252822876
1629376517722,0.4535945653915405,0.0500280410051345,-0.2912916541099548,0.7111473679542542
1629376517777,0.4281070232391357,0.001331619801931,-0.2952428758144378,0.7034914493560791
1629376517980,0.4022394120693207,-0.0531369298696517,-0.3001759648323059,0.6952046155929565
1629376518058,0.3800702691078186,-0.0924600735306739,-0.3168041408061981,0.6692544221878052
1629376518105,0.3665931522846222,-0.1065965145826339,-0.348989725112915,0.6369922161102295
1629376518183,0.3651124835014343,-0.103653959929943,-0.3889722526073456,0.6071928143501282
1629376518323,0.3537420928478241,-0.0959063470363617,-0.4220620095729828,0.5897481441497803
1629376518448,0.3511727452278137,-0.0886125639081001,-0.4186376631259918,0.5883985757827759
1629376518573,0.3562148809432983,-0.0833315327763557,-0.3934866189956665,0.5959866046905518
1629376518620,0.3675271868705749,-0.0801253989338874,-0.3658173680305481,0.6045277714729309
1629376518683,0.3797463178634643,-0.0769215449690818,-0.3487289845943451,0.610034704208374
1629376518761,0.383994460105896,-0.0706207007169723,-0.3472923636436462,0.6092915534973145
1629376518873,0.3759410381317138,-0.0609370321035385,-0.3577844798564911,0.602832019329071
1629376519013,0.35955810546875,-0.0521543398499488,-0.3739224076271057,0.5907676815986633
1629376519091,0.3450213074684143,-0.0474098622798919,-0.3879936039447784,0.5776182413101196
1629376519154,0.3543402552604675,-0.0444802120327949,-0.3956194818019867,0.5694164633750916
1629376519294,0.3717333376407623,-0.0360584482550621,-0.400128573179245,0.5671495199203491
1629376519404,0.3946923315525055,-0.0174787491559982,-0.4086556434631347,0.5806072354316711
1629376519591,0.419281005859375,0.0071812770329415,-0.4063771665096283,0.6033726930618286
1629376519654,0.4395253658294678,0.0289071593433618,-0.398993581533432,0.6283397078514099
1629376519685,0.4451782703399658,0.0402375124394893,-0.398993581533432,0.6448471546173096
1629376519891,0.4351256489753723,0.039312444627285,-0.398993581533432,0.6445315480232239
1629376519954,0.4112986624240875,0.0304406266659498,-0.4106078743934631,0.6267406344413757
1629376519985,0.378708928823471,0.0213891603052616,-0.4274381995201111,0.6014164090156555
1629376520126,0.3448700308799743,0.0185394212603569,-0.4439330995082855,0.5818908214569092
1629376520219,0.3198496401309967,0.0208045486360788,-0.4471755027770996,0.5749467611312866
1629376520298,0.3110780715942383,0.0214372146874666,-0.4398499429225921,0.5809991359710693
1629376520376,0.3185147941112518,0.016453593969345,-0.431973397731781,0.5826212763786316
1629376520563,0.3347890377044678,0.0101562114432454,-0.429803729057312,0.5752187371253967
1629376520641,0.3492639064788818,0.0099974749609828,-0.4338415861129761,0.5618312954902649
1629376520782,0.3355216383934021,0.0169308129698038,-0.4439949989318847,0.5469829440116882
1629376520813,0.3228839337825775,0.0226048994809389,-0.4585776329040527,0.533989667892456
1629376520957,0.3178967833518982,0.0171432755887508,-0.4718762636184692,0.5135753750801086
1629376521004,0.3246750831604004,-0.0008086200687102,-0.4779898226261139,0.49129518866539
1629376521113,0.3427328467369079,-0.0236907619982957,-0.4804769456386566,0.4749102890491485
1629376521254,0.3638139069080353,-0.0404108352959156,-0.4630643129348755,0.4772694110870361
1629376521317,0.386698842048645,-0.0466033294796943,-0.4499731659889221,0.5004059672355652
1629376521426,0.403929203748703,-0.0410183556377887,-0.44215789437294,0.5299711227416992
1629376521504,0.4141138195991516,-0.0355077050626277,-0.4333448112010956,0.5506847500801086
1629376521645,0.4180974960327148,-0.0356748551130294,-0.4078372716903686,0.5587058067321777
1629376521738,0.4236839115619659,-0.0416811257600784,-0.3684474229812622,0.5644167065620422
1629376521816,0.430745929479599,-0.0492678023874759,-0.3229776918888092,0.559163510799408
1629376521950,0.4398403465747833,-0.0535425134003162,-0.3183298707008362,0.5559832453727722
1629376522022,0.4525663256645202,-0.0539485216140747,-0.3076699376106262,0.5614633560180664
1629376522178,0.4709851741790771,-0.0547767244279384,-0.2898437082767486,0.5760273933410645
1629376522225,0.4974826574325561,-0.0609598569571971,-0.2400266379117965,0.596703052520752
1629376522381,0.5302345752716064,-0.0740488320589065,-0.199610561132431,0.6202972531318665
1629376522444,0.5631026029586792,-0.0896867662668228,-0.1708743274211883,0.6438700556755066
1629376522568,0.5889164805412292,-0.0896867662668228,-0.1543840616941452,0.6664049029350281
1629376522662,0.600616991519928,-0.0896867662668228,-0.1490302085876464,0.6848899126052856
1629376522758,0.5098307728767395,-0.0896867662668228,-0.1522381454706192,0.6749266982078552
1629376522898,0.3802653551101684,-0.0896867662668228,-0.1605812013149261,0.6390151977539062
1629376522945,0.2266032844781875,-0.0896867662668228,-0.1707683503627777,0.5883278250694275
1629376523023,0.0872651860117912,-0.2189272940158844,-0.1857200562953949,0.5432369709014893
1629376523133,0.1418167501688003,-0.231208860874176,-0.2140573114156723,0.5097464919090271
1629376523273,0.1993368864059448,-0.2355953156948089,-0.2613230049610138,0.4680083990097046
1629376523351,0.2396833151578903,-0.2354575246572494,-0.3248986601829529,0.4800387918949127
1629376523429,0.2612254917621612,-0.2315841317176818,-0.3363820016384125,0.5018095374107361
1629376523523,0.2710330486297607,-0.2229949384927749,-0.3425309658050537,0.5269100666046143
1629376523633,0.274603396654129,-0.2089313268661499,-0.3468887507915497,0.5482810735702515
1629376523775,0.2720887064933777,-0.1915545910596847,-0.3867490589618683,0.5610833764076233
1629376523838,0.2636666297912597,-0.1753526479005813,-0.4304165244102478,0.5638662576675415
1629376524009,0.2549283802509308,-0.1632985472679138,-0.4761271178722381,0.5584678649902344
1629376524056,0.2502594292163849,-0.155364915728569,-0.5180333256721497,0.5492302775382996
1629376524150,0.2491901665925979,-0.148843839764595,-0.5485007762908936,0.5398681163787842
1629376524259,0.2565405368804931,-0.1394679844379425,-0.5640620589256287,0.5286498665809631
1629376524415,0.2604420185089111,-0.1257536560297012,-0.5677473545074463,0.5249346494674683
1629376524540,0.257775217294693,-0.1078463196754455,-0.5670086145401001,0.5279836654663086
1629376524587,0.2469116598367691,-0.0880145281553268,-0.5631734132766724,0.5343809127807617
1629376524681,0.2270289212465286,-0.0704141557216644,-0.5549260973930359,0.5381906628608704
1629376524761,0.2020840942859649,-0.0589598193764686,-0.5463996529579163,0.5351918339729309
1629376524855,0.1822507828474044,-0.0553786717355251,-0.5449251532554626,0.5254464149475098
1629376524949,0.1763751059770584,-0.0593640618026256,-0.5551811456680298,0.513815701007843
1629376525105,0.1844956874847412,-0.0688281133770942,-0.574791431427002,0.5058949589729309
1629376525230,0.1982505470514297,-0.0819992497563362,-0.5936291217803955,0.5017738938331604
1629376525277,0.2109493464231491,-0.0978883579373359,-0.5981647968292236,0.4976614713668823
1629376525386,0.2214161455631256,-0.1143716946244239,-0.5812309980392456,0.4921978712081909
1629376525495,0.2326404303312301,-0.1290475130081176,-0.5506495237350464,0.4865690469741821
1629376525558,0.2504580020904541,-0.140816792845726,-0.5222747921943665,0.4812829196453094
1629376525714,0.2755077481269836,-0.1517539620399475,-0.5076711177825928,0.4743089377880096
1629376525779,0.3025519549846649,-0.1651173532009124,-0.5077812671661377,0.4640515148639679
1629376525906,0.3265072405338287,-0.1823014318943023,-0.5173621773719788,0.4519117474555969
1629376525969,0.3443872630596161,-0.2034696191549301,-0.5297262072563171,0.4397260248661041
1629376526047,0.3570436835289001,-0.2277639955282211,-0.5433103442192078,0.4279325008392334
1629376526250,0.3660507202148437,-0.2520616352558136,-0.5595372915267944,0.4168210923671722
1629376526312,0.3760022222995758,-0.2705706655979156,-0.5772087574005127,0.4080842435359955
1629376526453,0.3910110890865326,-0.2779854834079742,-0.5895327925682068,0.402066558599472
1629376526515,0.4085261821746826,-0.2730638980865478,-0.5888085961341858,0.3957520127296448
1629376526593,0.4213996529579162,-0.2592710256576538,-0.5745417475700378,0.3880658149719238
1629376526687,0.4259433448314667,-0.2404017895460128,-0.5553711652755737,0.3865338265895843
1629376526816,0.4246535003185272,-0.2182902693748474,-0.543177604675293,0.4007419347763061
1629376526956,0.4254660904407501,-0.1934881061315536,-0.5454127192497253,0.4350403249263763
1629376527050,0.43211629986763,-0.1671600192785263,-0.5607762932777405,0.4806589484214782
1629376527128,0.4408364593982696,-0.1411512345075607,-0.5805065035820007,0.5259793996810913
1629376527253,0.4347276091575622,-0.1163536682724952,-0.5927728414535522,0.5625324845314026
1629376527362,0.4253838360309601,-0.091764360666275,-0.5888465642929077,0.5873382091522217
1629376527425,0.4203490316867828,-0.0666372552514076,-0.5642255544662476,0.6037669777870178
1629376527534,0.4250040352344513,-0.0424621812999248,-0.5248558521270752,0.616162121295929
1629376527644,0.4393476247787475,-0.0218540858477354,-0.4818234145641327,0.6273614764213562
1629376527706,0.4874981343746185,-0.0066833696328103,-0.4447577595710754,0.6386020183563232
1629376527831,0.5039288401603699,0.0027539092116057,-0.4163620173931122,0.6478726863861084
1629376527881,0.5090824365615845,0.0081772441044449,-0.3952062726020813,0.6656442284584045
1629376528084,0.5018595457077026,0.0209654401987791,-0.3777017593383789,0.6815384030342102
1629376528178,0.489874392747879,0.0329338647425174,-0.358892947435379,0.6924525499343872
1629376528307,0.4878630340099334,0.0428561121225357,-0.3365502953529358,0.6960232257843018
1629376528403,0.5079746842384338,0.0500844828784465,-0.3149117529392242,0.6916560530662537
1629376528512,0.5439176559448242,0.053862664848566,-0.3010994493961334,0.6765168309211731
1629376528590,0.5439176559448242,0.0539686977863311,-0.2982488870620727,0.6499897241592407
1629376528825,0.5439176559448242,0.0509118810296058,-0.3020904660224914,0.6135103106498718
1629376528891,0.5439176559448242,0.045322198420763,-0.3062480688095093,0.5767444968223572
1629376528954,0.5439176559448242,0.0353623144328594,-0.3090171813964844,0.5541958808898926
1629376529031,0.5439176559448242,0.0168154649436473,-0.3145031332969665,0.5448777675628662
1629376529063,0.5439176559448242,-0.0129560055211186,-0.3270200788974762,0.5448777675628662
1629376529141,0.5439176559448242,-0.0675307363271713,-0.3453490436077118,0.5448777675628662
1629376529266,0.5439176559448242,-0.1187996566295623,-0.3623543381690979,0.5448777675628662
1629376529344,0.5439176559448242,-0.1639958471059799,-0.3722302913665771,0.5448777675628662
1629376529453,0.2254916578531265,-0.2060273438692093,-0.3761519491672516,0.6314858198165894
1629376529578,0.2302308529615402,-0.2284992784261703,-0.3822218477725982,0.6252431869506836
1629376529672,0.2375773340463638,-0.2383877336978912,-0.3996272683143616,0.6106340289115906
1629376529781,0.2478785514831543,-0.2321631610393524,-0.4319445788860321,0.5920513272285461
1629376529875,0.2601214647293091,-0.2121232151985168,-0.4706565141677856,0.5779646039009094
1629376530035,0.2748472094535827,-0.1872559189796447,-0.4992307722568512,0.5729913711547852
1629376530191,0.2920676171779632,-0.1624483317136764,-0.5053784847259521,0.5718607902526855
1629376530238,0.3079746067523956,-0.1380556374788284,-0.4958561360836029,0.5677744746208191
1629376530269,0.3161789178848266,-0.1149582117795944,-0.4859715402126312,0.5576875805854797
1629376530379,0.3151848912239074,-0.0966167226433754,-0.4847555458545685,0.5451380014419556
1629376530488,0.3100147247314453,-0.0854025036096572,-0.491429328918457,0.5355435609817505
1629376530566,0.3054898679256439,-0.0805495604872703,-0.4989739954471588,0.530502200126648
1629376530644,0.3080267906188965,-0.0773982033133506,-0.5020672678947449,0.5138046145439148
1629376530753,0.3064451813697815,-0.0743848159909248,-0.5026221871376038,0.5073397159576416
1629376530961,0.2987384498119354,-0.0712557509541511,-0.5070332288742065,0.5019583702087402
1629376531008,0.2886611819267273,-0.068128116428852,-0.5180124044418335,0.4921538233757019
1629376531227,0.2807643115520477,-0.0651398971676826,-0.5319370031356812,0.4794372320175171
1629376531274,0.2747077941894531,-0.0644369050860405,-0.5444335341453552,0.4671201407909393
1629376531305,0.2680528461933136,-0.0696519166231155,-0.5543826222419739,0.4572103321552276
1629376531336,0.2607441842556,-0.0831104665994644,-0.5637524724006653,0.4485731124877929
1629376531524,0.2547966539859772,-0.1017832607030868,-0.5710653066635132,0.4377906620502472
1629376531571,0.2535251080989837,-0.1200964897871017,-0.5711425542831421,0.4274400472640991
1629376531680,0.2593308687210083,-0.133319154381752,-0.5559739470481873,0.418977826833725
1629376531776,0.2754607498645782,-0.1375984400510788,-0.5259985327720642,0.4182333648204803
1629376531904,0.2975429892539978,-0.1285946071147918,-0.492381602525711,0.4234073460102081
1629376531966,0.3145918846130371,-0.105666808784008,-0.4674804806709289,0.4269256889820099
1629376532154,0.3218250274658203,-0.0748456642031669,-0.4559178948402405,0.423930823802948
1629376532310,0.3274960815906524,-0.0443724989891052,-0.4540790915489197,0.413089245557785
1629376532372,0.3538783192634582,-0.0188859701156616,-0.4550211429595947,0.3958024382591247
1629376532404,0.411402553319931,0.0005424936534836,-0.4530504047870636,0.3722791671752929
1629376532529,0.429300993680954,0.0142315411940217,-0.4451102912425995,0.345041424036026
1629376532732,0.4468401074409485,0.0263994634151458,-0.433868944644928,0.3240676522254944
1629376532828,0.463604599237442,0.0416211001574993,-0.419891208410263,0.3240676522254944
1629376533078,0.4811519384384155,0.0600149631500244,-0.4033769965171814,0.3240676522254944
1629376533156,0.4996506571769714,0.0824599340558052,-0.3845027089118957,0.3240676522254944
1629376533328,0.5168150067329407,0.1075622215867042,-0.3656617105007171,0.3240676522254944
1629376533391,0.5285676121711731,0.1319293975830078,-0.3540588319301605,0.3240676522254944
1629376533422,0.5331770777702332,0.1518020629882812,-0.3611958622932434,0.3240676522254944
1629376533516,0.5307266116142273,0.1331082284450531,-0.3956047296524048,0.3240676522254944
1629376533562,0.5283995270729065,0.0994216501712799,-0.4538473784923553,0.3240676522254944
1629376533609,0.5429638624191284,0.0512826777994632,-0.5154702067375183,0.3240676522254944
1629376533791,0.5429638624191284,-0.0099561996757984,-0.5154702067375183,0.3240676522254944
1629376533909,0.5429638624191284,-0.0784192457795143,-0.5154702067375183,0.3240676522254944
1629376533956,0.5429638624191284,-0.1414983421564102,-0.5154702067375183,0.3240676522254944
1629376534003,0.5429638624191284,-0.1820132583379745,-0.5154702067375183,0.3240676522254944
1629376534081,0.5429638624191284,-0.1929037719964981,-0.5154702067375183,0.3240676522254944
1629376534143,0.5429638624191284,-0.1931565552949905,-0.5154702067375183,0.3240676522254944
1629376534284,0.5429638624191284,-0.1737043559551239,-0.5154702067375183,0.3240676522254944
1629376534346,0.5429638624191284,-0.1629698425531387,-0.5154702067375183,0.3240676522254944
1629376534424,0.5429638624191284,-0.1536251306533813,-0.5154702067375183,0.3240676522254944
1629376534518,0.5429638624191284,-0.1419011950492859,-0.5154702067375183,0.3240676522254944
1629376534596,0.5429638624191284,-0.1295444816350937,-0.5154702067375183,0.3240676522254944
1629376534768,0.5429638624191284,-0.1193128526210784,-0.5154702067375183,0.3240676522254944
1629376534913,0.5429638624191284,-0.1021186262369155,-0.5154702067375183,0.3240676522254944
1629376534944,0.5429638624191284,-0.0914056152105331,-0.5154702067375183,0.3240676522254944
1629376535163,0.5429638624191284,-0.0792509242892265,-0.5154702067375183,0.3240676522254944
1629376535194,0.5429638624191284,-0.0647147297859191,-0.5154702067375183,0.3240676522254944
1629376535272,0.5429638624191284,-0.0479133874177932,-0.5154702067375183,0.3240676522254944
1629376535366,0.5429638624191284,-0.0319104753434658,-0.5154702067375183,0.3240676522254944
1629376535491,0.5429638624191284,-0.0219877958297729,-0.3678959906101227,0.3240676522254944
1629376535569,0.5429638624191284,-0.0201263520866632,-0.3921470940113067,0.3240676522254944
1629376535741,0.5429638624191284,-0.0224869605153799,-0.419387936592102,0.3240676522254944
1629376535819,0.5429638624191284,-0.0213497579097747,-0.419387936592102,0.3240676522254944
1629376535916,0.5429638624191284,-0.0125746196135878,-0.419387936592102,0.3240676522254944
1629376536010,0.5429638624191284,-0.0009945378405973,-0.419387936592102,0.3240676522254944
1629376536088,0.5429638624191284,-0.0009945378405973,-0.4209587872028351,0.3240676522254944
1629376536182,0.5429638624191284,-0.0009945378405973,-0.4209587872028351,0.3240676522254944
1629376536244,0.5429638624191284,-0.0009945378405973,-0.4209587872028351,0.3240676522254944
1629376536323,0.5429638624191284,-0.0009945378405973,-0.4209587872028351,0.3240676522254944
1629376536448,0.5429638624191284,-0.0009945378405973,-0.4209587872028351,0.3240676522254944
1629376536588,0.5429638624191284,-0.0009945378405973,-0.4209587872028351,0.3240676522254944
1629376536666,0.5429638624191284,-0.0009945378405973,-0.4159828722476959,0.3240676522254944
1629376536885,0.5429638624191284,-0.0009945378405973,-0.431497722864151,0.3240676522254944
1629376536919,0.5429638624191284,-0.0009945378405973,-0.4673873782157898,0.3240676522254944
1629376536981,0.5429638624191284,-0.0009945378405973,-0.4673873782157898,0.3240676522254944
1629376537075,0.5429638624191284,-0.0009945378405973,-0.4673873782157898,0.3240676522254944
1629376537216,0.5429638624191284,-0.0009945378405973,-0.4673873782157898,0.3240676522254944
1629376537263,0.5429638624191284,-0.0009945378405973,-0.4673873782157898,0.7045215964317322
1629376537403,0.5429638624191284,-0.0009945378405973,-0.4673873782157898,0.7267692685127258
1629376537481,0.5429638624191284,0.013503479771316,-0.4673873782157898,0.7261465787887573
1629376537591,0.5429638624191284,-0.0092781875282526,-0.4673873782157898,0.7085835337638855
1629376537716,0.5429638624191284,-0.0319944880902767,-0.4673873782157898,0.6829777956008911
1629376537809,0.4570282995700836,-0.0353347621858119,-0.4284073114395141,0.6575377583503723
1629376537937,0.4507445693016052,-0.0260678920894861,-0.4850073456764221,0.6371883749961853
1629376537984,0.440646767616272,-0.0175190940499305,-0.5252044796943665,0.6235707998275757
1629376538109,0.4348427951335907,-0.0092818448320031,-0.5473941564559937,0.6151613593101501
1629376538140,0.4354895949363708,-0.0055340197868645,-0.5610160231590271,0.6092132925987244
1629376538312,0.4385475814342499,-0.0071434364654123,-0.5743019580841064,0.604714035987854
1629376538500,0.4396175146102905,-0.0125795267522335,-0.5900288820266724,0.6013786196708679
1629376538547,0.43745818734169,-0.0195667836815118,-0.6067589521408081,0.6000547409057617
1629376538578,0.438004583120346,-0.0262273829430341,-0.6208946704864502,0.5931540131568909
1629376538719,0.4477079212665558,-0.0312088802456855,-0.6292600631713867,0.5831599831581116
1629376538797,0.4477079212665558,-0.0337081216275692,-0.6322280168533325,0.5608398914337158
1629376538890,0.4477079212665558,-0.0498031005263328,-0.6336851716041565,0.5347487926483154
1629376539049,0.4438450336456299,-0.0564617551863193,-0.6676797270774841,0.5146512389183044
1629376539127,0.4447560310363769,-0.056862473487854,-0.7085070013999939,0.5076501965522766
1629376539205,0.4447730779647827,-0.0572461448609828,-0.7395089864730835,0.5136539340019226
1629376539314,0.4435004293918609,-0.0619308166205883,-0.746991753578186,0.5269314050674438
1629376539486,0.445799171924591,-0.0718330442905426,-0.7366524934768677,0.5412160158157349
1629376539548,0.4536702632904053,-0.0848040357232093,-0.722057044506073,0.5520144701004028
1629376539627,0.4622508585453033,-0.0970217660069465,-0.7075583934783936,0.5586395263671875
1629376539705,0.4665692150592804,-0.1046153306961059,-0.6895886063575745,0.5640274286270142
1629376539861,0.4676384031772613,-0.1055739298462867,-0.663743793964386,0.5694718956947327
1629376539924,0.4676384031772613,-0.1002663001418113,-0.6315543055534363,0.5694718956947327
1629376540051,0.4676384031772613,-0.0897506847977638,-0.5987006425857544,0.5694718956947327
1629376540176,0.4676384031772613,-0.0757322534918785,-0.5708818435668945,0.5694718956947327
1629376540223,0.4676384031772613,-0.073930412530899,-0.5491302609443665,0.5694718956947327
1629376540301,0.4676384031772613,-0.0742111429572105,-0.5263850092887878,0.4699809849262237
1629376540395,0.4149888753890991,-0.0764340758323669,-0.4920438826084137,0.5079362392425537
1629376540567,0.4251760244369507,-0.0774167999625206,-0.4456357061862945,0.5384562611579895
1629376540629,0.4201140999794006,-0.0732387155294418,-0.3988441228866577,0.5384562611579895
1629376540692,0.4201140999794006,-0.0632512792944908,-0.3643970787525177,0.5384562611579895
1629376540863,0.4201140999794006,-0.0497031062841415,-0.3461249768733978,0.5384562611579895
1629376540926,0.4201140999794006,-0.0339207202196121,-0.33906951546669,0.5384562611579895
1629376541004,0.4201140999794006,-0.0165714789181947,-0.3361248075962066,0.5384562611579895
1629376541191,0.4201140999794006,0.0008739624754525,-0.3343541324138641,0.5384562611579895
1629376541238,0.4201140999794006,0.0173260103911161,-0.3335467875003814,0.5384562611579895
1629376541332,0.4201140999794006,0.0173260103911161,-0.3320522904396057,0.5384562611579895
1629376541441,0.4272223114967346,0.0173260103911161,-0.3258277475833893,0.5400172472000122
1629376541535,0.440703809261322,0.0173260103911161,-0.3108446300029754,0.5698481202125549
1629376541674,0.4678983390331268,0.0173260103911161,-0.2886306345462799,0.6038767099380493
1629376541736,0.4936923682689667,-0.2884765863418579,-0.2665720880031585,0.626473605632782
1629376541783,0.5099269151687622,-0.3102436065673828,-0.253728836774826,0.6294727325439453
1629376541955,0.513198971748352,-0.3194563388824463,-0.256264865398407,0.6106973886489868
1629376542037,0.5054497718811035,-0.3153005242347717,-0.2738183438777923,0.5697861313819885
1629376542217,0.4922828674316406,-0.3010966181755066,-0.2991169095039367,0.5332949161529541
1629376542284,0.4644572138786316,-0.2820178270339966,-0.3211966156959533,0.5000566840171814
1629376542361,0.4448634088039398,-0.2584007978439331,-0.3322116136550903,0.4767780601978302
1629376542461,0.439290851354599,-0.2263433635234832,-0.3314457535743713,0.4662300646305084
1629376542581,0.4475553035736084,-0.185321643948555,-0.3242169022560119,0.4642801880836487
1629376542685,0.4622051417827606,-0.1442097872495651,-0.3173747956752777,0.4631369709968567
1629376542800,0.4741725027561188,-0.1140395402908325,-0.3168739974498749,0.457472413778305
1629376542862,0.478219985961914,-0.0991673842072486,-0.3270074427127838,0.447317510843277
1629376542970,0.4789695143699646,-0.0949159041047096,-0.3304368555545807,0.4390311241149902
1629376543033,0.4752260446548462,-0.083913080394268,-0.3454876244068146,0.4193627536296844
1629376543184,0.4666906595230102,-0.0673867985606193,-0.3732777237892151,0.3911895751953125
1629376543276,0.4541471898555755,-0.0466738007962703,-0.4087921977043152,0.3572935163974762
1629376543420,0.4410390257835388,-0.0227215383201837,-0.442791223526001,0.3246355354785919
1629376543544,0.4335119426250458,0.0030012286733835,-0.4674708843231201,0.3029652833938598
1629376543602,0.4388003945350647,0.0289231836795806,-0.479492038488388,0.3015932738780975
1629376543651,0.4615699648857116,0.0546350516378879,-0.4784086942672729,0.3222621381282806
1629376543727,0.4980794191360473,0.0813722684979438,-0.4657963514328003,0.3538269102573395
1629376543864,0.538109540939331,0.108707495033741,-0.4482539296150207,0.3816248774528503
1629376544003,0.5701606273651123,0.1307952404022216,-0.4074807167053222,0.3906130194664001
1629376544097,0.5701606273651123,0.1307952404022216,-0.3825065195560455,0.3906130194664001
1629376544175,0.5701606273651123,0.1307952404022216,-0.3804821670055389,0.3906130194664001
1629376544281,0.5701606273651123,0.1307952404022216,-0.365767240524292,0.3906130194664001
1629376544352,0.5701606273651123,0.1307952404022216,-0.365767240524292,0.3906130194664001
1629376544508,0.5701606273651123,0.1307952404022216,-0.365767240524292,0.3906130194664001
1629376544617,0.5701606273651123,0.1307952404022216,-0.365767240524292,0.3906130194664001
1629376544711,0.5701606273651123,0.1307952404022216,-0.365767240524292,0.3906130194664001
1629376544758,0.5701606273651123,0.1307952404022216,-0.365767240524292,0.3906130194664001
1629376544917,0.5701606273651123,0.1307952404022216,-0.365767240524292,0.3906130194664001
1629376544963,0.5701606273651123,0.1307952404022216,-0.365767240524292,0.3906130194664001
1629376545104,0.5701606273651123,0.1307952404022216,-0.365767240524292,0.3906130194664001
1629376545229,0.5701606273651123,0.1307952404022216,-0.365767240524292,0.3906130194664001
1629376545323,0.5701606273651123,0.1307952404022216,-0.365767240524292,0.3906130194664001
1629376545370,0.5701606273651123,0.1307952404022216,-0.365767240524292,0.3906130194664001
1629376545510,0.5701606273651123,0.1307952404022216,-0.365767240524292,0.3906130194664001
1629376545588,0.5701606273651123,0.1307952404022216,-0.365767240524292,0.3906130194664001
1629376545760,0.5701606273651123,0.1307952404022216,-0.365767240524292,0.3906130194664001
1629376545823,0.5701606273651123,0.1307952404022216,-0.7105487585067749,0.3906130194664001
1629376545888,0.4518555998802185,-0.17680224776268,-0.7018852233886719,0.5993207693099976
1629376546076,0.4155689477920532,-0.1612836569547653,-0.6768413782119751,0.5696457624435425
1629376546154,0.3798773288726806,-0.1477149575948715,-0.648428738117218,0.5391073822975159
1629376546186,0.3438774645328522,-0.1346850246191024,-0.6206594109535217,0.5142744779586792
1629376546295,0.3095898032188415,-0.1227643489837646,-0.5913083553314209,0.497013509273529
1629376546389,0.2829684615135193,-0.1145361736416816,-0.5632473826408386,0.4850516021251678
1629376546529,0.2695524394512176,-0.1126144006848335,-0.5442169308662415,0.4742324352264404
1629376546686,0.2695524394512176,-0.1152236312627792,-0.5385088324546814,0.4742324352264404
1629376546857,0.2695524394512176,-0.1155160516500473,-0.5420052409172058,0.4742324352264404
1629376546904,0.2695524394512176,-0.1065440699458122,-0.5417070984840393,0.4742324352264404
1629376546982,0.2695524394512176,-0.089238204061985,-0.528883159160614,0.4742324352264404
1629376547045,0.2695524394512176,-0.0712275430560112,-0.5000646114349365,0.4742324352264404
1629376547170,0.2314273416996002,-0.0505896061658859,-0.4719140231609344,0.453937828540802
1629376547217,0.1801859438419342,-0.0406988598406314,-0.4523816108703613,0.4240053296089172
1629376547404,0.1279826313257217,-0.0403437055647373,-0.43702432513237,0.3909014463424682
1629376547445,0.0839734375476837,-0.0466621480882167,-0.4234209060668945,0.3649169206619262
1629376547536,0.0479637645184993,-0.0568318963050842,-0.4132003486156463,0.3517767786979675
1629376547629,0.0225065257400274,-0.0674843937158584,-0.4009163975715637,0.3540898263454437
1629376547723,0.0225065257400274,-0.0761171206831932,-0.3824679553508758,0.3540898263454437
1629376547832,0.0225065257400274,-0.0829501450061798,-0.3677164614200592,0.3540898263454437
1629376547895,0.0225065257400274,-0.0900161936879158,-0.363537847995758,0.3540898263454437
1629376547976,0.0225065257400274,-0.0981260538101196,-0.3680281639099121,0.3540898263454437
1629376548195,0.0225065257400274,-0.1070316657423973,-0.3742697536945343,0.3540898263454437
1629376548289,0.0225065257400274,-0.1182655245065689,-0.3779418170452118,0.3540898263454437
1629376548374,0.0225065257400274,-0.1358965039253235,-0.3811242282390594,0.3540898263454437
1629376548406,0.0225065257400274,-0.1606404781341552,-0.3867157101631164,0.3540898263454437
1629376548596,0.0225065257400274,-0.1855388283729553,-0.3949623703956604,0.3540898263454437
1629376548659,0.0225065257400274,-0.1979483067989349,-0.4025274515151977,0.3540898263454437
1629376548771,0.0225065257400274,-0.1907072961330413,-0.404510885477066,0.3540898263454437
1629376548903,0.0225065257400274,-0.166975513100624,-0.408386617898941,0.3540898263454437
1629376548982,0.0225065257400274,-0.1350742131471634,-0.4127790033817291,0.3540898263454437
1629376549122,0.0225065257400274,-0.1021934002637863,-0.4186171293258667,0.3540898263454437
1629376549200,0.0225065257400274,-0.0751366540789604,-0.4330766797065735,0.3540898263454437
1629376549310,0.0225065257400274,-0.0579461716115474,-0.460580438375473,0.3540898263454437
1629376549435,0.0225065257400274,-0.0498737767338752,-0.4922488927841186,0.3540898263454437
1629376549497,0.0225065257400274,-0.0456088930368423,-0.5160816311836243,0.3540898263454437
1629376549560,0.0225065257400274,-0.0394527502357959,-0.523892343044281,0.3540898263454437
1629376549622,0.0225065257400274,-0.027858842164278,-0.5152705907821655,0.3540898263454437
1629376549779,0.0225065257400274,-0.0102451415732502,-0.4971049726009369,0.3540898263454437
1629376549982,0.0225065257400274,0.0130644030869007,-0.4805276393890381,0.3540898263454437
1629376550029,0.0225065257400274,0.041762039065361,-0.4743205904960632,0.3540898263454437
1629376550091,0.0225065257400274,0.0727077201008796,-0.4785179793834686,0.3540898263454437
1629376550138,0.0225065257400274,0.0988426059484481,-0.4862791895866394,0.3540898263454437
1629376550310,0.0225065257400274,0.1145748347043991,-0.4912140071392059,0.3540898263454437
1629376550560,0.0225065257400274,0.1199100241065025,-0.4908431470394134,0.3540898263454437
1629376550591,0.0225065257400274,0.1199545487761497,-0.4831645488739013,0.3540898263454437
1629376550685,0.0225065257400274,0.1188016906380653,-0.4652812480926513,0.3540898263454437
1629376550716,0.2310817390680313,0.1165447160601615,-0.438335508108139,0.6720037460327148
1629376550778,0.2157258093357086,0.1114581972360611,-0.4096498787403106,0.6591712236404419
1629376550968,0.2132865190505981,0.1045420840382576,-0.3860041499137878,0.6519842743873596
1629376551155,0.2312347739934921,0.0994664952158927,-0.3707575798034668,0.6565759778022766
1629376551311,0.263166606426239,0.0997281372547149,-0.3635826706886291,0.6695873141288757
1629376551343,0.2939070165157318,0.1042027473449707,-0.3634346723556518,0.6813936829566956
1629376551389,0.3098286390304565,0.1075057983398437,-0.3691365718841553,0.6831137537956238
1629376551436,0.3074007928371429,0.1030219793319702,-0.3789426684379577,0.6739163398742676
1629376551742,0.2939680218696594,0.0861233547329902,-0.3895928263664245,0.6593695282936096
1629376551869,0.2797040343284607,0.0566779747605323,-0.3958707451820373,0.6469432711601257
1629376551931,0.2716231942176819,0.0202200841158628,-0.3940213918685913,0.6400693655014038
1629376551994,0.2712534964084625,-0.0142473625019192,-0.3850138187408447,0.6360483169555664
1629376552041,0.2768997550010681,-0.0408354550600051,-0.3745784163475036,0.6297410130500793
1629376552244,0.2859827578067779,-0.0615309029817581,-0.3691335320472717,0.6166455745697021
1629376552291,0.2962890565395355,-0.0818316861987114,-0.3723115026950836,0.610693097114563
1629376552384,0.3041947782039642,-0.1022953763604164,-0.3826545476913452,0.6073405146598816
1629376552432,0.3141595721244812,-0.11854899674654,-0.3947698473930359,0.6076444983482361
1629376552557,0.3223902881145477,-0.1279932111501693,-0.4038549959659576,0.6070483326911926
1629376552682,0.3220904767513275,-0.1341611891984939,-0.4083462357521057,0.598649799823761
1629376552879,0.3085764050483703,-0.1437063217163086,-0.4111292660236358,0.5778589248657227
1629376552934,0.2839922606945038,-0.1563188880681991,-0.4138084053993225,0.547419011592865
1629376552965,0.2614227831363678,-0.1629532873630523,-0.4091507792472839,0.5208509564399719
1629376552996,0.2583498358726501,-0.1834392994642257,-0.4011670649051666,0.5122197866439819
1629376553153,0.2788223922252655,-0.1987413763999939,-0.3899293541908264,0.5227318406105042
1629376553309,0.3122022747993469,-0.2069371938705444,-0.3796465396881103,0.5368884205818176
1629376553371,0.3447785079479217,-0.209168255329132,-0.3753568828105926,0.5368884205818176
1629376553465,0.3447785079479217,-0.2082077264785766,-0.3795759379863739,0.5368884205818176
1629376553512,0.3447785079479217,-0.2086826860904693,-0.3908670246601105,0.5368884205818176
1629376553606,0.3447785079479217,-0.2149248421192169,-0.4056445062160492,0.5368884205818176
1629376553637,0.3447785079479217,-0.2234188616275787,-0.4200088083744049,0.5368884205818176
1629376553762,0.3447785079479217,-0.2225054204463958,-0.4326632618904114,0.5368884205818176
1629376553922,0.3447785079479217,-0.202283039689064,-0.4181079268455505,0.5368884205818176
1629376553974,0.3447785079479217,-0.1637108922004699,-0.4049140214920044,0.5368884205818176
1629376554099,0.3447785079479217,-0.1501384526491165,-0.4042077362537384,0.5368884205818176
1629376554161,0.3447785079479217,-0.1436193883419037,-0.4137312173843384,0.5368884205818176
1629376554255,0.3447785079479217,-0.1666550487279892,-0.4243620038032532,0.5368884205818176
1629376554411,0.3447785079479217,-0.2480890154838562,-0.4395152628421783,0.6459371447563171
1629376554489,0.3447785079479217,-0.2428112030029297,-0.4384139776229858,0.6607270836830139
1629376554583,0.3447785079479217,-0.2281845957040786,-0.4268435835838318,0.6622942686080933
1629376554630,0.3447785079479217,-0.2127833515405655,-0.414725661277771,0.6590249538421631
1629376554727,0.3447785079479217,-0.2010669112205505,-0.4093042612075805,0.6590249538421631
1629376554853,0.3223110437393188,-0.1860602051019668,-0.4117435216903686,0.6590249538421631
1629376555008,0.3453743457794189,-0.1625927984714508,-0.4153447449207306,0.6590249538421631
1629376555071,0.3859359323978424,-0.1372404992580413,-0.4118755161762237,0.6590249538421631
1629376555133,0.3859359323978424,-0.1181527897715568,-0.3984429240226745,0.6590249538421631
1629376555258,0.3859359323978424,-0.1028851941227912,-0.3793680667877197,0.6828412413597107
1629376555305,0.3859359323978424,-0.0836132988333702,-0.3637091815471649,0.7118611335754395
1629376555446,0.3859359323978424,-0.0594904385507106,-0.3494147062301636,0.7118611335754395
1629376555555,0.3859359323978424,-0.0263052321970462,-0.3348750174045563,0.7546928524971008
1629376555791,0.3859359323978424,-0.0045548700727522,-0.3195843696594238,0.7721096873283386
1629376555838,0.3859359323978424,0.0061284247785806,-0.3054519593715668,0.7707024216651917
1629376555963,0.3974024355411529,0.0098687363788485,-0.2961902618408203,0.7618465423583984
1629376556041,0.3968662917613983,0.0093704899773001,-0.2942699790000915,0.7521262168884277
1629376556120,0.3858968019485473,0.005789014045149,-0.2995043694972992,0.7613757252693176
1629376556166,0.3961623311042785,0.0012553588021546,-0.3068274557590484,0.7763627171516418
1629376556245,0.4164187014102936,-0.0032212804071605,-0.30894735455513,0.7763627171516418
1629376556385,0.4348976016044616,-0.0103886602446436,-0.3015266954898834,0.7763627171516418
1629376556494,0.4368404448032379,-0.0224563330411911,-0.2887893319129944,0.7763627171516418
1629376556541,0.4368404448032379,-0.0357667058706283,-0.2808707058429718,0.7763627171516418
1629376556635,0.4368404448032379,-0.0451720058917999,-0.2862874567508697,0.7763627171516418
1629376556744,0.4368404448032379,-0.0529817752540111,-0.3067256808280945,0.7685157656669617
1629376556856,0.4368404448032379,-0.0669396296143531,-0.3371095657348633,0.7387180924415588
1629376556968,0.4368404448032379,-0.0898700430989265,-0.36934295296669,0.7387180924415588
1629376557069,0.4368404448032379,-0.1146452501416206,-0.3967437744140625,0.6909576058387756
1629376557149,0.4564086496829986,-0.1312291622161865,-0.4138552248477936,0.6909576058387756
1629376557315,0.4682726263999939,-0.1368831694126129,-0.4157772362232208,0.6909576058387756
1629376557382,0.463898241519928,-0.1366248875856399,-0.3999597728252411,0.6909576058387756
1629376557495,0.4605593383312225,-0.1370814591646194,-0.3722279369831085,0.6909576058387756
1629376557604,0.4565741419792175,-0.1418025642633438,-0.3436130583286285,0.6909576058387756
1629376557689,0.4245569109916687,-0.1494091302156448,-0.3232017159461975,0.5431900024414062
1629376557755,0.4015279114246368,-0.1543832272291183,-0.3141362369060516,0.5148603320121765
1629376557948,0.3923512995243072,-0.1527960002422332,-0.3152280151844024,0.4915561079978943
1629376558009,0.3923512995243072,-0.1477411985397339,-0.3214884400367737,0.4789145588874817
1629376558177,0.3923512995243072,-0.1475175619125366,-0.3221202790737152,0.4847095012664795
1629376558234,0.3923512995243072,-0.1574624329805374,-0.3072907924652099,0.5163581371307373
1629376558309,0.4189664721488952,-0.1767774373292923,-0.278903067111969,0.5616167187690735
1629376558396,0.4392955899238586,-0.2010167092084884,-0.2479036450386047,0.5616167187690735
1629376558578,0.4392955899238586,-0.2258131653070449,-0.2209292948246002,0.5616167187690735
1629376558637,0.4392955899238586,-0.2483682334423065,-0.197464182972908,0.5616167187690735
1629376558715,0.4164098501205444,-0.2678377032279968,-0.1780554801225662,0.5616167187690735
1629376558783,0.4027164578437805,-0.284152090549469,-0.1680968701839447,0.5616167187690735
1629376558910,0.3974730670452118,-0.2955895662307739,-0.1722694784402847,0.558247983455658
1629376559010,0.4014110565185547,-0.2979057431221008,-0.1882850676774978,0.5543639063835144
1629376559194,0.421301007270813,-0.2870621681213379,-0.2070081084966659,0.5575522780418396
1629376559251,0.4605061709880829,-0.2647788226604461,-0.2197660505771637,0.5734806656837463
1629376559314,0.4605061709880829,-0.2385133057832718,-0.2247341871261596,0.6038249135017395
1629376559433,0.4605061709880829,-0.2163430154323578,-0.2258928269147873,0.6492103934288025
1629376559523,0.4605061709880829,-0.2012446373701095,-0.2284334301948547,0.6492103934288025
1629376559616,0.4605061709880829,-0.190354898571968,-0.2367353588342666,0.6492103934288025
1629376559709,0.4605061709880829,-0.1781318485736847,-0.2526736855506897,0.6492103934288025
1629376559794,0.4605061709880829,-0.1604141891002655,-0.2727205455303192,0.6492103934288025
1629376559983,0.4605061709880829,-0.1393298208713531,-0.2912213206291199,0.6492103934288025
1629376560047,0.4605061709880829,-0.11936055123806,-0.3076737225055694,0.6492103934288025
1629376560134,0.4605061709880829,-0.0997622311115264,-0.3276557028293609,0.6492103934288025
1629376560241,0.4605061709880829,-0.0758301094174385,-0.3551316857337951,0.6492103934288025
1629376560320,0.4605061709880829,-0.0468046441674232,-0.3859559297561645,0.6492103934288025
1629376560494,0.4605061709880829,-0.0184578523039817,-0.4114777445793152,0.6492103934288025
1629376560561,0.4605061709880829,0.0028825479093939,-0.4279392659664154,0.6492103934288025
1629376560632,0.4605061709880829,0.0149277932941913,-0.4409246444702148,0.6492103934288025
1629376560724,0.4605061709880829,0.0190256740897893,-0.4579430818557739,0.6492103934288025
1629376560787,0.4605061709880829,0.0174380261451005,-0.4800888299942016,0.6492103934288025
1629376561023,0.4605061709880829,0.0137692978605628,-0.5002220273017883,0.6492103934288025
1629376561096,0.4605061709880829,0.0129879703745245,-0.5099048018455505,0.6492103934288025
1629376561128,0.4605061709880829,0.0176590830087661,-0.5071884393692017,0.6492103934288025
1629376561255,0.4605061709880829,0.0256797783076763,-0.4976292550563812,0.6492103934288025
1629376561362,0.4605061709880829,0.0331717878580093,-0.4895505905151367,0.6492103934288025
1629376561483,0.4605061709880829,0.038871593773365,-0.4872142374515533,0.6492103934288025
1629376561574,0.4605061709880829,0.0429553315043449,-0.4981324970722198,0.6492103934288025
1629376561637,0.4605061709880829,0.0425222851336002,-0.5054997205734253,0.6492103934288025
1629376561757,0.4605061709880829,0.0326534993946552,-0.5061882734298706,0.6492103934288025
1629376561884,0.4605061709880829,0.0125511409714818,-0.5056073665618896,0.6492103934288025
1629376561952,0.4605061709880829,-0.0127141866832971,-0.4972085058689117,0.6492103934288025
1629376562075,0.4605061709880829,-0.0358916409313678,-0.4893892705440521,0.6492103934288025
1629376562161,0.4605061709880829,-0.0528470166027545,-0.486162781715393,0.6492103934288025
1629376562252,0.4605061709880829,-0.0644851922988891,-0.4833229780197143,0.6492103934288025
1629376562353,0.4605061709880829,-0.0734702572226524,-0.4745382368564605,0.6492103934288025
1629376562471,0.4605061709880829,-0.0822875127196312,-0.4590462148189544,0.6492103934288025
1629376562547,0.4605061709880829,-0.0937798097729682,-0.4426610171794891,0.6492103934288025
1629376562777,0.4605061709880829,-0.1080711930990219,-0.4327946305274963,0.6492103934288025
1629376562820,0.4605061709880829,-0.1219334974884986,-0.4343254268169403,0.6492103934288025
1629376563032,0.2939797341823578,-0.133350059390068,-0.4464547336101532,0.4589239954948425
1629376563114,0.2684243321418762,-0.1438191831111908,-0.4630211293697357,0.4294266700744629
1629376563207,0.2527071833610534,-0.1557957082986831,-0.4698903560638428,0.4014666378498077
1629376563307,0.2482621520757675,-0.1685482710599899,-0.4755384027957916,0.3769593834877014
1629376563438,0.2515671849250793,-0.1782538741827011,-0.4766048192977905,0.3611913919448852
1629376563488,0.2577226161956787,-0.1818936169147491,-0.4681316912174225,0.3581967353820801
1629376563578,0.2623555958271026,-0.1788689047098159,-0.463155448436737,0.3650910556316376
1629376563647,0.2636758387088775,-0.1715179681777954,-0.4612850248813629,0.3740557134151459
1629376563697,0.2632319331169128,-0.1642906665802002,-0.4575323462486267,0.3740557134151459
1629376563785,0.2632319331169128,-0.160472571849823,-0.4488990902900696,0.3740557134151459
1629376563892,0.2632319331169128,-0.1580255627632141,-0.4395711421966553,0.3740557134151459
1629376563979,0.2632319331169128,-0.1496299356222152,-0.4377638399600982,0.3740557134151459
1629376564106,0.2510817945003509,-0.1306698620319366,-0.4480123519897461,0.3510453104972839
1629376564193,0.2419111579656601,-0.1063983738422393,-0.4687159955501556,0.3312723040580749
1629376564285,0.2402447015047073,-0.086772434413433,-0.4933404922485351,0.3197564780712127
1629376564439,0.2470011562108993,-0.0773776397109031,-0.5152118802070618,0.3168947994709015
1629376564507,0.2594846487045288,-0.0770550891757011,-0.5309391021728516,0.3218239545822143
1629376564638,0.2735075950622558,-0.0806117355823516,-0.5391655564308167,0.3387016355991363
1629376564716,0.2833588421344757,-0.0829705744981765,-0.5402642488479614,0.3689270913600921
1629376564803,0.2856615483760834,-0.0794017389416694,-0.5360447764396667,0.3689270913600921
1629376564865,0.2856615483760834,-0.0677432343363761,-0.5278089642524719,0.3689270913600921
1629376564994,0.2856615483760834,-0.0496450737118721,-0.5160437822341919,0.3689270913600921
1629376565115,0.2856615483760834,-0.02673458494246,-0.4998408257961273,0.3689270913600921
1629376565248,0.2856615483760834,-3.374784500920214e-05,-0.4819189310073852,0.3689270913600921
1629376565334,0.0621616393327713,0.0271849334239959,-0.4674303531646728,0.4588279128074646
1629376565430,0.0457874536514282,0.0490778610110282,-0.4566411674022674,0.457306295633316
1629376565569,0.0173399560153484,0.0606944002211093,-0.4436722993850708,0.4605172276496887
1629376565604,-0.0148144466802477,0.0625333860516548,-0.4216417968273163,0.4648665487766266
1629376565705,-0.0420444570481777,0.0601883605122566,-0.3912480473518371,0.4631092250347137
1629376565866,-0.0605000481009483,0.0595213025808334,-0.3591575920581817,0.451413631439209
1629376566020,-0.0693819671869278,0.0630853176116943,-0.331646978855133,0.4359094202518463
1629376566146,-0.0726984292268753,0.0705165043473243,-0.3122985064983368,0.4200619161128998
1629376566237,-0.073524110019207,0.079216182231903,-0.303399384021759,0.4047045409679413
1629376566276,-0.0735901370644569,0.0857813358306884,-0.3062944114208221,0.3921978175640106
1629376566551,-0.0750218331813812,0.0866576433181762,-0.3193565011024475,0.3847996592521667
1629376566615,-0.0780878365039825,0.079619325697422,-0.3381349444389343,0.3847348093986511
1629376566675,-0.091096892952919,0.0652166083455085,-0.3569956719875335,0.3882388174533844
1629376566712,-0.1133338958024978,0.044690903276205,-0.3722633719444275,0.3909203708171844
1629376566755,-0.1365406960248947,0.0195520725101232,-0.3830468952655792,0.3927357494831085
1629376566848,-0.148729145526886,-0.0061087678186595,-0.3891378939151764,0.3937709927558899
1629376566913,-0.142176866531372,-0.0258261393755674,-0.3922179043292999,0.3911563754081726
1629376567118,-0.1226915791630745,-0.0357557833194732,-0.397160530090332,0.3836467266082763
1629376567180,-0.0994398891925811,-0.0388352833688259,-0.4083403050899505,0.3739393055438995
1629376567222,-0.0746301040053367,-0.0385850593447685,-0.4210923314094543,0.3709252178668976
1629376567340,-0.0470317192375659,-0.0347397923469543,-0.4247179925441742,0.3814491927623749
1629376567443,-0.0188889596611261,-0.0265959575772285,-0.4162140488624573,0.3993304371833801
1629376567539,0.0078441845253109,-0.0176792033016681,-0.404048353433609,0.4176470935344696
1629376567707,0.0335820540785789,-0.0123246200382709,-0.3949196338653564,0.4337509572505951
1629376567802,0.0584321469068527,-0.0102410949766635,-0.3879187703132629,0.4473955631256103
1629376567946,0.0811144709587097,-0.0077337557449936,-0.3794003129005432,0.4571232199668884
1629376568086,0.0993101298809051,-0.0021218420006334,-0.3698797821998596,0.4581250250339508
1629376568164,0.1139896512031555,0.0060098026879131,-0.3627172708511352,0.4481576085090637
1629376568196,0.1293540298938751,0.0160605702549219,-0.3610917627811432,0.4314346313476562
1629376568321,0.1438272297382354,0.0274265334010124,-0.3665761947631836,0.4128404259681701
1629376568417,0.152807131409645,0.0370271988213062,-0.3792835474014282,0.3964584171772003
1629376568487,0.1520436406135559,0.0390565767884254,-0.3977674543857574,0.3831522762775421
1629376568596,0.1426754742860794,0.0299655739217996,-0.4189636409282684,0.3730867803096771
1629376568659,0.1300268173217773,0.0114308129996061,-0.4419174194335937,0.3667888641357422
1629376568862,0.1157428100705146,-0.0132320281118154,-0.4719133973121643,0.3591794371604919
1629376568975,0.0986183062195777,-0.0429265722632408,-0.5167701244354248,0.3429186046123504
1629376569069,0.0843328833580017,-0.0756260603666305,-0.5752808451652527,0.3205426037311554
1629376569115,0.0854671970009803,-0.1037765964865684,-0.6298549175262451,0.3029265105724334
1629376569147,0.0714433714747428,-0.1181170642375946,-0.6605634093284607,0.2870822548866272
1629376569272,0.0535629130899906,-0.1177476570010185,-0.6632310748100281,0.2701072990894317
1629376569428,0.0341301709413528,-0.1110436394810676,-0.6511592864990234,0.2507751584053039
1629376569538,0.017599482089281,-0.1051587685942649,-0.6361839771270752,0.2341068834066391
1629376569600,0.0064525553025305,-0.1010686531662941,-0.6243411302566528,0.226741760969162
1629376569647,-0.0057978918775916,-0.0988992750644683,-0.6185533404350281,0.2292357832193374
1629376569818,-0.0251487959176301,-0.100637063384056,-0.6192379593849182,0.2364755272865295
1629376569928,-0.0492843575775623,-0.1066533178091049,-0.625339925289154,0.2444590777158737
1629376569990,-0.0634701326489448,-0.1126922741532325,-0.6322308778762817,0.2558668553829193
1629376570147,-0.0502337031066417,-0.1140477284789085,-0.6341478228569031,0.2687764167785644
1629376570225,-0.0099829025566577,-0.110304094851017,-0.6273800134658813,0.2733059525489807
1629376570303,-0.0099829025566577,-0.1047340035438537,-0.6143892407417297,0.2733059525489807
1629376570381,-0.0099829025566577,-0.0983537882566452,-0.6008550524711609,0.2733059525489807
1629376570553,-0.0099829025566577,-0.0914832130074501,-0.5896182656288147,0.2733059525489807
1629376570662,-0.0099829025566577,-0.0865668505430221,-0.5788125991821289,0.2733059525489807
1629376570725,-0.0099829025566577,-0.0863232240080833,-0.5638711452484131,0.2733059525489807
1629376570850,-0.0099829025566577,-0.09074018150568,-0.5435349941253662,0.2733059525489807
1629376570993,-0.0099829025566577,-0.0979228243231773,-0.5218531489372253,0.2733059525489807
1629376571102,-0.1898111850023269,-0.1078751683235168,-0.5035768151283264,0.3910683095455169
1629376571164,-0.1738277226686477,-0.1223716139793396,-0.4899626970291137,0.372607946395874
1629376571228,-0.1395649164915084,-0.1414467543363571,-0.4787753522396087,0.3420939147472381
1629376571431,-0.1113685294985771,-0.1600853949785232,-0.4683915972709656,0.3125610649585724
1629376571556,-0.1001085937023162,-0.1707162857055664,-0.4588827192783355,0.2910088896751404
1629376571634,-0.098406933248043,-0.1694584041833877,-0.4521322250366211,0.2843836843967438
1629376571681,-0.098406933248043,-0.1592353135347366,-0.448651522397995,0.2843836843967438
1629376571791,-0.098406933248043,-0.1452428847551345,-0.4450179040431976,0.2843836843967438
1629376571822,-0.098406933248043,-0.1302725225687027,-0.4369917511940002,0.2843836843967438
1629376572028,-0.098406933248043,-0.1145863831043243,-0.4246553182601928,0.2843836843967438
1629376572200,-0.098406933248043,-0.0984651148319244,-0.4129520356655121,0.2843836843967438
