timestamp,TP9,AF7,AF8,TP10
1631023450842,0.801886260509491,0.3535122573375702,0.0307638235390186,0.5793463587760925
1631023451081,0.801886260509491,0.3563621342182159,0.0307638235390186,0.5793463587760925
1631023451299,0.7817955017089844,0.3597737848758697,0.0307638235390186,0.5793463587760925
1631023451393,0.7239372730255127,0.3824721276760101,0.027990635484457,0.5793463587760925
1631023451518,0.6757752895355225,0.3893254101276397,0.0178867261856794,0.5793463587760925
1631023451596,0.6382685303688049,0.3893254101276397,0.017758036032319,0.5767620205879211
1631023451612,0.6335471868515015,0.3522664308547973,0.0168604291975498,0.5455479025840759
1631023451768,0.6335471868515015,0.3145299553871155,0.0104078948497772,0.5333632826805115
1631023451971,0.6335471868515015,0.7810386419296265,-0.0068717808462679,0.5219204425811768
1631023452024,0.6335471868515015,0.7810386419296265,-0.0520305521786212,0.5219204425811768
1631023452068,0.6335471868515015,0.7810386419296265,-0.0742673799395561,0.5219204425811768
1631023452146,0.6335471868515015,0.7810386419296265,-0.0669612437486648,0.5219204425811768
1631023452224,0.6335471868515015,0.7810386419296265,-0.0623487196862697,0.5219204425811768
1631023452271,0.6335471868515015,0.7810386419296265,-0.0901940390467643,0.5219204425811768
1631023452318,0.6335471868515015,0.7810386419296265,-0.2473244667053222,0.5219204425811768
1631023452536,0.6335471868515015,0.7810386419296265,-0.2415998131036758,0.5219204425811768
1631023452615,0.6335471868515015,0.7810386419296265,-0.2169447839260101,0.5219204425811768
1631023452677,0.6335471868515015,0.7810386419296265,-0.1625767052173614,0.5219204425811768
1631023452724,0.6335471868515015,0.9287633299827576,-0.0176780074834823,0.5219204425811768
1631023452755,0.6335471868515015,0.9287633299827576,0.156989499926567,0.5219204425811768
1631023452802,0.6335471868515015,0.9287633299827576,0.2682937681674957,0.5219204425811768
1631023452818,0.6335471868515015,0.9287633299827576,0.3036070764064789,0.5219204425811768
1631023452943,0.6335471868515015,0.9287633299827576,0.3040187358856201,0.5219204425811768
1631023453101,0.6335471868515015,0.8374190926551819,0.3040187358856201,0.5219204425811768
1631023453226,0.6335471868515015,0.8374190926551819,0.3040187358856201,0.5219204425811768
1631023453336,0.6335471868515015,0.8374190926551819,0.3040187358856201,0.5219204425811768
1631023453398,0.6335471868515015,0.8374190926551819,0.3040187358856201,0.5219204425811768
1631023453554,0.6335471868515015,0.8374190926551819,0.3040187358856201,0.5219204425811768
1631023453586,0.6335471868515015,0.8374190926551819,0.3040187358856201,0.5219204425811768
1631023453664,0.6335471868515015,0.8374190926551819,0.3040187358856201,0.5219204425811768
1631023453679,0.6335471868515015,0.8374190926551819,0.3199777901172638,0.5219204425811768
1631023453882,0.6335471868515015,0.8374190926551819,0.3285145461559295,0.3578696548938751
1631023454091,0.6335471868515015,0.8374190926551819,0.3292141258716583,0.3578696548938751
1631023454120,0.6335471868515015,0.5145903825759888,0.3292141258716583,0.3578696548938751
1631023454198,0.6335471868515015,0.5145903825759888,0.3286709189414978,0.3578696548938751
1631023454277,0.6335471868515015,0.5145903825759888,0.3043241202831268,0.3578696548938751
1631023454339,0.6335471868515015,0.5128518342971802,0.2553121447563171,0.3578696548938751
1631023454464,0.6335471868515015,0.5020964741706848,0.2133278548717498,0.3578696548938751
1631023454573,0.6335471868515015,0.4970183968544006,0.2033526599407196,0.3578696548938751
1631023454776,0.6335471868515015,0.4959111511707306,0.1954299062490463,0.3578696548938751
1631023454808,0.6335471868515015,0.49323171377182,0.1821392774581909,0.3578696548938751
1631023454870,0.6335471868515015,0.49323171377182,0.1697501689195633,0.3578696548938751
1631023454933,0.6335471868515015,0.49323171377182,0.1611335426568985,0.3578696548938751
1631023455202,0.6335471868515015,0.49323171377182,0.1589238047599792,0.3578696548938751
1631023455280,0.6335471868515015,0.49323171377182,0.1939611136913299,0.3578696548938751
1631023455342,0.6335471868515015,0.49323171377182,0.2064531445503235,0.3578696548938751
1631023455358,0.6335471868515015,0.4680981934070587,0.1666936427354812,0.3578696548938751
1631023455514,0.6335471868515015,0.3669286668300628,0.1430877447128296,0.3578696548938751
1631023455561,0.6335471868515015,0.2072222977876663,0.2268034815788269,0.3578696548938751
1631023455876,0.6335471868515015,0.136315032839775,0.3987855911254883,0.3578696548938751
1631023456011,0.6335471868515015,0.0775861069560051,0.5302826762199402,0.3578696548938751
1631023456061,0.6335471868515015,0.0775861069560051,0.5590235590934753,0.3578696548938751
1631023456088,0.6335471868515015,0.0775861069560051,0.561718761920929,0.3578696548938751
1631023456148,0.6335471868515015,0.0775861069560051,0.561718761920929,0.3578696548938751
1631023456205,0.6335471868515015,0.0178577583283185,0.561718761920929,0.3578696548938751
1631023456324,0.6335471868515015,0.1676135510206222,0.561718761920929,0.3578696548938751
1631023456539,0.6335471868515015,0.1722982078790664,0.561718761920929,0.3578696548938751
1631023456585,0.6335471868515015,0.1510322093963623,0.561718761920929,0.3578696548938751
1631023456613,0.6335471868515015,0.1438100486993789,0.561718761920929,0.3578696548938751
1631023456642,0.6335471868515015,0.1438100486993789,0.561718761920929,0.3578696548938751
1631023456860,0.6335471868515015,0.0532501190900802,0.561718761920929,0.3578696548938751
1631023456995,0.6335471868515015,0.059144128113985,0.561718761920929,0.0580347403883934
1631023457088,0.9003958702087402,0.0834889784455299,0.561718761920929,0.1159600019454956
1631023457120,0.9014701247215272,0.1149859204888343,0.561718761920929,0.1663344055414199
1631023457185,0.9032230377197266,0.1339054107666015,0.561718761920929,0.1663344055414199
1631023457388,0.911164939403534,0.1339054107666015,0.5238781571388245,0.1663344055414199
1631023457435,0.9350680112838744,0.1339054107666015,0.4130904972553253,0.2696801126003265
1631023457622,0.97390878200531,0.1339054107666015,0.2957308888435364,0.3266534209251404
1631023457685,1.0252927541732788,0.1339054107666015,0.2388579845428466,0.340198665857315
1631023457763,1.0768027305603027,0.1543585807085037,0.1947076767683029,0.340198665857315
1631023457903,1.0908608436584473,0.1103551834821701,0.1542152911424636,0.340198665857315
1631023458013,1.098702311515808,0.0278578642755746,0.243959367275238,0.340198665857315
1631023458137,1.104008436203003,0.0107617806643247,0.4780295193195343,0.3662984073162079
1631023458228,1.1128227710723877,0.2074210047721862,0.4780295193195343,0.492919772863388
1631023458259,1.1248105764389038,0.4990702271461487,0.4780295193195343,0.4902954399585724
1631023458302,1.1449626684188845,0.6889241933822632,0.4780295193195343,0.4902954399585724
1631023458489,1.1420247554779053,0.7535822987556458,0.4780295193195343,0.4902954399585724
1631023458561,1.1326093673706057,0.756624162197113,0.4780295193195343,0.4902954399585724
1631023458608,1.1326093673706057,0.756624162197113,0.4780295193195343,0.4902954399585724
1631023458779,1.1326093673706057,0.756624162197113,0.4780295193195343,0.4902954399585724
1631023458846,1.1326093673706057,0.756624162197113,0.4780295193195343,0.4902954399585724
1631023458909,1.1326093673706057,0.756624162197113,0.4780295193195343,0.4902954399585724
1631023459050,1.1326093673706057,0.756624162197113,0.4780295193195343,0.4902954399585724
1631023459081,1.1326093673706057,0.756624162197113,0.4764813482761383,0.4826161563396454
1631023459212,1.1108888387680054,0.756624162197113,0.4764813482761383,0.4826161563396454
1631023459372,1.0382330417633057,0.756624162197113,0.4764813482761383,0.4826161563396454
1631023459435,0.9396155476570128,0.756624162197113,0.4764813482761383,0.4826161563396454
1631023459606,0.9396155476570128,0.756624162197113,0.4764813482761383,0.4826161563396454
1631023459638,0.9396155476570128,0.756624162197113,0.4764813482761383,0.4826161563396454
1631023459747,0.9396155476570128,0.756624162197113,0.4764813482761383,0.4826161563396454
1631023459872,0.9396155476570128,0.756624162197113,0.4764813482761383,0.4826161563396454
1631023459981,0.9396155476570128,0.756624162197113,0.4764813482761383,0.4826161563396454
1631023460062,0.9396155476570128,0.756624162197113,0.4764813482761383,0.4826161563396454
1631023460171,0.9396155476570128,0.756624162197113,0.4764813482761383,0.4826161563396454
1631023460422,0.9396155476570128,0.756624162197113,0.4764813482761383,0.4826161563396454
1631023460437,0.9396155476570128,0.756624162197113,0.4764813482761383,0.4826161563396454
1631023460453,0.9396155476570128,0.4748269319534302,0.2189529687166214,0.4826161563396454
1631023460625,1.0017839670181274,0.4748269319534302,0.2344701141119003,0.4826161563396454
1631023460781,1.0017839670181274,0.4748269319534302,0.2459736615419387,0.4826161563396454
1631023460968,1.0017839670181274,0.4748269319534302,0.2640146613121032,0.4826161563396454
1631023461015,1.0017839670181274,0.4834752380847931,0.3043922781944275,0.4826161563396454
1631023461031,1.0017839670181274,0.4834752380847931,0.3187683820724487,0.4826161563396454
1631023461062,1.0017839670181274,0.4834752380847931,0.3187683820724487,0.4826161563396454
1631023461171,1.0017839670181274,0.4834752380847931,0.3187683820724487,0.4826161563396454
1631023461330,1.0017839670181274,0.4834752380847931,0.3214564621448517,0.4826161563396454
1631023461375,1.0017839670181274,0.4834752380847931,0.3337825834751129,0.4826161563396454
1631023461507,1.0017839670181274,0.4834752380847931,0.3571097254753113,0.4826161563396454
1631023461585,1.0017839670181274,0.4834752380847931,0.3624517917633056,0.4826161563396454
1631023461667,1.0017839670181274,0.4834752380847931,0.3624517917633056,0.4826161563396454
1631023462070,1.0017839670181274,0.470679223537445,0.3624517917633056,0.4826161563396454
1631023462106,1.0017839670181274,0.3703530132770538,0.3455114066600799,0.4826161563396454
1631023462137,1.0017839670181274,0.3106180727481842,0.3220728039741516,0.4826161563396454
1631023462169,1.0017839670181274,0.2258758246898651,0.2883671522140503,0.4826161563396454
1631023462193,1.235306978225708,0.1852084845304489,0.2615011632442474,0.4826161563396454
1631023462299,1.247416377067566,0.2026522159576416,0.2376783043146133,0.4826161563396454
1631023462410,1.276486873626709,0.2115659862756729,0.2198912799358368,0.4826161563396454
1631023462598,1.2978028059005735,0.2380861043930053,0.1965219676494598,0.4826161563396454
1631023462664,1.2978028059005735,0.2563832402229309,0.1654952615499496,0.4826161563396454
1631023462695,1.2978028059005735,0.2773407995700836,0.158169686794281,0.4826161563396454
1631023462829,1.2978028059005735,0.281645119190216,0.158169686794281,0.4826161563396454
1631023462876,1.2978028059005735,0.2817498743534088,0.158169686794281,0.4826161563396454
1631023463032,1.2978028059005735,0.2913300395011902,0.1568241864442825,0.4826161563396454
1631023463180,1.2978028059005735,0.3129882514476776,0.1207313388586044,0.4826161563396454
1631023463211,1.2978028059005735,0.3255789577960968,0.076482780277729,0.4826161563396454
1631023463289,1.2978028059005735,0.3309680223464966,0.0719080492854118,0.4826161563396454
1631023463342,1.2874679565429688,0.3309680223464966,0.0701652467250824,0.4826161563396454
1631023463454,1.2734695672988892,0.3097509145736694,0.0640920996665954,0.4826161563396454
1631023463763,1.2621490955352783,0.2923869788646698,0.0296743921935558,0.4826161563396454
1631023463794,1.2463538646697998,0.26658695936203,-0.0642677173018455,0.4826161563396454
1631023463794,1.2463538646697998,0.2364491969347,-0.0642677173018455,0.4826161563396454
1631023464022,1.2463538646697998,0.2612937390804291,-0.0642677173018455,0.4826161563396454
1631023464148,1.2463538646697998,0.2956736981868744,-0.0642677173018455,0.4826161563396454
1631023464251,1.2463538646697998,0.363734632730484,-0.0642677173018455,0.4826161563396454
1631023464295,1.2463538646697998,0.3526298999786377,-0.0642677173018455,0.4826161563396454
1631023464326,1.2463538646697998,0.3368011116981506,-0.0642677173018455,0.4826161563396454
1631023464449,1.2463538646697998,0.3230412006378174,-0.0642677173018455,0.4826161563396454
1631023464587,1.2463538646697998,0.309396356344223,-0.0642677173018455,0.4826161563396454
1631023464777,1.2463538646697998,0.2952010333538055,-0.0642677173018455,0.4826161563396454
1631023464891,1.2463538646697998,0.5959698557853699,-0.0642677173018455,0.4826161563396454
1631023464938,1.2463538646697998,0.6204507946968079,-0.0642677173018455,0.4826161563396454
1631023464962,1.2463538646697998,0.6219951510429382,-0.0642677173018455,0.4826161563396454
1631023465029,1.2463538646697998,0.6219951510429382,-0.0642677173018455,0.4826161563396454
1631023465226,1.2463538646697998,0.6219951510429382,-0.0642677173018455,0.4826161563396454
1631023465322,1.2463538646697998,0.6247465014457703,-0.0642677173018455,0.4826161563396454
1631023465442,1.2463538646697998,0.6247465014457703,-0.0642677173018455,0.4826161563396454
1631023465677,1.2463538646697998,0.6247465014457703,-0.0642677173018455,0.4826161563396454
1631023465723,1.2463538646697998,0.6247465014457703,-0.0642677173018455,0.4826161563396454
1631023465754,1.2463538646697998,0.5928610563278198,-0.0642677173018455,0.4826161563396454
1631023465833,1.2463538646697998,0.5928610563278198,-0.0642677173018455,0.4826161563396454
1631023465954,1.2463538646697998,0.5928610563278198,-0.0642677173018455,0.4826161563396454
1631023465985,1.2463538646697998,0.5928610563278198,-0.0642677173018455,0.4826161563396454
1631023466045,1.2463538646697998,0.5928610563278198,-0.0642677173018455,0.4826161563396454
1631023466180,1.2463538646697998,0.5928610563278198,-0.0642677173018455,0.4826161563396454
1631023466227,1.2463538646697998,0.5018409490585327,-0.0642677173018455,0.4826161563396454
1631023466442,1.2463538646697998,0.3704036772251129,-0.0642677173018455,0.4826161563396454
1631023466570,1.2463538646697998,0.1579115688800811,-0.0642677173018455,0.4826161563396454
1631023466617,1.2463538646697998,0.061326690018177,-0.0642677173018455,0.4826161563396454
1631023466795,1.2463538646697998,0.035150621086359,-0.0642677173018455,0.4826161563396454
1631023466889,1.2463538646697998,0.0154950646683573,-0.0642677173018455,0.4826161563396454
1631023467045,1.2463538646697998,0.0154950646683573,-0.0642677173018455,0.4826161563396454
1631023467092,1.2463538646697998,0.0154950646683573,-0.0642677173018455,0.4826161563396454
1631023467170,1.2463538646697998,0.0154950646683573,-0.0642677173018455,0.4826161563396454
1631023467395,1.2463538646697998,0.0154950646683573,-0.0642677173018455,0.4826161563396454
1631023467485,1.2463538646697998,0.0154950646683573,-0.0642677173018455,0.4826161563396454
1631023467710,1.2463538646697998,0.204751968383789,-0.0642677173018455,0.4826161563396454
1631023467754,1.2463538646697998,0.2318668961524963,-0.0642677173018455,0.4826161563396454
1631023467808,1.2463538646697998,0.2339339554309845,-0.0642677173018455,0.4826161563396454
1631023467921,1.2463538646697998,0.2509170472621918,-0.0642677173018455,0.4826161563396454
1631023468011,0.9358838200569152,0.2698219418525696,0.2371748685836792,0.1922909170389175
1631023468188,0.9402198791503906,0.2698219418525696,0.2556245326995849,0.229825422167778
1631023468209,0.96959787607193,0.2698219418525696,0.2614801526069641,0.2455329596996307
1631023468251,0.9959227442741394,0.2698219418525696,0.2644529938697815,0.249825581908226
1631023468276,1.0362759828567505,0.2698219418525696,0.2783662974834442,0.2569381892681122
1631023468326,1.0690300464630127,0.2698219418525696,0.3331153988838196,0.2863586246967315
1631023468413,1.0744472742080688,0.2715979218482971,0.425885796546936,0.3781575262546539
1631023468554,1.0924551486968994,0.2721732258796692,0.4592257440090179,0.4187175035476684
1631023468578,1.0924551486968994,0.2464826554059982,0.4592257440090179,0.4187175035476684
1631023468805,1.0924551486968994,0.2439958155155182,0.4592257440090179,0.4187175035476684
1631023468868,1.0924570560455322,0.2439958155155182,0.4592257440090179,0.4250765740871429
1631023468899,1.1086620092391968,0.2439958155155182,0.4592257440090179,0.4595339298248291
1631023468996,1.1155225038528442,0.2379417270421981,0.4573724567890167,0.4958951473236084
1631023469324,1.1154308319091797,0.2108763456344604,0.4509333670139313,0.5091498494148254
1631023469355,1.1143419742584229,0.1702678650617599,0.4461110234260559,0.4979703426361084
1631023469371,1.102846384048462,0.1079376861453056,0.4340058267116546,0.4917064011096954
1631023469402,1.1021287441253662,0.0238462127745151,0.4251381456851959,0.4972691535949707
1631023469605,1.1086608171463013,-0.0058500375598669,0.4197166562080383,0.4970256984233856
1631023469652,1.1136332750320437,0.0102234976366162,0.4197166562080383,0.4970256984233856
1631023469846,1.1278142929077148,0.0054316679015755,0.4197166562080383,0.4970256984233856
1631023469924,1.1483261585235596,-0.0047179576940834,0.4179308712482452,0.4970256984233856
1631023470083,1.1386387348175049,-0.0026368903927505,0.3901246190071106,0.4970256984233856
1631023470192,1.0974071025848389,0.0103798303753137,0.3117394149303436,0.4856964647769928
1631023470224,1.0723332166671753,0.0277013033628463,0.2254983186721801,0.4726677536964416
1631023470333,1.074682116508484,0.0543771870434284,0.1550837159156799,0.4409666359424591
1631023470442,1.074682116508484,0.0813115984201431,0.1395601481199264,0.4164578020572662
1631023470489,1.0719897747039795,0.1070704460144043,0.1330683976411819,0.4164578020572662
1631023470552,1.0392440557479858,0.1651337593793869,0.1777862012386322,0.4072332978248596
1631023470770,1.002254843711853,0.225552961230278,0.4783098995685577,0.3897202610969543
1631023470864,0.9527714252471924,0.2673757076263428,0.683474063873291,0.3439361453056335
1631023470880,0.9479493498802184,0.2990788221359253,0.7638602256774902,0.2786212265491485
1631023470989,0.9479493498802184,0.301560491323471,0.7630028128623962,0.227192997932434
1631023471056,0.9457778930664062,0.3216164112091064,0.755791187286377,0.1840268671512603
1631023471118,0.9329956769943236,0.4073404371738434,0.755791187286377,0.15513576567173
1631023471259,0.9227830767631532,0.4055551588535309,0.755791187286377,0.1025521904230117
1631023471353,0.8929727673530579,0.4055551588535309,0.755791187286377,-0.0178047008812427
1631023471524,0.8929727673530579,0.4055551588535309,0.755791187286377,-0.0178047008812427
1631023471571,0.8929727673530579,0.4055551588535309,0.755791187286377,-0.0178047008812427
1631023471649,0.8929727673530579,0.4055551588535309,0.755791187286377,-0.0178047008812427
1631023471837,0.8929727673530579,0.4055551588535309,0.755791187286377,-0.0178047008812427
1631023471899,1.0539368391036987,0.4055551588535309,0.755791187286377,0.5790526270866394
1631023472043,1.0539368391036987,0.4055551588535309,0.755791187286377,0.5790526270866394
1631023472153,1.0539368391036987,0.4047618210315704,0.755791187286377,0.5790526270866394
1631023472231,1.0539368391036987,0.3994119763374328,0.755791187286377,0.5790526270866394
1631023472309,1.0539368391036987,0.3835030794143677,0.7499287724494934,0.5808776021003723
1631023472512,1.0539368391036987,0.3904704749584198,0.0659924000501632,0.5910248756408691
1631023472715,1.056336522102356,0.4042909741401672,0.0704463124275207,0.5947665572166443
1631023472762,1.0580592155456543,0.4021251499652862,0.0768467038869857,0.5947665572166443
1631023472809,1.0729485750198364,0.0331235937774181,0.0836947932839393,0.5947665572166443
1631023472918,1.073183298110962,0.0340311340987682,0.0836947932839393,0.5947665572166443
1631023472965,1.073183298110962,0.042652390897274,0.0836947932839393,0.5947665572166443
1631023473114,1.073183298110962,0.0631798580288887,0.0836947932839393,0.5988180041313171
1631023473257,1.0159226655960083,0.0683834925293922,0.0841140672564506,0.5623726844787598
1631023473542,0.9865922927856444,0.0711857602000236,0.1225833967328071,0.731654703617096
1631023473573,0.9570343494415284,0.0912735387682914,0.2218130230903625,0.8249122500419617
1631023473807,0.9291390776634216,0.1192624568939209,0.2697460055351257,0.8617520928382874
1631023473854,0.9202232360839844,0.3246224224567413,0.4144358932971954,0.9082514643669128
1631023473932,0.947543740272522,0.5567859411239624,0.6425483822822571,0.9714558720588684
1631023474010,0.9809200167655944,0.697201669216156,0.8012219667434692,1.0335845947265625
1631023474373,0.992488443851471,0.697201669216156,0.8481003046035767,1.0587068796157837
1631023474420,0.9916608929634094,0.697201669216156,0.8481003046035767,1.0660128593444824
1631023474638,0.9916608929634094,0.697201669216156,0.8481003046035767,1.0660128593444824
1631023474638,0.9916608929634094,0.697201669216156,0.8481003046035767,1.0660128593444824
1631023474732,0.9850764870643616,1.0865329504013062,1.0796561241149902,1.0660128593444824
1631023474748,0.9816457033157348,1.0865329504013062,1.0796561241149902,1.0660128593444824
1631023474748,0.9764732718467712,1.0865329504013062,1.0796561241149902,1.0660128593444824
1631023474795,0.9764732718467712,1.0865329504013062,1.0796561241149902,1.0660128593444824
1631023474904,0.9718831777572632,1.0865329504013062,1.0796561241149902,1.0660128593444824
1631023474951,0.9551348090171814,1.0865329504013062,1.0796561241149902,1.0654963254928589
1631023474966,0.940609097480774,1.363925814628601,1.359194040298462,1.0649199485778809
1631023475091,0.93891042470932,1.363925814628601,1.359194040298462,1.0649199485778809
1631023475174,0.93891042470932,1.363925814628601,1.359194040298462,1.0636634826660156
1631023475221,0.93891042470932,1.363925814628601,1.359194040298462,1.0506235361099243
1631023475533,0.93891042470932,1.363925814628601,1.463957905769348,1.0506235361099243
1631023475564,0.93891042470932,1.363925814628601,1.463957905769348,1.0506235361099243
1631023475611,0.93891042470932,1.363925814628601,1.463957905769348,1.0506235361099243
1631023475689,0.93891042470932,1.363925814628601,1.463957905769348,1.0506235361099243
1631023475736,0.93891042470932,1.3758364915847778,1.463957905769348,1.0506235361099243
1631023475767,0.93891042470932,1.3758364915847778,1.463957905769348,1.0506235361099243
1631023475861,0.93891042470932,1.3758364915847778,1.463957905769348,1.0506235361099243
1631023475970,0.93891042470932,1.3758364915847778,1.463957905769348,1.0506235361099243
1631023476017,0.93891042470932,1.3758364915847778,1.463957905769348,1.0506235361099243
1631023476111,0.93891042470932,1.3758364915847778,1.463957905769348,1.0506235361099243
1631023476301,1.2311431169509888,1.3758364915847778,1.463957905769348,0.3735798299312591
1631023476426,1.2484655380249023,1.1325905323028564,1.4062608480453491,0.4408124685287475
1631023476473,1.2612594366073608,1.1325905323028564,1.4062608480453491,0.4805824756622314
1631023476536,1.2675020694732666,1.1325905323028564,1.4062608480453491,0.4821557700634002
1631023476629,1.2728732824325562,1.1325905323028564,1.4062608480453491,0.4828951358795166
1631023476817,1.2730995416641235,1.1325905323028564,1.0719972848892212,0.4935264885425567
1631023476926,1.2730995416641235,1.1325905323028564,1.0719972848892212,0.5150910019874573
1631023476973,1.2730995416641235,1.1325905323028564,1.0719972848892212,0.5150910019874573
1631023477195,1.2730995416641235,1.126328468322754,1.0719972848892212,0.5150910019874573
1631023477226,1.2730995416641235,0.3567138910293579,0.134466141462326,0.5150910019874573
1631023477327,1.2730995416641235,0.2709715962409973,0.1209612712264061,0.5150910019874573
1631023477593,1.2730995416641235,0.2244172245264053,0.1477399170398712,0.5150910019874573
1631023477655,1.2218552827835083,0.2068233639001846,0.1513645499944687,0.5150910019874573
1631023477702,1.1544233560562134,0.2151428461074829,0.1513645499944687,0.5172250866889954
1631023477780,1.1745245456695557,0.2154987603425979,0.1453017741441726,0.5172250866889954
1631023477936,1.1829808950424194,0.2154987603425979,0.129204124212265,0.5172250866889954
1631023477983,1.1895722150802612,0.2154987603425979,0.1008443012833595,0.5116783380508423
1631023478014,1.1895722150802612,0.2154987603425979,0.0779613777995109,0.501911461353302
1631023478046,1.1895722150802612,0.2154987603425979,0.0814613550901413,0.4631084203720093
1631023478204,1.18586266040802,0.2154987603425979,0.0860566720366478,0.4525254070758819
1631023478252,1.18586266040802,0.2149940133094787,0.0874805822968483,0.4537459909915924
1631023478455,1.18586266040802,0.2090132683515548,0.0896985828876495,0.4334692060947418
1631023478518,1.18586266040802,0.1511691808700561,0.0905992090702056,0.4402317404747009
1631023478533,1.18586266040802,0.0554981790482997,0.1053586229681968,0.4779651165008545
1631023478783,1.18586266040802,-0.0066518150269985,0.1038739085197448,0.5759909749031067
1631023478846,1.18586266040802,0.1176805198192596,0.1063963770866394,0.664683997631073
1631023479067,1.1886972188949585,0.3452165126800537,0.1053448468446731,0.7300335168838501
1631023479114,1.2042304277420044,0.4749637544155121,0.0831642970442771,0.7412009835243225
1631023479114,1.2146450281143188,0.4918598234653473,0.1138307750225067,0.7363457679748535
1631023479364,1.2080097198486328,0.4918598234653473,0.1165142208337783,0.7314439415931702
1631023479395,1.1299484968185425,0.4918598234653473,0.1165142208337783,0.7337753772735596
1631023479426,1.0422754287719729,0.4918598234653473,0.1165142208337783,0.7432921528816223
1631023479567,1.016443133354187,0.4918598234653473,0.1165142208337783,0.7480790019035339
1631023479615,1.0551552772521973,0.4918598234653473,0.1165142208337783,0.7501128911972046
1631023479678,1.07625412940979,0.4924468994140625,0.1165142208337783,0.7502360939979553
1631023479725,1.07625412940979,0.4926966726779938,0.1109173521399498,0.7419779300689697
1631023479974,1.07625412940979,0.49600550532341,0.1042275428771972,0.7356703877449036
1631023480037,1.07625412940979,0.4965855777263641,0.0939822867512703,0.7356703877449036
1631023480131,1.07625412940979,0.4965855777263641,0.0902482345700264,0.7356703877449036
1631023480178,1.0801334381103516,0.4965855777263641,0.1130547150969505,0.7356703877449036
1631023480318,1.127042293548584,0.4965855777263641,0.1355564296245575,0.748837947845459
1631023480412,1.1811583042144775,0.4889394342899322,0.1547572314739227,0.7704557776451111
1631023480474,1.1796659231185913,0.4698388874530792,0.1903540343046188,0.7463494539260864
1631023480742,1.1769953966140747,0.4129146933555603,0.2277057766914367,0.6958450675010681
1631023480925,1.1769953966140747,0.3760258555412292,0.2386848479509353,0.6110213994979858
1631023480972,1.1769953966140747,0.3489064276218414,0.237870305776596,0.5351777672767639
1631023480987,1.1769953966140747,0.3437438607215881,0.237870305776596,0.5091391801834106
1631023481084,1.1769953966140747,0.3383061587810516,0.237870305776596,0.5230709314346313
1631023481309,1.1691714525222778,0.3383061587810516,0.237870305776596,0.5220112204551697
1631023481336,1.1526198387145996,0.3383061587810516,0.237870305776596,0.5154700875282288
1631023481369,1.1369692087173462,0.3295328617095947,0.237870305776596,0.5154700875282288
1631023481417,1.1470143795013428,0.3001524209976196,0.2426989525556564,0.5163829326629639
1631023481526,1.154676914215088,0.2486390024423599,0.2676922082901001,0.5169637799263
1631023481573,1.1557060480117798,0.2137167900800705,0.3221489489078522,0.5169637799263
1631023481804,1.1557060480117798,0.183412492275238,0.3857170045375824,0.5169637799263
1631023481830,1.154108643531799,0.1863842904567718,0.4008762836456299,0.5169637799263
1631023481928,1.117632508277893,0.214538112282753,0.4008762836456299,0.5126394629478455
1631023482121,1.0407618284225464,0.2229689508676529,0.3942479789257049,0.4976920187473297
1631023482148,1.0310554504394531,0.2096522748470306,0.3752985298633575,0.4913508594036102
1631023482263,1.0509352684020996,0.1804516166448593,0.3557536602020263,0.4743900597095489
1631023482493,1.052943229675293,0.1555710434913635,0.3527556359767914,0.453643649816513
1631023482541,1.0526167154312134,0.1614713072776794,0.3497214019298553,0.3864174783229828
1631023482573,1.0526167154312134,0.1633635610342025,0.347959816455841,0.309751033782959
1631023482599,1.0532026290893557,0.1744449734687805,0.3421550095081329,0.2548807263374328
1631023482754,1.077906608581543,0.1816310584545135,0.3143868744373321,0.2098074555397033
1631023482826,1.1188547611236572,0.1853983402252197,0.2849994003772735,0.2052065283060073
1631023482981,1.1076871156692505,0.1898723393678665,0.2765108346939087,0.1921738386154174
1631023483027,1.0975066423416138,0.1898723393678665,0.2765108346939087,0.1639941334724426
1631023483162,1.090263605117798,0.1898723393678665,0.2768058478832245,0.1597955077886581
1631023483222,1.090263605117798,0.1998558044433593,0.2859180569648742,0.1597955077886581
1631023483501,1.090263605117798,0.2315188348293304,0.2695650458335876,0.1597955077886581
1631023483548,1.090263605117798,0.2709269523620605,0.29786416888237,0.1597955077886581
1631023483580,1.090263605117798,0.3108945786952972,0.2770552635192871,0.1484592407941818
1631023483631,1.090263605117798,0.3595313727855682,0.2739418447017669,0.1484592407941818
1631023483740,1.0836297273635864,0.373331218957901,0.2727554440498352,0.1403938978910446
1631023483800,1.0560349225997925,0.373331218957901,0.2669127285480499,0.126782551407814
1631023484043,1.0317203998565674,0.373331218957901,0.265480101108551,0.0996820628643035
1631023484102,1.0317203998565674,0.373331218957901,0.2652294039726257,0.0996820628643035
1631023484160,1.0317203998565674,0.369623452425003,0.2640863358974457,0.0996820628643035
1631023484241,1.0317203998565674,0.369623452425003,0.2640863358974457,0.0996820628643035
1631023484346,1.0317203998565674,0.369623452425003,0.2640863358974457,0.0996820628643035
1631023484481,1.0317203998565674,0.369623452425003,0.2640863358974457,0.0996820628643035
1631023484658,1.0317203998565674,0.369623452425003,0.2658922374248504,0.0996820628643035
1631023484676,0.5516300201416016,0.369623452425003,0.2707789242267608,0.0996820628643035
1631023484722,0.6104497909545898,0.369623452425003,0.2717390656471252,0.4699814915657043
1631023484840,0.6383859515190125,0.369623452425003,0.2579573392868042,0.548019528388977
1631023484954,0.6447839736938477,0.369623452425003,-0.2012215405702591,0.5587416887283325
1631023485124,0.6459102034568787,0.3368278741836548,-0.1723940670490265,0.5587416887283325
1631023485150,0.6496237516403198,0.2554829120635986,-0.144758865237236,0.5605981349945068
1631023485312,0.6750915050506592,0.1370744258165359,-0.1339409053325653,0.5898657441139221
1631023485397,0.6882554292678833,0.0360171422362327,-0.0990177392959594,0.6388208270072937
1631023485461,0.7026946544647217,0.0001597950467839,-0.0213427059352397,0.6618618369102478
1631023485660,0.7117254734039307,-0.0124276578426361,0.0480226539075374,0.6618618369102478
1631023485694,0.7249981760978699,0.019871599972248,0.0691729336977005,0.6618618369102478
1631023485765,0.7421630620956421,0.0771939530968666,0.0691729336977005,0.6618618369102478
1631023485813,0.7887730598449707,0.2551815509796142,0.0732403695583343,0.6704958081245422
1631023485980,0.8219026327133179,0.5115931034088135,0.089586816728115,0.6718785762786865
1631023486027,0.8385055661201477,0.7280644774436951,0.1090303435921669,0.6731548309326172
1631023486152,0.8444040417671204,0.8555461168289185,0.1076007932424545,0.6679556965827942
1631023486308,0.8606888055801392,0.8876413702964783,0.0956470519304275,0.6615166068077087
1631023486402,0.9163740277290344,0.8876413702964783,0.1038566157221794,0.6570645570755005
1631023486449,0.960906147956848,0.8876413702964783,0.1208213567733764,0.6309512853622437
1631023486527,1.0150871276855469,0.8876413702964783,0.1208213567733764,0.6309512853622437
1631023486695,1.037362575531006,0.8876413702964783,0.119728535413742,0.6309512853622437
1631023486804,1.047375202178955,0.8876413702964783,0.119728535413742,0.6542743444442749
1631023486851,1.0552324056625366,0.8876413702964783,0.119728535413742,0.6933853626251221
1631023487051,1.0648547410964966,0.8876413702964783,0.119728535413742,0.6984854936599731
1631023487103,1.077085256576538,0.8876413702964783,0.119728535413742,0.6984854936599731
1631023487176,1.0826337337493896,0.8876413702964783,0.1144811734557151,0.6997085213661194
1631023487313,1.090720295906067,0.8876413702964783,0.1110587492585182,0.7094693183898926
1631023487438,1.1024727821350098,0.8876413702964783,0.1110587492585182,0.7090429067611694
1631023487548,1.1172319650650024,0.8876413702964783,0.1110587492585182,0.6868685483932495
1631023487595,1.1133488416671753,0.8832639455795288,0.1033096835017204,0.6705860495567322
1631023487688,1.0982346534729004,0.8459304571151733,0.0835067555308342,0.6638262271881104
1631023487814,1.0886579751968384,0.7041826844215393,0.1669190526008606,0.6515458822250366
1631023488021,1.0886579751968384,0.6157878041267395,0.2654223144054413,0.6177887916564941
1631023488068,1.0860793590545654,0.5780313611030579,0.2769273817539215,0.5873507261276245
1631023488130,1.0747716426849363,0.5748629570007324,0.2534437179565429,0.5873507261276245
1631023488177,1.0510412454605105,0.5748629570007324,0.2314169704914093,0.5873507261276245
1631023488333,1.0403566360473633,0.5748629570007324,0.2263542264699936,0.5873507261276245
1631023488505,1.038390874862671,0.5748629570007324,0.2367770075798034,0.5580998063087463
1631023488536,1.038390874862671,0.5748629570007324,0.2827579379081726,0.47462198138237
1631023488661,1.036426067352295,0.5748629570007324,0.3347071707248688,0.3890986740589142
1631023488692,1.0503056049346924,0.6128685474395752,0.3614808619022369,0.3890986740589142
1631023488817,1.0430420637130735,0.6138889789581299,0.3691797256469726,0.3890986740589142
1631023488926,1.0277156829833984,0.614255428314209,0.3722783625125885,0.3890986740589142
1631023489056,1.14822518825531,0.6156060099601746,0.3726479411125183,0.3890986740589142
1631023489119,1.295175313949585,0.6182292699813843,0.3726479411125183,0.5641511678695679
1631023489244,1.345354437828064,0.6208061575889587,0.3745524287223816,0.5641511678695679
1631023489306,1.3456056118011477,0.6249532699584961,0.3803968429565429,0.5641511678695679
1631023489494,1.3456056118011477,0.2003799229860305,0.3813138008117676,0.5672720074653625
1631023489728,1.348322510719299,0.2003799229860305,0.3214207291603088,0.5932523012161255
1631023489790,1.3534480333328247,0.2003799229860305,0.2270199060440063,0.621816873550415
1631023489822,1.367709755897522,0.2003799229860305,0.2209633439779281,0.659922182559967
1631023489853,1.390081763267517,0.2077729552984237,0.2211312353610992,0.7563005685806274
1631023489947,1.390081763267517,0.2077729552984237,0.2634119391441345,0.8590365648269653
1631023490025,1.390081763267517,0.2120136767625808,0.3669905662536621,0.930830419063568
1631023490197,1.3907450437545776,0.2276464253664016,0.3916046917438507,0.9689679145812988
1631023490259,1.3938065767288208,0.1987627148628235,0.3687485456466675,0.9764549136161804
1631023490384,1.3938065767288208,0.1681843400001526,0.3519574999809265,0.9684395790100098
1631023490478,1.3938065767288208,0.1618097722530365,0.3892806470394134,0.9655459523200988
1631023490681,1.3938065767288208,0.1618097722530365,0.5553800463676453,0.9620885848999025
1631023490712,1.3898606300354004,0.1572262048721313,0.8218080401420593,0.9962579011917114
1631023490806,1.37371027469635,0.1341521590948104,0.929693043231964,1.044941782951355
1631023490840,1.3260279893875122,0.1177154704928398,0.929693043231964,1.065729022026062
1631023490948,1.2947187423706057,0.0925022363662719,0.929693043231964,1.0673669576644895
1631023491120,1.2932299375534058,0.0641180425882339,0.929693043231964,1.0673669576644895
1631023491311,1.2907328605651855,0.0387286357581615,0.929693043231964,1.0673669576644895
1631023491342,1.284294366836548,0.0210222676396369,0.929693043231964,1.0673669576644895
1631023491373,1.272056221961975,0.0052967919036746,0.929693043231964,1.0673669576644895
1631023491483,1.2280611991882324,0.2303519546985626,0.929693043231964,1.0673669576644895
1631023491530,1.1934784650802612,0.5658089518547058,0.929693043231964,1.0631508827209473
1631023491780,1.1845877170562744,0.7968711256980896,0.946434736251831,1.029093623161316
1631023491826,1.1843905448913574,0.8688809275627136,0.9724459648132324,0.9693841934204102
1631023492076,1.1592060327529907,0.8688809275627136,0.9724459648132324,0.9302650690078736
1631023492108,1.1527258157730105,0.8688809275627136,0.9724459648132324,0.9125638008117676
1631023492221,1.1497149467468262,0.8688809275627136,0.9724459648132324,0.9027759432792664
1631023492331,1.1388224363327026,0.8688809275627136,0.9707695841789246,0.8884785175323486
1631023492378,1.132318377494812,0.8688809275627136,0.9564450979232788,0.8533395528793335
1631023492440,1.0940637588500977,0.8688809275627136,0.9564450979232788,0.8074208498001099
1631023492471,1.049559473991394,0.8688809275627136,0.9564450979232788,0.6744481921195984
1631023492549,1.0446988344192505,0.8688809275627136,0.9564450979232788,0.6744481921195984
1631023492612,1.0634015798568726,0.8688809275627136,0.9564450979232788,0.6744481921195984
1631023492784,1.1344376802444458,0.8688809275627136,0.9564450979232788,0.6744481921195984
1631023493004,1.1929701566696167,0.8688809275627136,0.9564450979232788,0.6744481921195984
1631023493109,1.2087329626083374,0.8688809275627136,0.9564450979232788,0.6744481921195984
1631023493187,1.2199267148971558,0.8688809275627136,0.9564450979232788,0.6723108887672424
1631023493234,1.219082951545715,0.8662876486778259,0.9564450979232788,0.6548764705657959
1631023493249,1.194308876991272,0.7745106816291809,0.3632985055446625,0.5879359841346741
1631023493346,1.0992519855499268,0.5102384686470032,0.3911362886428833,0.5010985136032104
1631023493599,1.101859450340271,0.1894528567790985,0.4433589279651642,0.4514408707618713
1631023493662,1.1459300518035889,0.1066686287522316,0.4095371067523956,0.4307383000850677
1631023493708,1.1849344968795776,0.116414226591587,0.4755218029022217,0.4153763651847839
1631023493755,1.1973243951797483,0.2184019237756729,0.5087609887123108,0.3837989270687103
1631023493990,1.1973243951797483,0.2778809070587158,0.5087609887123108,0.3712080717086792
1631023494052,1.1973243951797483,0.3109341263771057,0.5087609887123108,0.3687992990016937
1631023494240,1.1973243951797483,0.3162350654602051,0.5087609887123108,0.3741084039211273
1631023494255,1.1973243951797483,0.3184181153774261,0.5087609887123108,0.3833126127719879
1631023494302,1.1993478536605835,0.3235547542572021,0.5087609887123108,0.415927529335022
1631023494475,1.219031810760498,0.3303198218345642,0.5087609887123108,0.4679945707321167
1631023494522,1.233076095581055,0.334316998720169,0.524421751499176,0.5257222652435303
1631023494709,1.2507435083389282,0.334695041179657,0.524421751499176,0.5551372766494751
1631023494803,1.2603216171264648,0.334695041179657,0.524421751499176,0.5566737055778503
1631023494834,1.2567272186279297,0.334695041179657,0.524421751499176,0.5606086850166321
1631023494865,1.255041003227234,0.334695041179657,0.524421751499176,0.5612986087799072
1631023495022,1.254987716674805,0.334695041179657,0.524421751499176,0.5872673392295837
1631023495225,1.2594139575958252,0.3340973258018493,0.505439281463623,0.6225520968437195
1631023495266,1.254194259643555,0.3215292394161224,0.4706373512744903,0.6444793939590454
1631023495430,1.2413047552108765,0.3112022578716278,0.4182761609554291,0.6532217860221863
1631023495509,1.2260631322860718,0.314762532711029,0.3673442602157593,0.6494386792182922
1631023495696,1.2260631322860718,0.3311944007873535,0.3370329439640045,0.6410936117172241
1631023495758,1.2260631322860718,0.3433990776538849,0.3250678479671478,0.6364486813545227
1631023495790,1.2260631322860718,0.3530042469501495,0.3250678479671478,0.6378039121627808
1631023495805,1.2242225408554075,0.3561760783195495,0.3250678479671478,0.6481822729110718
1631023495915,1.2242225408554075,0.3560167253017425,0.3250678479671478,0.6801424026489258
1631023496073,1.2080520391464231,0.3219820559024811,0.3045291602611542,0.6931779980659485
1631023496120,1.1625454425811768,0.2422797232866287,0.1901230663061142,0.7292292714118958
1631023496292,1.0753952264785769,0.187765970826149,0.0122580360621213,0.7272832989692688
1631023496511,0.9643841981887816,0.172643095254898,-0.0621279887855052,0.7148525714874268
1631023496573,0.942766547203064,0.1677644103765487,-0.0617606379091739,0.7089380621910095
1631023496729,0.9370203614234924,0.1636318564414978,-0.0497669614851474,0.7052140831947327
1631023496792,0.9235719442367554,0.16218002140522,-0.0180300846695899,0.7023922801017761
1631023496839,0.907112956047058,0.1765393167734146,0.0814405903220176,0.7023922801017761
1631023496995,0.8790996670722961,0.2632289230823517,0.1979443430900573,0.6978608965873718
1631023497107,0.8725037574768066,0.450262188911438,0.2748961150646209,0.7042236924171448
1631023497325,0.8899432420730591,0.5805743932723999,0.3020807802677154,0.7112486958503723
1631023497388,0.8813632726669312,0.602840006351471,0.3025480806827545,0.7152360081672668
1631023497653,0.912821888923645,0.604820191860199,0.3029411435127258,0.7134323716163635
1631023497685,0.9163276553153992,0.6063286066055298,0.3029411435127258,0.7194380760192871
1631023497716,0.9171572923660278,0.6105002760887146,0.3029411435127258,0.7210742831230164
1631023497890,0.9130148887634276,0.6158282160758972,0.3029411435127258,0.7219188213348389
1631023498077,0.9123671054840088,0.6199853420257568,0.3029411435127258,0.7204672694206238
1631023498187,0.9144467115402222,0.6199853420257568,0.2966238260269165,0.6568750143051147
1631023498312,0.9213398098945618,0.6199853420257568,0.2963878214359283,0.5971739888191223
1631023498374,0.928900957107544,0.6199853420257568,0.2977116405963897,0.6224738955497742
1631023498483,0.933664619922638,0.6199853420257568,0.2981818914413452,0.6534146070480347
1631023498515,0.933664619922638,1.2660462856292725,1.392833232879639,0.631414532661438
1631023498546,0.933664619922638,1.2660462856292725,1.392833232879639,0.6255801916122437
1631023498718,0.933664619922638,1.2660462856292725,1.392833232879639,0.6255801916122437
1631023498780,0.933664619922638,1.2660462856292725,1.392833232879639,0.6255801916122437
1631023498921,0.92180198431015,1.2660462856292725,1.392833232879639,0.6209816336631775
1631023498983,0.8680694699287415,1.4024595022201538,1.392833232879639,0.6036214232444763
1631023499061,0.8283019661903381,1.4024595022201538,1.392833232879639,0.571198046207428
1631023499173,0.7709683775901794,1.4024595022201538,1.392833232879639,0.540666937828064
1631023499407,0.7258412837982178,1.4024595022201538,1.392833232879639,0.5224766135215759
1631023499485,0.6611678600311279,1.4024595022201538,1.392833232879639,0.510033130645752
1631023499501,0.6491435766220093,1.4024595022201538,1.392833232879639,0.4991161525249481
1631023499642,0.6491435766220093,1.4024595022201538,1.392833232879639,0.4991161525249481
1631023499673,0.6491435766220093,1.4862052202224731,1.392833232879639,0.4991161525249481
1631023499735,0.6491435766220093,1.4862052202224731,1.392833232879639,0.4991161525249481
1631023499892,0.6491435766220093,1.4862052202224731,1.3977437019348145,0.4991161525249481
1631023499923,0.6491435766220093,1.3966107368469238,0.9343494176864624,0.4991161525249481
1631023499970,0.6491435766220093,1.3966107368469238,0.9343494176864624,0.4991161525249481
1631023500110,0.6491435766220093,1.3966107368469238,0.9343494176864624,0.4991161525249481
1631023500238,0.6491435766220093,1.3966107368469238,0.9343494176864624,0.4991161525249481
1631023500316,0.6491435766220093,1.3966107368469238,0.9343494176864624,0.4991161525249481
1631023500488,0.6491435766220093,1.371018886566162,0.9326260089874268,0.4991161525249481
1631023500535,0.6491435766220093,1.371018886566162,0.9303951859474182,0.4991161525249481
1631023500551,0.6491435766220093,1.371018886566162,0.9303951859474182,0.4991161525249481
1631023500847,0.6491435766220093,1.371018886566162,0.9303951859474182,0.4991161525249481
1631023500941,0.6491435766220093,1.371018886566162,0.9303951859474182,0.4991161525249481
1631023501050,0.6491435766220093,1.371018886566162,0.9303951859474182,0.4991161525249481
1631023501082,0.6491435766220093,1.371018886566162,0.9303951859474182,0.4991161525249481
1631023501160,0.6491435766220093,0.8699383735656738,0.9303951859474182,0.4991161525249481
1631023501241,1.0313119888305664,0.8621355295181274,0.9102249145507812,0.4991161525249481
1631023501303,1.0317509174346924,0.0753756985068321,0.0489925108850002,0.4991161525249481
1631023501506,1.042891263961792,0.0956147238612175,0.0532354675233364,0.4991161525249481
1631023501538,1.0523030757904053,0.1062843352556228,0.0546754747629165,0.4991161525249481
1631023501600,1.052726984024048,0.1072843670845031,0.0546754747629165,0.4991161525249481
1631023501663,1.052726984024048,0.1082308441400528,0.0546754747629165,0.4991161525249481
1631023501803,1.052726984024048,0.1120037138462066,0.0546754747629165,0.4991161525249481
1631023501897,1.052726984024048,0.1121552586555481,0.0546754747629165,0.4991161525249481
1631023502084,1.052726984024048,0.0025286902673542,0.0546754747629165,0.4991161525249481
1631023502116,1.052726984024048,-0.0705096870660781,0.0312819071114063,0.4991161525249481
1631023502178,1.052726984024048,-0.0262120030820369,0.0128246638923883,0.4991161525249481
1631023502259,1.0585893392562866,0.0823570489883422,0.0066379425115883,0.4991161525249481
1631023502368,0.9986057877540588,0.1933485120534896,0.0033207130618393,0.4991161525249481
1631023502399,0.9522351026535034,0.2515929937362671,0.0005371596780605,0.4991161525249481
1631023502493,0.970800757408142,0.2681061327457428,0.0005371596780605,0.4991161525249481
1631023502696,0.9769317507743835,0.278975635766983,0.0033135111443698,0.4991161525249481
1631023502758,0.9964386820793152,0.2906812131404876,0.0376765243709087,0.5859315395355225
1631023502790,1.0110574960708618,0.3059429228305816,0.1217377260327339,0.5859315395355225
1631023502962,1.010902762413025,0.3259757459163666,0.2131221294403076,0.5859315395355225
1631023502977,1.0052804946899414,0.3533514142036438,0.2333943992853164,0.5884624123573303
1631023503055,1.0026204586029053,0.3642376959323883,0.2516018748283386,0.59623783826828
1631023503196,1.0398398637771606,0.3642376959323883,0.2658802270889282,0.59623783826828
1631023503211,1.106367826461792,0.3642376959323883,0.27214115858078,0.59623783826828
1631023503368,1.1491390466690063,0.3647743165493011,0.2729269862174988,0.59623783826828
1631023503540,1.156198501586914,0.3647743165493011,0.2756451368331909,0.59623783826828
1631023503571,1.156198501586914,0.3698480129241943,0.2930807173252105,0.59623783826828
1631023503665,1.156198501586914,0.3758904039859772,0.3038192391395569,0.59623783826828
1631023503712,1.1753634214401243,0.4026575982570648,0.3591200113296509,0.5973576903343201
1631023503852,1.1949570178985596,0.5100396871566772,0.4066634178161621,0.5663890838623047
1631023504102,1.1920828819274902,0.5970908999443054,0.4466757476329803,0.5738526582717896
1631023504149,1.1799626350402832,0.6006127595901489,0.4759488105773926,0.555442750453949
1631023504196,1.1850003004074097,0.5999900698661804,0.4760549664497375,0.5268740653991699
1631023504367,1.1850003004074097,0.5965854525566101,0.4760549664497375,0.4969489872455597
1631023504446,1.1850003004074097,0.5908522009849548,0.4760549664497375,0.4993272125720978
1631023504681,1.184879183769226,0.5908522009849548,0.4732796549797058,0.5544129014015198
1631023504743,1.184807062149048,0.5908522009849548,0.4732796549797058,0.5652986764907837
1631023504868,1.1882928609848022,0.5908522009849548,0.4729111194610595,0.5734333992004395
1631023504946,1.1964471340179443,0.5908522009849548,0.4728343486785888,0.5773792266845703
1631023504961,1.1917213201522827,0.5908522009849548,0.4721610844135284,0.594125509262085
1631023505151,1.164778232574463,0.5908522009849548,0.4872443079948425,0.6089523434638977
1631023505432,1.120671272277832,0.5908522009849548,0.5691913962364197,0.6089523434638977
1631023505448,1.116102695465088,0.5908522009849548,0.6251687407493591,0.6089523434638977
1631023505651,1.116102695465088,0.5908522009849548,0.6413819193840027,0.6089523434638977
1631023505745,1.110474705696106,0.5908522009849548,0.6387773752212524,0.6178172826766968
1631023505792,1.0973278284072876,0.57392817735672,0.6107058525085449,0.6212680339813232
1631023505901,1.0619144439697266,0.4362847208976745,0.573516845703125,0.6186885833740234
1631023505979,1.0271590948104858,0.538942813873291,0.5594124794006348,0.6182316541671753
1631023505995,1.0163962841033936,0.5410171151161194,0.5594124794006348,0.606667697429657
1631023506042,1.0162347555160522,0.5432047247886658,0.5594124794006348,0.606667697429657
1631023506104,1.0163557529449463,0.5432047247886658,0.5594124794006348,0.606667697429657
1631023506229,1.0302276611328125,0.5432047247886658,0.5594124794006348,0.6016324162483215
1631023506245,1.0354740619659424,0.5432047247886658,0.5594124794006348,0.5747841000556946
1631023506463,1.018274188041687,0.5432047247886658,0.5594124794006348,0.543146014213562
1631023506510,0.9833584427833556,0.5432047247886658,0.5594124794006348,0.5390290021896362
1631023506541,0.9783416390419006,0.5432047247886658,0.5594124794006348,0.5224629044532776
1631023506573,0.9783416390419006,0.5432047247886658,0.5529609322547913,0.4830600321292877
1631023506776,0.9783416390419006,1.0461057424545288,0.5280664563179016,0.4596093893051147
1631023506791,0.9724014401435852,1.0461057424545288,0.4788476824760437,0.420174092054367
1631023506979,0.9724014401435852,1.0461057424545288,0.3938439190387726,0.420174092054367
1631023507026,0.9724014401435852,1.0461057424545288,0.3507633805274963,0.420174092054367
1631023507073,0.9724014401435852,1.0461057424545288,0.3309560120105743,0.420174092054367
1631023507151,0.9817325472831726,1.0395421981811523,0.3205626606941223,0.420174092054367
1631023507387,0.9966882467269896,1.0395421981811523,0.2965742647647857,0.3718915581703186
1631023507528,1.0514469146728516,1.0395421981811523,0.3440243601799011,0.4353786706924438
1631023507622,1.1883436441421509,1.0395421981811523,0.549794614315033,0.5292114019393921
1631023507653,1.248536229133606,1.0427067279815674,0.6832910180091858,0.6021833419799805
1631023507700,1.260558009147644,1.0427067279815674,0.7280720472335815,0.6201243996620178
1631023507965,1.260558009147644,1.0427067279815674,0.7282516360282898,0.6201243996620178
1631023508059,1.260558009147644,1.0427067279815674,0.7282516360282898,0.6201243996620178
1631023508153,1.260558009147644,1.0427067279815674,0.7282516360282898,0.6201243996620178
1631023508218,1.260558009147644,1.0427067279815674,0.7282516360282898,0.6201243996620178
1631023508265,1.260558009147644,0.7631794214248657,0.7282516360282898,0.6201243996620178
1631023508421,1.260558009147644,0.7631794214248657,0.7277536392211914,0.6201243996620178
1631023508515,1.262417197227478,0.7631794214248657,0.7258538603782654,0.6223292946815491
1631023508546,1.2614940404891968,0.7631794214248657,0.7258538603782654,0.6223292946815491
1631023508702,1.2614940404891968,0.7631794214248657,0.7247134447097778,0.6255893707275391
1631023508749,1.2614940404891968,0.7631794214248657,0.719459593296051,0.622698187828064
1631023508780,1.2614940404891968,0.7631794214248657,0.7168756723403931,0.592240035533905
1631023508986,1.2614940404891968,0.7631794214248657,0.7156573534011841,0.5696744918823242
1631023509033,1.2526066303253174,0.7626304030418396,0.706986129283905,0.5510339736938477
1631023509282,1.185311794281006,0.7232848405838013,0.6844348311424255,0.5221024751663208
1631023509282,1.1549464464187622,0.5324238538742065,0.6149048209190369,0.4752480089664459
1631023509423,1.1318159103393557,0.2077780365943908,0.4508082568645477,0.4701938927173614
1631023509486,1.0987282991409302,-0.0585006028413772,0.2928158640861511,0.4621975421905517
1631023509622,1.0987282991409302,-0.0407962426543235,0.1899088472127914,0.4621975421905517
1631023509676,1.0987282991409302,0.0063271010294556,0.1807585507631302,0.4621975421905517
1631023509739,1.0987282991409302,0.0724165067076683,0.2054508775472641,0.4456183016300201
1631023509826,1.088932752609253,0.106434665620327,0.2192631810903549,0.4283784925937652
1631023509903,1.088932752609253,0.1138246580958366,0.2234183251857757,0.4283784925937652
1631023510110,1.088932752609253,0.1160658374428749,0.2234183251857757,0.4283784925937652
1631023510173,1.088932752609253,0.1241730451583862,0.2254071086645126,0.4283784925937652
1631023510225,1.088932752609253,0.1290740370750427,0.2365766763687133,0.4283784925937652
1631023510411,1.088932752609253,0.1290740370750427,0.239950954914093,0.4283784925937652
1631023510505,0.9868600964546204,0.128029465675354,0.2435526847839355,0.7414891719818115
1631023510628,0.9875537753105164,0.1274528503417968,0.2568468749523163,0.7414891719818115
1631023510678,0.9875537753105164,0.1274528503417968,0.2726579308509826,0.7414891719818115
1631023510772,0.993019163608551,0.1292061954736709,0.2907702028751373,0.7414891719818115
1631023510991,1.0286157131195068,0.1388386189937591,0.2647488117218017,0.7433044910430908
1631023511025,1.1078104972839355,0.1482599228620529,0.2423101514577865,0.7465856671333313
1631023511087,1.1627496480941772,0.1618297547101974,0.2199486643075943,0.7570976614952087
1631023511181,1.1800042390823364,0.2461962252855301,0.2199486643075943,0.7575430274009705
1631023511257,1.1842695474624634,0.3142316341400146,0.2199486643075943,0.7575430274009705
1631023511454,1.1842695474624634,0.3312337100505829,0.2205280363559723,0.7575430274009705
1631023511486,1.1842695474624634,0.3237824738025665,0.2036982029676437,0.7575430274009705
1631023511533,1.1842695474624634,0.3145428597927093,0.2350859493017196,0.7575430274009705
1631023511689,1.2002270221710205,0.3048890233039856,0.2708474397659302,0.7597309350967407
1631023511829,1.223501682281494,0.3014139533042907,0.2771267294883728,0.7692381739616394
1631023512001,1.228744626045227,0.3014139533042907,0.2894515097141266,0.7105827927589417
1631023512036,1.228744626045227,0.3014139533042907,0.2933873236179352,0.6287130117416382
1631023512098,1.228744626045227,0.3014139533042907,0.2933873236179352,0.6018795967102051
1631023512145,1.228744626045227,0.3014139533042907,0.2931808531284332,0.6052052974700928
1631023512255,1.228744626045227,0.3014139533042907,0.2887392044067383,0.6101434826850891
1631023512395,1.228744626045227,0.3291046023368835,0.2831803262233734,0.6101434826850891
1631023512551,1.236427903175354,0.351000040769577,0.2831803262233734,0.6101434826850891
1631023512692,1.257030010223389,0.3680804371833801,0.2863933145999908,0.6101434826850891
1631023512708,1.3098318576812744,0.3711497783660888,0.2877831161022186,0.6069797873497009
1631023512739,1.3337804079055786,0.3626537621021271,0.2961721122264862,0.6055209040641785
1631023512911,1.3357064723968506,0.3311118185520172,0.3075916469097137,0.6055209040641785
1631023513132,1.3357064723968506,0.3055314123630523,0.3172396421432495,0.6052180528640747
1631023513163,1.3357064723968506,0.2928342223167419,0.3037799298763275,0.5897716283798218
1631023513210,1.3348591327667236,0.292219877243042,0.2596985399723053,0.5669004917144775
1631023513335,1.3241568803787231,0.2918291091918945,0.2038623988628387,0.5464895367622375
1631023513413,1.2987661361694336,0.2915719151496887,0.1325112730264663,0.5219701528549194
1631023513445,1.2849324941635132,0.2915719151496887,0.0700874254107475,0.5219701528549194
1631023513632,1.2811189889907837,0.2915719151496887,0.0420366339385509,0.5219701528549194
1631023513742,1.2811189889907837,0.2915719151496887,0.0395341888070106,0.5219701528549194
1631023513866,1.2795648574829102,0.2915719151496887,0.0747242420911789,0.5219701528549194
1631023513997,1.2795648574829102,0.2930716872215271,0.1300761997699737,0.5820010304450989
1631023514044,1.2701022624969482,0.2550557851791382,0.1678456813097,0.6102912425994873
1631023514059,1.2659220695495603,0.1759354770183563,0.2029848247766494,0.6265442967414856
1631023514266,1.2578904628753662,0.0741635337471962,0.2227202802896499,0.6328094005584717
1631023514360,1.1938762664794922,-0.0266135148704051,0.2501344978809356,0.6362349390983582
1631023514407,1.0906389951705933,-0.0003706047718878,0.265618234872818,0.6362349390983582
1631023514453,1.0365478992462158,-0.0080737639218568,0.2581711411476135,0.6362349390983582
1631023514578,1.0150468349456787,0.0054779048077762,0.2397272288799286,0.6362349390983582
1631023514703,1.0145535469055176,0.0653975456953048,0.2220774292945861,0.6362349390983582
1631023514813,0.965869128704071,0.1401842534542083,0.2215621769428253,0.6362349390983582
1631023514891,0.8859766125679016,0.2055864036083221,0.2260044664144516,0.6362349390983582
1631023515000,0.8370826244354248,0.2607613503932953,0.2394929975271225,0.6362349390983582
1631023515219,0.8370826244354248,0.2760210335254669,0.2814977765083313,0.6082043051719666
1631023515329,0.8343062400817871,0.2760210335254669,0.3181570172309875,0.5647141933441162
1631023515501,0.7949764132499695,0.2839570939540863,0.3408938348293304,0.5234711766242981
1631023515595,0.7650191187858582,0.2999411523342132,0.3438700735569,0.4812775254249573
1631023515688,0.7296796441078186,0.3136173486709595,0.3568499684333801,0.4132431745529175
1631023515688,0.7296796441078186,0.3022314608097076,0.3466180562973022,0.4132431745529175
1631023515719,0.7296796441078186,0.3128194510936737,0.3672021329402923,0.4132431745529175
1631023515923,0.7296796441078186,0.3081158101558685,0.3672021329402923,0.4132431745529175
1631023515938,0.7296796441078186,0.3064900934696197,0.3672021329402923,0.4132431745529175
1631023516048,1.1666407585144043,0.3039220571517944,0.3487676084041595,0.4132431745529175
1631023516172,1.210944890975952,0.3035383224487304,0.3494319319725036,0.688105046749115
1631023516219,1.2422322034835815,0.3035383224487304,0.4286400377750397,0.6961883902549744
1631023516409,1.270241141319275,0.3035383224487304,0.4947628676891327,0.7653802633285522
1631023516519,1.2776224613189695,0.3002068400382995,0.5043061971664429,0.7868715524673462
1631023516550,1.2776224613189695,0.2782372236251831,0.5032196044921875,0.7904210090637207
1631023516831,1.2776224613189695,0.1369230449199676,0.49034583568573,0.804802417755127
1631023516831,1.2776224613189695,0.2066863924264907,0.4989848732948303,0.7961337566375732
1631023516925,1.2776224613189695,0.116228237748146,0.4797638952732086,0.8112964630126953
1631023517034,1.2776224613189695,0.1064213588833808,0.4758505821228027,0.8112964630126953
1631023517081,1.2776224613189695,0.1227859184145927,0.4741879105567932,0.8112964630126953
1631023517112,1.2776224613189695,0.2126200944185257,0.4720519483089447,0.8174756765365601
1631023517284,1.2114871740341189,0.2499307543039322,0.4648701846599579,0.8255024552345276
1631023517362,1.1483980417251587,0.2384373247623443,0.4430445432662964,0.812475860118866
1631023517503,1.1444451808929443,0.2177683264017105,0.4419580698013305,0.8065027594566345
1631023517597,1.1451321840286257,0.2246137410402298,0.4672504961490631,0.8065027594566345
1631023517659,1.1451321840286257,0.2767756581306457,0.5044670701026917,0.8065027594566345
1631023517847,1.14422869682312,0.295510321855545,0.5309364199638367,0.8065027594566345
1631023517925,1.121265172958374,0.2969889044761657,0.5337212085723877,0.8065027594566345
1631023517925,1.0702228546142578,0.2993891835212707,0.4691247642040252,0.7741795778274536
1631023518048,1.0605239868164062,0.3033750355243683,0.3628888726234436,0.6647924780845642
1631023518189,1.076572060585022,0.3042363226413727,0.353370726108551,0.6066727638244629
1631023518236,1.0790362358093262,0.3042363226413727,0.3554924130439758,0.5930145978927612
1631023518408,1.079755187034607,0.3043031692504883,0.3604411780834198,0.5965712666511536
1631023518455,1.0957226753234863,0.3281272649765014,0.3677970468997955,0.6026855707168579
1631023518627,1.1106245517730713,0.3473297357559204,0.3815649747848511,0.6138518452644348
1631023518783,1.113766312599182,0.3484503626823425,0.40695720911026,0.6274490356445312
1631023518814,1.113766312599182,0.3383879661560058,0.4119250774383545,0.6274490356445312
1631023518876,1.113766312599182,0.3356026411056518,0.4034820199012756,0.6217455863952637
1631023518970,1.113766312599182,0.3300004601478576,0.4034820199012756,0.6141377091407776
1631023519064,1.113766312599182,0.3315340876579284,0.4034820199012756,0.6141377091407776
1631023519267,1.11047625541687,0.3286689817905426,0.4034820199012756,0.6141377091407776
1631023519298,1.100841045379639,0.2975137531757355,0.4089992940425873,0.6168816089630127
1631023519407,1.0847787857055664,0.2988103926181793,0.3981652557849884,0.6177685856819153
1631023519564,1.0744701623916626,0.2983073592185974,0.3756225109100342,0.6056526899337769
1631023519595,1.058915376663208,0.275264710187912,0.341079831123352,0.5690256357192993
1631023519829,1.0604939460754397,0.2280202507972717,0.3176895678043365,0.5729783177375793
1631023519860,1.0834243297576904,0.191645398736,0.2878365218639374,0.5808843374252319
1631023520095,1.09237802028656,0.1904433071613311,0.2651858925819397,0.5836692452430725
1631023520173,1.059996247291565,0.1770955920219421,0.246170312166214,0.5975432991981506
1631023520173,1.0914301872253418,0.1828734278678894,0.2508769929409027,0.5891925692558289
1631023520345,1.0548423528671265,0.1538739502429962,0.2287658751010894,0.6525946855545044
1631023520407,1.094534993171692,0.1316763907670974,0.2208755165338516,0.7022926211357117
1631023520438,1.1266330480575562,0.1658273488283157,0.2058465331792831,0.7225508689880371
1631023520688,1.135452151298523,0.1728976517915725,0.1899732798337936,0.7292420268058777
1631023520719,1.1474329233169556,0.1579748541116714,0.1838710308074951,0.7292420268058777
1631023520829,1.157317280769348,0.1525547802448272,0.1788749396800995,0.7292420268058777
1631023520938,1.157317280769348,0.1500301659107208,0.1696968227624893,0.7292420268058777
1631023521001,1.157317280769348,0.1222611367702484,0.1475115865468979,0.7282853126525879
1631023521094,1.157317280769348,0.1229413896799087,0.1464114487171173,0.7282853126525879
1631023521094,1.157317280769348,0.1208956465125083,0.1382262408733368,0.7282853126525879
1631023521238,1.1630173921585083,0.1285753846168518,0.1688884943723678,0.7282853126525879
1631023521285,1.1587752103805542,0.1464670449495315,0.1878083050251007,0.7217350006103516
1631023521394,1.1397209167480469,0.1546734273433685,0.1918183863162994,0.708536684513092
1631023521504,1.1369820833206177,0.1792658567428589,0.1858009397983551,0.7075021862983704
1631023521722,1.1446067094802856,0.3218551576137543,0.1584760099649429,0.6999499797821045
1631023521832,1.1446067094802856,0.4480854570865631,0.1268791109323501,0.6897768974304199
1631023522035,1.1446067094802856,0.4721267223358154,0.1208547800779342,0.6769919991493225
1631023522066,1.1328516006469729,0.4721267223358154,0.1168470829725265,0.6467939615249634
1631023522066,1.1013097763061523,0.4721267223358154,0.0973340347409248,0.5910462141036987
1631023522288,1.1063324213027954,0.4721267223358154,0.051392950117588,0.5558253526687622
1631023522303,1.0999352931976318,0.4721267223358154,-0.0223639830946922,0.5304086804389954
1631023522382,1.1291284561157229,0.4721267223358154,-0.0501383580267429,0.5201372504234314
1631023522382,1.1426584720611572,0.4721267223358154,-0.0598889663815498,0.4958578944206238
1631023522506,1.1486541032791138,0.4721267223358154,-0.037406712770462,0.4958578944206238
1631023522585,1.1467305421829224,0.4721267223358154,0.0009711037855595,0.4958578944206238
1631023522913,1.1323288679122925,0.4623396098613739,0.0257219746708869,0.5190443396568298
1631023522913,1.1416237354278564,0.4687422215938568,0.0202835369855165,0.4965967237949371
1631023522960,1.1301437616348269,0.4488329887390136,0.021993575617671,0.5103587508201599
1631023523100,1.1285090446472168,0.4364427924156189,0.0337636247277259,0.4864440560340881
1631023523131,1.1240235567092896,0.4350160360336303,0.0431385152041912,0.4672216176986694
1631023523273,1.1066073179244995,0.4178811013698578,0.0515284873545169,0.4338606894016266
1631023523523,1.1050530672073364,0.3270182907581329,0.0612043850123882,0.4306130111217499
1631023523523,1.1135988235473633,0.2521329224109649,0.0599964149296283,0.4306130111217499
1631023523555,1.114884853363037,0.2091603279113769,0.0576713010668754,0.4309350550174713
1631023523648,1.1026198863983154,0.1791340410709381,0.0576713010668754,0.4309350550174713
1631023523742,1.0549700260162354,0.1698604077100753,0.0576713010668754,0.4319041669368744
1631023523883,1.0325310230255127,0.1464742124080658,0.0615726709365844,0.4957798421382904
1631023524055,1.0148543119430542,0.1158990934491157,0.0887630134820938,0.5332211256027222
1631023524179,1.0072362422943115,0.0823654979467392,0.1077585592865943,0.5406619906425476
1631023524226,1.0043864250183103,0.0637238845229148,0.1041332632303237,0.5415554642677307
1631023524242,1.004900574684143,0.0635206028819084,0.0694645121693611,0.5415554642677307
1631023524401,1.0375710725784302,0.0613776035606861,0.0502575188875198,0.5415554642677307
1631023524417,1.0900472402572632,0.0606750659644603,0.0482181496918201,0.518990159034729
1631023524589,1.1078190803527832,0.062488030642271,0.0369264334440231,0.4876787960529327
1631023524682,1.1078190803527832,0.0723795741796493,0.0369894951581954,0.4747727513313293
1631023524807,1.1078190803527832,0.0744339898228645,0.0052837282419204,0.5150119066238403
1631023524854,1.1078190803527832,0.0703968852758407,-0.008228643797338,0.5842688083648682
1631023525058,1.1078190803527832,0.0716952010989189,-0.0122325420379638,0.6063979864120483
1631023525107,1.1078190803527832,0.0814623162150383,-0.0034095449373126,0.6501496434211731
1631023525138,1.1032298803329468,0.0949100628495216,0.0102735245600342,0.6723678112030029
1631023525341,1.1025398969650269,0.1232734099030494,0.0793614089488983,0.6723678112030029
1631023525450,1.1025398969650269,0.1467865854501724,0.1317621916532516,0.6723678112030029
1631023525481,1.1000922918319702,0.1923024952411651,0.1768245548009872,0.6707512736320496
1631023525528,1.0817348957061768,0.2303952276706695,0.2537782490253448,0.6707512736320496
1631023525622,1.052947759628296,0.2554315626621246,0.3428493440151214,0.6689832806587219
1631023525825,1.0228224992752075,0.2662837505340576,0.3577666282653808,0.6613782644271851
1631023525934,1.0061291456222534,0.2699869275093078,0.3577666282653808,0.6581284403800964
1631023525981,0.9947820901870728,0.270675778388977,0.3577666282653808,0.6552298069000244
1631023526013,0.9172896146774292,0.2829247117042541,0.3577666282653808,0.651763379573822
1631023526200,0.704087495803833,0.3074317276477813,0.3577666282653808,0.6485862135887146
1631023526341,0.4805319309234619,0.3497340381145477,0.3577666282653808,0.6485862135887146
1631023526372,0.4805319309234619,0.4352588653564453,0.3577666282653808,0.6485862135887146
1631023526481,0.4805319309234619,0.548130989074707,0.3577666282653808,0.6485862135887146
1631023526575,0.4805319309234619,0.548130989074707,0.3577666282653808,0.6485862135887146
1631023526684,0.4805319309234619,0.548130989074707,0.3577666282653808,0.6485862135887146
1631023526794,1.1400871276855469,0.548130989074707,0.3577666282653808,0.2114639431238174
1631023526950,1.1615097522735596,0.548130989074707,0.3577666282653808,0.2282858192920684
1631023527028,1.182546854019165,0.548130989074707,0.355176717042923,0.2749366164207458
1631023527122,1.1945198774337769,0.548130989074707,0.3647439181804657,0.314771443605423
1631023527249,1.211932897567749,0.5500960350036621,0.3794160485267639,0.3884814977645874
1631023527343,1.2303286790847778,0.5513952970504761,0.3529224991798401,0.4667734205722809
1631023527374,1.2429451942443848,0.5513952970504761,0.358034074306488,0.5190097093582153
1631023527468,1.2501237392425537,0.5513952970504761,0.4067810773849487,0.5655393004417419
1631023527593,1.2535851001739502,0.5513952970504761,0.4891432523727417,0.6123334169387817
1631023527796,1.2591567039489746,0.5513952970504761,0.5342431664466858,0.6557201743125916
1631023527843,1.2591567039489746,0.5488784909248352,0.5579671263694763,0.6707252264022827
1631023527952,1.2591567039489746,0.5574216246604919,0.5579671263694763,0.6707252264022827
1631023528030,1.242442607879639,0.2719495296478271,0.5579671263694763,0.6707252264022827
1631023528155,1.200183987617493,0.5276327729225159,0.5579671263694763,0.6707252264022827
1631023528189,1.2086644172668457,0.5276327729225159,0.5579671263694763,0.6707252264022827
1631023528377,1.2652496099472046,0.5276327729225159,0.5579671263694763,1.1779961585998535
1631023528486,1.3180055618286133,0.5276327729225159,0.5579671263694763,1.1779961585998535
1631023528502,1.3362414836883545,0.5276327729225159,0.5579671263694763,1.1779961585998535
1631023528720,1.3362414836883545,0.5276327729225159,0.5579671263694763,1.1779961585998535
1631023528736,1.3362414836883545,0.5276327729225159,0.5579310655593872,1.1779961585998535
1631023528892,1.3362414836883545,0.5220099687576294,0.5362727642059326,1.1779961585998535
1631023528989,1.335652232170105,0.5202655792236328,0.4956255853176117,1.1779961585998535
1631023529036,1.333598017692566,0.5202655792236328,0.4956255853176117,1.1779961585998535
1631023529099,1.333598017692566,0.5560244917869568,0.4956255853176117,1.1779961585998535
1631023529224,1.3307361602783203,0.5560244917869568,0.4956255853176117,1.1779961585998535
1631023529302,1.3307361602783203,0.5560244917869568,0.4956255853176117,1.1779961585998535
1631023529567,1.3307361602783203,0.5560244917869568,0.4956255853176117,1.1779961585998535
1631023529598,1.3307361602783203,0.5560244917869568,0.4956255853176117,1.1779961585998535
1631023529645,1.3307361602783203,0.5560244917869568,0.4956255853176117,1.1779961585998535
1631023529770,1.3308756351470947,0.5560244917869568,0.4956255853176117,1.1779961585998535
1631023529833,1.30764901638031,0.1425835639238357,0.4956255853176117,1.1779961585998535
1631023529942,1.2441978454589844,0.1635812520980835,0.4956255853176117,1.1779961585998535
1631023530192,1.1483319997787476,0.2149815112352371,-0.2052108347415924,1.1779961585998535
1631023530223,1.017366647720337,0.2509551048278808,-0.1372080892324447,0.0618142932653427
1631023530255,0.9362991452217102,0.2550536692142486,-0.0652782917022705,0.1046154052019119
1631023530380,0.916282057762146,0.2550536692142486,0.0181966200470924,0.1530461460351944
1631023530426,0.9186091423034668,0.2550536692142486,0.1115143895149231,0.1862394213676452
1631023530551,0.9426817297935486,0.2583653330802917,0.1823419779539108,0.2082346379756927
1631023530708,0.946856677532196,0.1762585639953613,0.2184231132268905,0.2867437303066253
1631023530786,0.9392995238304138,0.1853063553571701,0.2210825234651565,0.3748629689216614
1631023530848,0.9265798330307008,0.1853063553571701,0.2210825234651565,0.4264093041419983
1631023530942,0.9020139575004578,0.1856055259704589,0.2210825234651565,0.4959226846694946
1631023531020,0.896420955657959,0.1894146502017974,0.2210825234651565,0.5403649806976318
1631023531211,0.8953049182891846,0.1729320138692855,0.2214685231447219,0.5478112101554871
1631023531273,0.8953049182891846,0.1543053239583969,0.2280909121036529,0.5478112101554871
1631023531445,0.8953049182891846,0.1447927206754684,0.253530889749527,0.5478112101554871
1631023531461,0.8953049182891846,0.1659833192825317,0.2499177604913711,0.5478112101554871
1631023531633,0.897048830986023,0.1766577959060669,0.2352814227342605,0.5478112101554871
1631023531773,0.904533863067627,0.176161527633667,0.2183263152837753,0.580318808555603
1631023531851,0.9113253355026244,0.1558610498905182,0.2107812613248825,0.6495290994644165
1631023531898,0.8933265805244446,0.107503555715084,0.2011458277702331,0.6770728826522827
1631023532039,0.8825936317443848,0.102811224758625,0.1947878897190094,0.68381667137146
1631023532242,0.8647108674049377,0.1676133871078491,0.1916664838790893,0.6838379502296448
1631023532320,0.8429659008979797,0.2273111194372177,0.1531883478164672,0.6838379502296448
1631023532320,0.7908492088317871,0.2779370248317718,0.0941699296236038,0.6838379502296448
1631023532367,0.7862535119056702,0.2915198802947998,0.0417582206428051,0.6838379502296448
1631023532523,0.7948909997940063,0.300381600856781,0.0264117773622274,0.6849570274353027
1631023532570,0.7861179709434509,0.300381600856781,0.0135220317170023,0.7033957242965698
1631023532695,0.7875688076019287,0.300381600856781,0.0072850142605602,0.711997926235199
1631023532929,0.778880774974823,0.300381600856781,0.0118088461458683,0.7054409980773926
1631023533023,0.7485013008117676,0.300381600856781,0.0276995133608579,0.7054409980773926
1631023533101,0.7436137795448303,0.300381600856781,0.0460037030279636,0.7054409980773926
1631023533117,0.7436137795448303,0.3232062458992004,0.1269358992576599,0.7054409980773926
1631023533167,0.7436137795448303,0.3767812550067901,0.2490005642175674,0.7054409980773926
1631023533401,0.7436137795448303,0.4718721508979797,0.2469631135463714,0.7040389180183411
1631023533646,0.7436137795448303,0.4848419427871704,0.2456242442131042,0.6599864363670349
1631023533683,0.7433893084526062,0.4739967286586761,0.2454015612602234,0.5675960779190063
1631023533886,0.74217289686203,0.4706750214099884,0.325957328081131,0.4774316251277923
1631023534025,0.7362073063850403,0.4636904001235962,0.3263786435127258,0.4635547697544098
1631023534071,0.7362073063850403,0.4569413363933563,0.3263786435127258,0.4614065885543823
1631023534133,0.7362073063850403,0.4504493474960327,0.3243924081325531,0.4502022564411163
1631023534227,0.7362073063850403,0.4362772405147552,0.3263867795467376,0.4502022564411163
1631023534247,0.7362073063850403,0.416136234998703,0.3253601491451263,0.4502022564411163
1631023534280,0.7362073063850403,0.4012614488601684,0.3253601491451263,0.4502022564411163
1631023534381,0.7362073063850403,0.3968954980373382,0.3253601491451263,0.4502022564411163
1631023534490,0.7362073063850403,0.3968954980373382,0.3253601491451263,0.4502022564411163
1631023534580,0.7362073063850403,0.3968954980373382,0.3253601491451263,0.4502022564411163
1631023534622,0.7362073063850403,0.3968954980373382,0.3253601491451263,0.4502022564411163
1631023534658,0.7362073063850403,0.3968954980373382,0.1686141192913055,0.4502022564411163
1631023534765,0.7362073063850403,0.3962422013282776,0.1686141192913055,0.4502022564411163
1631023534947,0.7362073063850403,0.2953978478908539,0.1686141192913055,0.4502022564411163
1631023535121,0.8084250688552856,0.1161533743143081,0.1686141192913055,0.4502022564411163
1631023535186,0.8234408497810364,0.0038328028749674,0.1205517128109932,0.4502022564411163
1631023535238,0.8525354266166687,0.0463616475462913,0.2656794786453247,0.4502022564411163
1631023535364,0.8593531847000122,0.0658576190471649,0.35831019282341,0.4234252274036407
1631023535411,0.8593531847000122,0.0622946694493293,0.3932231664657593,0.4420889914035797
1631023535625,0.8640439510345459,0.0475649572908878,0.398070752620697,0.4443835914134979
1631023535704,0.8640439510345459,0.0431995540857315,0.4114339351654053,0.4517179727554321
1631023535735,0.8773866295814514,0.0705444291234016,0.433951735496521,0.455414742231369
1631023535907,0.911788821220398,0.0749528184533119,0.4550108313560486,0.4709105193614959
1631023535938,0.9683675765991212,0.0749528184533119,0.4656843245029449,0.4848579466342926
1631023536160,1.0260976552963257,0.0822564959526062,0.4656843245029449,0.4848579466342926
1631023536232,1.048814058303833,0.095255546271801,0.4656843245029449,0.4854683876037597
1631023536294,1.0562509298324585,0.1169367060065269,0.4656843245029449,0.4854683876037597
1631023536341,1.0562509298324585,0.160649836063385,0.4656843245029449,0.4854683876037597
1631023536410,1.0562509298324585,0.1700054705142974,0.4672720432281494,0.4854683876037597
1631023536479,1.04286527633667,0.1743607521057129,0.4672720432281494,0.4716779291629791
1631023536728,1.0467318296432495,0.1743607521057129,0.4672720432281494,0.463864266872406
1631023536947,1.0580798387527466,0.1743607521057129,0.4672720432281494,0.4535160958766937
1631023537010,1.0965707302093506,0.1518966555595398,0.4469043612480163,0.4254919588565826
1631023537025,1.1343170404434204,0.1442683339118957,0.4239201545715332,0.3387785255908966
1631023537056,1.136077642440796,0.2877882719039917,0.4225981533527374,0.2608169317245483
1631023537244,1.136077642440796,0.53855299949646,0.4209678769111633,0.256525844335556
1631023537416,1.1453994512557983,0.7193008065223694,0.4209678769111633,0.2699224650859833
1631023537478,1.1569328308105469,0.7595883011817932,0.4142402708530426,0.2906914055347442
1631023537541,1.153960943222046,0.7595883011817932,0.3426563739776611,0.2895289063453674
1631023537556,1.1438056230545044,0.7595883011817932,0.2791311740875244,0.3089405596256256
1631023537634,1.1346946954727173,0.7595883011817932,0.237554669380188,0.3338854312896728
1631023537806,1.120566964149475,0.7595883011817932,0.204883873462677,0.3519991040229797
1631023537853,1.1266155242919922,0.7595883011817932,0.1549505740404129,0.3772644400596618
1631023537978,1.1377928256988523,0.7595883011817932,0.2386349439620971,0.4179343581199646
1631023538088,1.1426997184753418,0.7636762857437134,0.3230567276477813,0.4986039698123932
1631023538163,1.1426997184753418,0.7717306017875671,0.3751548230648041,0.5212198495864868
1631023538257,1.1426997184753418,0.7800804376602173,0.3781726658344269,0.5346382260322571
1631023538462,1.1474937200546265,0.7829604148864746,0.3812808990478515,0.5723640322685242
1631023538509,1.1490012407302856,0.7842062711715698,0.3858038485050201,0.6038905382156372
1631023538620,1.1224724054336548,0.7867308259010315,0.4184781610965729,0.6047812700271606
1631023538713,1.098361253738403,0.7867308259010315,0.4970873892307281,0.6047812700271606
1631023538745,1.0922424793243408,0.7867308259010315,0.528682291507721,0.6047812700271606
1631023538979,1.0922424793243408,0.6963134407997131,0.5328128337860107,0.6047812700271606
1631023539010,1.0922424793243408,0.5356901288032532,0.5328128337860107,0.6061397790908813
1631023539216,1.0891927480697632,0.412519097328186,0.5328128337860107,0.6101810932159424
1631023539294,1.075055718421936,0.4082969129085541,0.5328128337860107,0.6092185974121094
1631023539341,1.0649962425231934,0.4104542434215545,0.5328128337860107,0.6043833494186401
1631023539466,1.087609887123108,0.4237715005874634,0.5328128337860107,0.5980222225189209
1631023539575,1.14998197555542,0.4459826350212097,0.5636974573135376,0.5980222225189209
1631023539732,1.1538302898406982,0.4580191075801849,0.6322194337844849,0.5920963287353516
1631023539810,1.1538302898406982,0.4602508544921875,0.6583325266838074,0.535728931427002
1631023539841,1.1538302898406982,0.425807923078537,0.6634576916694641,0.4611243605613708
1631023539888,1.1538302898406982,0.3960188329219818,0.6634576916694641,0.522278368473053
1631023540138,1.1475930213928225,0.3763697147369385,0.6634576916694641,0.5193968415260315
1631023540153,1.138288497924805,0.3672170042991638,0.65898597240448,0.5167851448059082
1631023540203,1.138288497924805,0.3672170042991638,0.6270399689674377,0.5131775736808777
1631023540268,1.1353880167007446,0.368624597787857,0.6249248385429382,1.0513715744018557
1631023540378,1.1353880167007446,0.3860586881637573,0.6218610405921936,1.060604453086853
1631023540612,1.1532782316207886,0.4059126675128937,0.619365394115448,1.060604453086853
1631023540628,1.1735483407974243,0.4232136011123657,0.6196497082710266,1.060604453086853
1631023540690,1.176732301712036,0.4296996593475342,0.6225273609161377,1.060604453086853
1631023540846,1.180384874343872,0.4425895810127258,0.6225273609161377,1.060604453086853
1631023540878,1.1816949844360352,0.4457734227180481,0.6221075654029846,1.060604453086853
1631023541081,1.1958978176116943,0.4556050896644592,0.6186758875846863,1.060604453086853
1631023541286,1.182494044303894,0.503731369972229,0.5772010684013367,1.060604453086853
1631023541349,1.1637846231460571,0.5507458448410034,0.476761519908905,1.060604453086853
1631023541443,1.1501027345657349,0.5512622594833374,0.3955819606781006,1.060604453086853
1631023541489,1.1364814043045044,0.5497406125068665,0.3301936388015747,1.060604453086853
1631023541536,1.1364814043045044,0.5478631854057312,0.3128353655338287,1.060604453086853
1631023541786,1.1361370086669922,0.5422598123550415,0.3128353655338287,1.060604453086853
1631023541911,1.14570152759552,0.5422598123550415,0.3136951923370361,1.060604453086853
1631023541974,1.1723453998565674,0.5999858379364014,0.3163164854049682,1.0429414510726929
1631023542036,1.1921207904815674,0.6603572964668274,0.3293429315090179,0.8956145644187927
1631023542192,1.1975951194763184,0.6839103698730469,0.3478270471096039,0.4982349276542663
1631023542430,1.1918652057647705,0.6819063425064087,0.383299320936203,0.5319355130195618
1631023542576,1.172866940498352,0.6819063425064087,0.3861550986766815,0.5450215935707092
1631023542576,1.1320805549621582,0.6819063425064087,0.3909800052642822,0.5450215935707092
1631023542639,1.101024150848389,0.6819063425064087,0.4178346395492553,0.5450215935707092
1631023542655,1.0885553359985352,0.6819063425064087,0.4361069202423095,0.5365787148475647
1631023542670,1.062187671661377,0.6819063425064087,0.4495767951011657,0.5053611397743225
1631023542795,1.02751362323761,0.6739825010299683,0.4529582560062408,0.4434154331684112
1631023542967,1.021194338798523,0.6239880919456482,0.4529582560062408,0.4377403557300567
1631023543096,1.0185983180999756,0.5723311901092529,0.4529582560062408,0.4592665433883667
1631023543143,1.029221534729004,0.5596375465393066,0.4529582560062408,0.4631721377372741
1631023543158,1.0441522598266602,0.5709242820739746,0.4529582560062408,0.4631721377372741
1631023543221,1.0442510843276978,0.5752634406089783,0.4529582560062408,0.4631721377372741
1631023543424,1.0355615615844729,0.5752634406089783,0.4529582560062408,0.4578925371170044
1631023543643,1.0197809934616089,0.5727612376213074,0.4529582560062408,0.4431163370609283
1631023543752,0.9756525754928588,0.5357825756072998,0.4529582560062408,0.4431163370609283
1631023543767,0.9139833450317384,0.4375520050525665,0.4521160125732422,0.4412517249584198
1631023543814,0.8982851505279541,0.3527369201183319,0.4510762691497803,0.4369069039821625
1631023544208,0.8982851505279541,0.3340470492839813,0.4506321549415588,0.4264775812625885
1631023544223,0.8982851505279541,0.3337825536727905,0.4503009617328644,0.4287138283252716
1631023544255,0.8964257836341858,0.3314090371131897,0.4284193217754364,0.4462743401527405
1631023544286,0.8919841647148132,0.3329275250434875,0.3571158051490783,0.4827709197998047
1631023544317,0.8919841647148132,0.3336867988109588,0.2611727118492126,0.5050854086875916
1631023544583,0.8900881409645081,0.3336867988109588,0.2188374102115631,0.5050854086875916
1631023544645,0.8996713757514954,0.3305389583110809,0.210593119263649,0.5282405018806458
1631023544723,0.9008437395095824,0.3254920542240143,0.2221439629793167,0.5474520921707153
1631023544754,0.86456698179245,0.3254920542240143,0.239199623465538,0.5538102388381958
1631023544770,0.7725400924682617,0.3195462822914123,0.2770017385482788,0.5538102388381958
1631023544864,0.6947731375694275,0.2953061163425445,0.3173098862171173,0.5538102388381958
1631023545036,0.6448348760604858,0.2454568594694137,0.3123874962329864,0.5538102388381958
1631023545131,0.6282898187637329,0.2240224629640579,0.301122635602951,0.5538102388381958
1631023545241,0.6473941206932068,0.2176976650953292,0.2901322841644287,0.5763385891914368
1631023545350,0.6935235261917114,0.1843359321355819,0.2661190629005432,0.6061446070671082
1631023545413,0.7171863317489624,0.1194589808583259,0.2383369356393814,0.6277855634689331
1631023545709,0.7945235371589661,-0.0153797045350074,0.1875585317611694,0.6956590414047241
1631023545709,0.7384469509124756,0.0402834229171276,0.2114260494709015,0.6839482188224792
1631023545725,0.8634533286094666,-0.0278300233185291,0.1667413860559463,0.6948079466819763
1631023545803,0.896359384059906,-0.0278300233185291,0.1464024186134338,0.6948079466819763
1631023545959,0.8987549543380737,-0.0278300233185291,0.1559518575668335,0.6948079466819763
1631023546213,0.9008635878562928,-0.023597503080964,0.1685767918825149,0.6948079466819763
1631023546243,0.9015822410583496,-0.015177116729319,0.174872487783432,0.6935192346572876
1631023546431,0.9073052406311036,-0.0138873634859919,0.1788516640663147,0.6887752413749695
1631023546478,0.9114909172058104,-0.053724281489849,0.1806336790323257,0.6731001138687134
1631023546540,0.9209579825401306,-0.0967801436781883,0.1806194931268692,0.6602566838264465
1631023546540,0.925701141357422,-0.0974868908524513,0.1313068270683288,0.6680247783660889
1631023546759,0.925701141357422,-0.0989149808883667,0.0581874512135982,0.6680247783660889
1631023546821,0.925701141357422,-0.0821979343891143,-0.0205165818333625,0.6598902344703674
1631023547009,0.9051200747489928,-0.0480774976313114,-0.0372747555375099,0.6305403709411621
1631023547024,0.9051110148429872,-0.0317831598222255,-0.0588672906160354,0.5972946286201477
1631023547071,0.9007880687713624,-0.0316186882555484,-0.0650542899966239,0.5572002530097961
1631023547087,0.8991045951843262,-0.0010627770097926,-0.0650542899966239,0.5173299312591553
1631023547199,0.8976451754570007,0.0960011556744575,-0.0650542899966239,0.4377071559429168
1631023547355,0.8810843229293823,0.2069603055715561,-0.0650542899966239,0.3473073244094848
1631023547512,0.8621194362640381,0.2788696885108948,0.2599236667156219,0.2945151925086975
1631023547527,0.8310381770133972,0.3029609620571136,0.2891797423362732,0.2674235105514526
1631023547605,0.7948834896087646,0.3094372153282165,0.2864925265312195,0.2674235105514526
1631023547855,0.7948834896087646,0.31901815533638,0.284186452627182,0.2674235105514526
1631023547871,0.7948834896087646,0.3500996828079223,0.284186452627182,0.2674235105514526
1631023547902,0.7948834896087646,0.381689190864563,0.284186452627182,0.2674235105514526
1631023547996,0.7948834896087646,0.4576723873615265,0.284186452627182,0.2674235105514526
1631023548090,0.7948834896087646,0.5040823817253113,0.284186452627182,0.2463823407888412
1631023548183,0.7531912922859192,0.5066417455673218,0.2888741493225097,0.2475740611553192
1631023548418,0.7830718159675598,0.5066417455673218,0.341267853975296,0.2475740611553192
1631023548512,0.8020575642585754,0.5066417455673218,0.428865522146225,0.2475740611553192
1631023548674,0.8247647285461426,0.5066417455673218,0.5803101658821106,0.2475740611553192
1631023548721,0.8388262987136841,0.5066417455673218,0.7218081951141357,0.2475740611553192
1631023548752,0.8459015488624573,0.5066417455673218,0.7923706769943237,0.2475740611553192
1631023548830,0.8459015488624573,0.5066417455673218,0.7923706769943237,0.251714140176773
1631023548986,0.8472326397895813,0.4963237345218658,0.7906970977783203,0.2646975815296173
1631023549018,0.8487814664840698,0.4892074763774872,0.7901001572608948,0.3165888786315918
1631023549189,0.8500982522964478,0.490387886762619,0.7856150269508362,0.3807536959648132
1631023549224,0.8500982522964478,0.4905044138431549,0.7859426736831665,0.4277752339839935
1631023549302,0.8500982522964478,0.4906648993492126,0.7886071801185608,0.4182572960853576
1631023549599,0.847748875617981,0.4902956485748291,0.788772702217102,0.4095512926578522
1631023549771,0.8462778329849243,0.4696004688739776,0.788772702217102,0.4115346372127533
1631023549818,0.8419506549835205,0.3972302377223968,0.788772702217102,0.4057203233242035
1631023549833,0.8396410346031189,0.2471594363451004,0.788772702217102,0.4057203233242035
1631023549849,0.8324565887451172,0.0687657073140144,0.788772702217102,0.4057203233242035
1631023549989,0.7835102677345276,-0.0063222181051969,0.788772702217102,0.4057203233242035
1631023550036,0.7539981007575989,0.0189381036907434,0.788772702217102,0.4057203233242035
1631023550273,0.7226566672325134,0.0260367542505264,0.788772702217102,0.4057203233242035
1631023550320,0.7111766934394836,0.0260367542505264,0.7461380362510681,0.4057203233242035
1631023550367,0.6806837320327759,0.0260367542505264,0.5777122974395752,0.4057203233242035
1631023550601,0.6079479455947876,0.0260367542505264,0.3271616995334625,0.4057203233242035
1631023550617,0.5105066895484924,0.0214925836771726,0.1218528151512146,0.4057203233242035
1631023550648,0.4321638643741607,0.0122232604771852,0.0783945843577385,0.3960709273815155
1631023550898,0.4321638643741607,0.0208225436508655,0.0685386136174202,0.3960709273815155
1631023550929,0.4321638643741607,0.0043127634562551,0.0737950429320335,0.3960709273815155
1631023551104,0.4321638643741607,-0.0261902194470167,0.0574350170791149,0.3960709273815155
1631023551182,0.4321638643741607,-0.0385922640562057,0.0324545353651046,0.3960709273815155
1631023551338,0.5105867981910706,-0.0322485715150833,0.0216642208397388,0.3960709273815155
1631023551416,0.5367581248283386,-0.0340731367468833,0.0026364778168499,0.2233278900384903
1631023551479,0.5856876969337463,-0.0378637351095676,-0.0038224987220019,0.3062073588371277
1631023551510,0.6802773475646973,-0.0428057685494422,0.0328691005706787,0.3957546055316925
1631023551557,0.7477141618728638,-0.0581393875181674,0.1144605875015258,0.4773578345775604
1631023552025,0.7538357377052307,-0.1278900504112243,0.1697356700897216,0.553277313709259
1631023552076,0.7538357377052307,-0.1749152541160583,0.2136084884405136,0.6258078813552856
1631023552091,0.7538357377052307,-0.1416911780834198,0.2556144297122955,0.6625893712043762
1631023552122,0.7551790475845337,-0.1410703957080841,0.2709687352180481,0.6677407026290894
1631023552201,0.8010000586509705,-0.1410703957080841,0.271738201379776,0.6677407026290894
1631023552357,0.8427577018737793,-0.1410703957080841,0.2650862634181976,0.6677407026290894
1631023552372,0.8737927675247192,-0.1438701897859573,0.2536086738109588,0.6677407026290894
1631023552435,0.8793781995773315,-0.1612951308488845,0.2391444742679596,0.6889873147010803
1631023552513,0.8763517141342163,-0.1680505126714706,0.2391444742679596,0.6782270669937134
1631023552575,0.8763517141342163,-0.1688851863145828,0.2391444742679596,0.6898338198661804
1631023552654,0.8763517141342163,-0.1740614473819732,0.2391444742679596,0.7080182433128357
1631023552872,0.8820639848709106,-0.1979799121618271,0.2498365193605423,0.7300057411193848
1631023552888,0.8929601907730103,-0.1836776584386825,0.2667791843414306,0.7851436138153076
1631023553090,0.9167474508285522,-0.143431082367897,0.2711799740791321,0.8366422057151794
1631023553110,0.9463074207305908,-0.0798007622361183,0.2705090343952179,0.8366422057151794
1631023553188,0.9266570806503296,0.0971528813242912,0.246954932808876,0.8366422057151794
1631023553298,0.9061791896820068,0.3553537726402282,0.2244615405797958,0.8205200433731079
1631023553407,0.8889424800872803,0.6972562670707703,0.2004743218421936,0.7782441973686218
1631023553626,0.8775144815444946,1.0198875665664673,0.1316647976636886,0.7060211300849915
1631023553626,0.8784050345420837,0.9262402653694152,0.1674033403396606,0.7060211300849915
1631023553672,0.877286434173584,1.0254974365234375,0.1366210877895355,0.7060211300849915
1631023553860,0.8763787150382996,1.0254974365234375,0.1437475085258484,0.7060211300849915
1631023554222,0.8671495318412781,1.0254974365234375,0.1437475085258484,0.7060211300849915
1631023554253,0.8625866770744324,1.0250955820083618,0.1437475085258484,0.7060211300849915
1631023554300,0.8604076504707336,1.0250955820083618,0.1437475085258484,0.7014920711517334
1631023554331,0.8598957657814026,1.0250955820083618,0.1437475085258484,0.7014920711517334
1631023554394,0.8598957657814026,1.0251240730285645,0.1437475085258484,0.7014920711517334
1631023554519,0.8598957657814026,1.0251240730285645,0.1428541839122772,0.7014920711517334
1631023554675,0.8598957657814026,1.0251240730285645,0.1111157089471817,0.7014920711517334
1631023554784,0.8598957657814026,1.02501118183136,0.0975332558155059,0.7014920711517334
1631023554815,0.805569052696228,1.024356722831726,0.105976216495037,0.5629093647003174
1631023554831,0.836085855960846,1.025341510772705,0.1196511015295982,0.6746382117271423
1631023554940,0.8613182902336121,1.0256298780441284,0.1224078014492988,0.7591718435287476
1631023555065,0.8971203565597534,1.0144928693771362,0.1361182332038879,0.8051329255104065
1631023555209,0.9502074122428894,0.9499443769454956,0.1573085039854049,0.8122556209564209
1631023555256,0.9771133065223694,0.7573780417442322,0.1590529829263687,0.8193203806877136
1631023555303,0.9771133065223694,0.4899095594882965,0.1329569369554519,0.8226730823516846
1631023555459,0.9843690395355223,0.3077302575111389,0.1152402609586715,0.8226730823516846
1631023555506,0.9967800378799438,0.2816562950611114,0.1059145331382751,0.8226730823516846
1631023555662,0.9967800378799438,0.2720032334327698,0.1044209897518158,0.8226730823516846
1631023555850,0.9967800378799438,0.2720032334327698,0.1017534136772155,0.8226730823516846
1631023555928,0.9967800378799438,0.2720032334327698,0.0878337994217872,0.8226730823516846
1631023555959,0.9967800378799438,0.2708041965961456,0.0472148917615413,0.8111596703529358
1631023556084,0.9967800378799438,0.223245695233345,0.0323220528662204,0.7944788336753845
1631023556178,0.9967800378799438,0.1284470111131668,0.0428463779389858,0.7829892635345459
1631023556274,0.9922268986701964,0.0687606036663055,0.0557967685163021,0.7722662091255188
1631023556367,0.9394866824150084,0.054363664239645,0.056059218943119,0.7557263374328613
1631023556461,0.8958901166915894,0.0515329465270042,0.0519835539162159,0.7337465882301331
1631023556508,0.8733283281326294,0.0168298408389091,0.0392914898693561,0.6932357549667358
1631023556758,0.8548930287361145,-0.0347599945962429,0.0197947323322296,0.5968530774116516
1631023556867,0.8548930287361145,-0.009946689940989,-0.015517002902925,0.5968530774116516
1631023557058,0.8548930287361145,0.079251118004322,-0.0048468876630067,0.5968530774116516
1631023557073,0.8548930287361145,0.1916829794645309,0.0629438385367393,0.5968530774116516
1631023557261,0.8548930287361145,0.243697240948677,0.118768610060215,0.5968530774116516
1631023557323,0.6274297833442688,0.2387531250715255,0.165521040558815,0.5968530774116516
1631023557401,0.6348920464515686,0.2407131791114807,0.1677476614713668,0.6678688526153564
1631023557542,0.6386159062385559,0.247682124376297,0.1699981689453125,0.6753373742103577
1631023557573,0.6477198004722595,0.2498417347669601,0.195442646741867,0.7915900945663452
1631023557605,0.671628475189209,0.2918908298015594,0.2125925719738006,0.938225030899048
1631023557667,0.6847174763679504,0.3194333016872406,0.2369953691959381,0.9893752336502076
1631023557792,0.6889035105705261,0.3194333016872406,0.2538132965564728,0.9893752336502076
1631023557948,0.6893230080604553,0.3194333016872406,0.2565594613552093,0.9893752336502076
1631023558091,0.7195025086402893,0.3210303485393524,0.2646512985229492,0.9893752336502076
1631023558154,0.730513870716095,0.3200932443141937,0.2788375914096832,0.9893752336502076
1631023558185,0.7353521585464478,0.3082842826843261,0.2818993031978607,0.9893752336502076
1631023558294,0.7362360954284668,0.3023276031017303,0.2834615111351013,0.9893752336502076
1631023558357,0.6937640905380249,0.3019068241119385,0.2834615111351013,0.9893752336502076
1631023558450,0.6347624063491821,0.3104446828365326,0.2834615111351013,0.9893752336502076
1631023558575,0.589714527130127,0.3268656730651855,0.2771182656288147,0.985839068889618
1631023558700,0.5751640200614929,0.3603723645210266,0.2573417425155639,0.9710670113563538
1631023558778,0.5751640200614929,0.3965998589992523,0.2197967618703842,0.9610033631324768
1631023558903,0.5751640200614929,0.4402590692043304,0.4700283706188202,0.9565093517303468
1631023558997,0.5751640200614929,0.4582454562187195,0.5512930750846863,0.9518067836761476
1631023559094,0.5751640200614929,0.4554402828216553,0.5553273558616638,0.9453805685043336
1631023559234,0.5751640200614929,0.4554402828216553,0.5553273558616638,0.854523777961731
1631023559297,0.5673892498016357,0.4554402828216553,0.5553273558616638,0.6150436401367188
1631023559453,0.5603309869766235,0.4554402828216553,0.5553273558616638,0.2541871666908264
1631023559500,0.5568265914916992,0.4554402828216553,0.5553273558616638,0.021402858197689
1631023559625,0.5568265914916992,0.4482882022857666,0.5553273558616638,0.021402858197689
1631023559797,0.5568265914916992,0.4360448122024536,0.5553273558616638,0.021402858197689
1631023559859,0.5568265914916992,0.4330568015575409,0.5553273558616638,0.021402858197689
1631023559890,0.5568265914916992,0.4330568015575409,0.5553273558616638,0.021402858197689
1631023560081,0.5568265914916992,0.4330568015575409,0.5553273558616638,0.021402858197689
1631023560253,0.5568265914916992,0.4555779695510864,0.5553273558616638,0.021402858197689
1631023560284,0.5568265914916992,0.457300454378128,0.5553273558616638,0.021402858197689
1631023560331,0.5568265914916992,0.457300454378128,0.5553273558616638,0.021402858197689
1631023560377,0.5568265914916992,0.4563488364219665,0.5521555542945862,0.021402858197689
1631023560830,0.5568265914916992,0.4120117723941803,0.4798996448516845,0.021402858197689
1631023560877,0.5568265914916992,0.3675890862941742,0.3276838660240173,0.4675343334674835
1631023560940,0.5568265914916992,0.3461657166481018,0.2630896866321563,0.5216642022132874
1631023560955,0.5568265914916992,0.3343791663646698,0.2568036019802093,0.5578721165657043
1631023561002,0.5568265914916992,0.3286420702934265,0.2568036019802093,0.5578721165657043
1631023561033,0.5568265914916992,0.3077775239944458,0.2517221570014953,0.5578721165657043
1631023561428,0.5568265914916992,0.2066964656114578,0.2473238855600357,0.5578721165657043
1631023561428,0.5568265914916992,0.174121081829071,0.2090596407651901,0.5578721165657043
1631023561474,0.5568265914916992,0.1783309131860733,0.1937868744134903,0.5578721165657043
1631023561537,0.5568265914916992,0.1861183196306228,0.1962713301181793,0.5578721165657043
1631023561584,0.5568265914916992,0.2048224657773971,0.1962713301181793,0.5578721165657043
1631023561693,0.5568265914916992,0.2317250818014145,0.1962713301181793,0.5578721165657043
1631023561849,0.5568265914916992,0.3745189309120178,0.2905968129634857,0.5578721165657043
1631023561974,0.5568265914916992,0.5004523396492004,0.3730408847332001,0.5578721165657043
1631023561974,0.5568265914916992,0.4720665514469147,0.3488123416900635,0.5578721165657043
1631023561990,0.5568265914916992,0.5034003853797913,0.3696274161338806,0.5578721165657043
1631023562145,0.5568265914916992,0.5034003853797913,0.3684784770011902,0.5578721165657043
1631023562258,0.5568265914916992,0.5034003853797913,0.3684784770011902,0.5578721165657043
1631023562383,0.5568265914916992,0.7422212362289429,0.3684784770011902,0.5578721165657043
1631023562477,0.5568265914916992,0.801578938961029,0.4668461382389068,0.5578721165657043
1631023562555,0.5568265914916992,0.801578938961029,0.4700097441673279,0.5578721165657043
1631023562586,0.5568265914916992,0.801578938961029,0.4674775898456573,0.5578721165657043
1631023562836,0.5568265914916992,0.801578938961029,0.4625068306922912,0.5578721165657043
1631023562976,0.5568265914916992,0.801578938961029,0.4489254355430603,0.5578721165657043
1631023563180,0.5568265914916992,0.801578938961029,0.4316596090793609,0.5578721165657043
1631023563230,0.5568265914916992,0.801578938961029,0.4316596090793609,0.5578721165657043
1631023563277,0.5568265914916992,0.801578938961029,0.4316596090793609,0.5578721165657043
1631023563417,0.5568265914916992,0.801578938961029,0.432628870010376,0.5578721165657043
1631023563511,0.5568265914916992,0.801578938961029,0.434666633605957,0.5578721165657043
1631023563683,0.5568265914916992,0.801578938961029,0.403203934431076,0.5578721165657043
1631023563730,0.6340889930725098,0.801578938961029,0.358446717262268,0.2125948369503021
1631023563761,0.6353403925895691,0.801578938961029,0.358446717262268,0.2590618729591369
1631023563792,0.6486133337020874,0.801578938961029,0.358446717262268,0.2720894515514374
1631023563917,0.6604132056236267,0.799416720867157,0.358446717262268,0.275966614484787
1631023564042,0.6686208248138428,0.7022972702980042,0.2970973253250122,0.2886169254779815
1631023564136,0.6758501529693604,0.1106069162487983,0.1447790712118148,0.3313827216625213
1631023564265,0.6876803040504456,0.1106069162487983,0.0255017522722482,0.4180926382541656
1631023564328,0.7005789279937744,0.1106069162487983,0.0523339137434959,0.4750598967075348
1631023564453,0.7005789279937744,0.1106069162487983,0.0770051255822181,0.4750598967075348
1631023564531,0.705296516418457,0.1106069162487983,0.0770051255822181,0.4750598967075348
1631023564562,0.7079824209213257,0.1106069162487983,0.0760508924722671,0.4828978478908539
1631023564640,0.7107231020927429,0.1069603413343429,0.0738370269536972,0.4926975667476654
1631023564812,0.7136709094047546,0.0897937342524528,0.0700395852327346,0.5353168845176697
1631023564906,0.70034259557724,0.0791013538837432,0.0554667003452777,0.5601440072059631
1631023565062,0.7115923762321472,0.0799573436379432,0.0582490339875221,0.5733218193054199
1631023565078,0.7606636881828308,0.0783028155565261,0.0505102798342704,0.5964253544807434
1631023565203,0.7483077645301819,0.0303641930222511,0.0505102798342704,0.6237634420394897
1631023565346,0.7201032042503357,-0.0211984757333993,0.0505102798342704,0.6288378238677979
1631023565377,0.6732369661331177,-0.0951181054115295,0.0505102798342704,0.6288378238677979
1631023565487,0.6218176484107971,-0.1987708061933517,0.0517352186143398,0.6288378238677979
1631023565612,0.6056254506111145,-0.2344767749309539,0.0683175101876258,0.6331008672714233
1631023565674,0.6262854337692261,-0.2500334084033966,0.0713280886411666,0.6427906155586243
1631023565815,0.6486506462097168,-0.2208118438720703,0.0493023134768009,0.6274895668029785
1631023565877,0.6832321286201477,-0.0977387577295303,0.0181245040148496,0.5886101126670837
1631023566067,0.7141672372817993,0.0074400543235242,-0.0149352522566914,0.5850074291229248
1631023566177,0.7318834662437439,0.0392955839633941,-0.0168313886970281,0.5850074291229248
1631023566305,0.7318834662437439,0.0398392640054225,-0.0168313886970281,0.5850074291229248
1631023566398,0.7267066240310669,0.0398392640054225,-0.0103307915851473,0.5850074291229248
1631023566461,0.731823205947876,0.0398392640054225,0.0070123514160513,0.58425372838974
1631023566492,0.7743057608604431,0.0558203794062137,0.059907428920269,0.5513884425163269
1631023566695,0.8071615099906921,0.0811090171337127,0.1414948254823684,0.514835000038147
1631023566711,0.8072189092636108,0.1058943793177604,0.2279144674539566,0.4954698085784912
1631023566820,0.7821327447891235,0.112593874335289,0.2470502108335495,0.4628456234931946
1631023566914,0.7625576257705688,0.1522615700960159,0.2470502108335495,0.4377278983592987
1631023566992,0.7681684494018555,0.1815133839845657,0.2470502108335495,0.4377278983592987
1631023567039,0.7694064378738403,0.1815133839845657,0.2470502108335495,0.4377278983592987
1631023567354,0.7750986218452454,0.1815133839845657,0.2470502108335495,0.4363572895526886
1631023567541,0.819388747215271,0.1815133839845657,0.2470502108335495,0.4131313562393188
1631023567588,0.8558969497680664,0.1815133839845657,0.2470502108335495,0.3650179803371429
1631023567619,0.8688375949859619,0.1786024868488311,0.2470502108335495,0.2900756597518921
1631023567807,0.8538119196891785,0.1682371348142624,0.2470502108335495,0.2878147065639496
1631023567869,0.8763895630836487,0.1635803580284118,0.2470502108335495,0.3019709289073944
1631023567900,0.8851597905158997,0.1635803580284118,0.2470502108335495,0.3153715431690216
1631023567994,0.8851597905158997,0.1635803580284118,0.2470502108335495,0.3067053556442261
1631023568072,0.8851597905158997,0.1682325154542923,0.239282876253128,0.3066885769367218
1631023568088,0.9024592638015748,0.1719568222761154,0.1949785351753235,0.2899413108825683
1631023568231,0.8983663320541382,0.1375999897718429,0.1233748942613601,0.2859340310096741
1631023568418,0.908852994441986,0.0807352736592292,0.0405531078577041,0.2925374507904053
1631023568575,0.908852994441986,0.0600431635975837,0.0092162443324923,0.3282816410064697
1631023568684,0.908852994441986,0.0565888956189155,0.0036018304526805,0.3767869472503662
1631023568715,0.908852994441986,0.0560165531933307,-0.0081645660102367,0.3929446637630462
1631023568778,0.908852994441986,0.0579214096069335,-0.0317191183567047,0.3951915502548218
1631023568840,0.908852994441986,0.0567926280200481,-0.0752035826444625,0.3951915502548218
1631023568949,0.908852994441986,0.0587657466530799,-0.0957278907299041,0.3951915502548218
1631023569218,0.9081658124923706,0.0703352689743042,-0.1042750254273414,0.3944615721702575
1631023569234,0.9076803922653198,0.0811737030744552,-0.1038691624999046,0.3932134807109833
1631023569249,0.9061994552612304,0.0758445709943771,-0.0744974985718727,0.3980802893638611
1631023569421,0.9012925028800964,0.0573447905480861,-0.0176547337323427,0.3873520195484161
1631023569437,0.9012925028800964,0.0758246928453445,0.0172004997730255,0.3944538831710815
1631023569515,0.9012925028800964,0.0849888399243354,0.0720606669783592,0.4310066103935241
1631023569702,0.8995000720024109,0.0757939293980598,0.0940676555037498,0.4531874060630798
1631023569749,0.8826172351837158,0.0565579645335674,0.0940676555037498,0.4749394059181213
1631023569812,0.8144664764404297,0.0352673828601837,0.0988192409276962,0.5317866206169128
1631023569999,0.7450231313705444,0.0196489952504634,0.102639302611351,0.6135913133621216
1631023570108,0.6691823601722717,0.0266531221568584,0.092322938144207,0.6438472270965576
1631023570314,0.6206241846084595,0.0595461763441562,0.0823926255106926,0.6341431140899658
1631023570376,0.6191795468330383,0.1191906929016113,0.0803910344839096,0.6288291215896606
1631023570392,0.6211060285568237,0.1762469559907913,0.0803910344839096,0.6284257769584656
1631023570486,0.6295666694641113,0.2306031435728073,0.0803910344839096,0.6284257769584656
1631023570595,0.6372072100639343,0.2595744431018829,0.0803910344839096,0.6284257769584656
1631023570626,0.6366996765136719,0.264785885810852,0.0803910344839096,0.6284257769584656
1631023570736,0.5953079462051392,0.2638205587863922,0.074121780693531,0.6284257769584656
1631023570892,0.5387217998504639,0.2523967623710632,0.0764468014240264,0.6195343732833862
1631023570985,0.450128436088562,0.2435939311981201,0.104438692331314,0.6471691131591797
1631023571032,0.4082025289535522,0.2538731396198272,0.1290659606456756,0.6663558483123779
1631023571157,0.3680408596992492,0.263530969619751,0.1257780790328979,0.661808967590332
1631023571282,0.3630363345146179,0.3052341341972351,0.123330608010292,0.6529682278633118
1631023571454,0.4094744324684143,0.3518815040588379,0.123330608010292,0.6290215253829956
1631023571501,0.4803588390350342,0.3780705630779266,0.123330608010292,0.6067851185798645
1631023571657,0.4993070363998413,0.3945754170417785,0.123330608010292,0.5545044541358948
1631023571767,0.4999309778213501,0.3997516632080078,0.1220458447933197,0.5103338360786438
1631023571892,0.4999309778213501,0.3997516632080078,0.1261679381132125,0.5112348794937134
1631023571954,0.4999309778213501,0.3997516632080078,0.1260943859815597,0.5112348794937134
1631023572001,0.4988101422786712,0.384958416223526,0.1194435954093933,0.5112348794937134
1631023572110,0.5098643898963928,0.3515512645244598,0.126697227358818,0.513052225112915
1631023572253,0.5256845355033875,0.3047176301479339,0.1927480250597,0.513052225112915
1631023572300,0.6150874495506287,0.2839545607566833,0.2507089078426361,0.5295673608779907
1631023572394,0.6953171491622925,0.2741370499134063,0.2920233309268951,0.5772166848182678
1631023572519,0.7368430495262146,0.2741370499134063,0.3019458651542663,0.665520191192627
1631023572581,0.8057085275650024,0.2625278532505035,0.2904923856258392,0.7353000044822693
1631023572691,0.8779482245445251,0.25560262799263,0.2725376188755035,0.7997356653213501
1631023572862,0.9207138419151306,0.2602710723876953,0.2620232105255127,0.8964252471923828
1631023572940,0.9343246221542358,0.2537476420402527,0.2623574137687683,0.94659423828125
1631023573052,0.93635892868042,0.243958830833435,0.2623574137687683,0.9468098878860474
1631023573130,0.93635892868042,0.21933114528656,0.2623574137687683,0.9468098878860474
1631023573161,0.93635892868042,0.1884220093488693,0.2623574137687683,0.955898106098175
1631023573410,0.93635892868042,0.1614298671483993,0.2623574137687683,0.973759651184082
1631023573457,0.93635892868042,0.1511270999908447,0.2628996074199676,0.9889604449272156
1631023573613,0.93635892868042,0.1444953233003616,0.2628996074199676,1.007184624671936
1631023573707,0.9280466437339784,0.1378692686557769,0.2628996074199676,1.007184624671936
1631023573707,0.9280466437339784,0.1397647559642791,0.2628996074199676,1.007184624671936
1631023573770,0.9281810522079468,0.1224629208445549,0.2462064176797866,1.007184624671936
1631023573926,0.9303598999977112,0.1162065789103508,0.1811820417642593,1.000930905342102
1631023574116,0.9213599562644958,0.1434480398893356,0.0849027633666992,0.9969943165779114
1631023574163,0.9228317737579346,0.1352622359991073,-0.0252727810293436,0.9959275722503662
1631023574178,0.9189186096191406,0.1018618643283844,-0.052395936101675,0.9933544993400574
1631023574397,0.8901945948600769,0.1322086900472641,-0.0597632192075252,0.9804953932762146
1631023574507,0.7917681932449341,0.17214897274971,-0.0827022343873977,0.940462589263916
1631023574741,0.6789295673370361,0.178494855761528,-0.0976742133498191,0.8453620076179504
1631023574788,0.6636726260185242,0.180845245718956,-0.0993080288171768,0.761956512928009
1631023574803,0.6636726260185242,0.1974035948514938,-0.0993080288171768,0.7093353271484375
1631023574803,0.6804676055908203,0.2646804749965668,-0.1017794534564018,0.7009697556495667
1631023574866,0.7645155191421509,0.3334189355373382,-0.1257884204387664,0.6947326064109802
1631023575053,0.8729822039604187,0.3506146073341369,-0.1893410235643386,0.6721151471138
1631023575147,0.95718652009964,0.3506146073341369,-0.2180767804384231,0.5778167843818665
1631023575319,0.9747355580329896,0.3506146073341369,-0.1774922013282776,0.4266967475414276
1631023575350,0.9779561758041382,0.3506146073341369,-0.13029845058918,0.2861495614051819
1631023575444,0.9779561758041382,0.3506146073341369,-0.056202121078968,0.2216794043779373
1631023575522,0.9779561758041382,0.3506146073341369,0.0249190349131822,0.2232904881238937
1631023575709,0.9779561758041382,0.3506146073341369,0.0693985596299171,0.2252969145774841
1631023575850,0.9779561758041382,0.3502880334854126,0.0816594287753105,0.2289639413356781
1631023575944,0.9779561758041382,0.3385505080223083,0.1049480140209198,0.2281043082475662
1631023576022,0.9779561758041382,0.3090878129005432,0.1141332313418388,0.238999143242836
1631023576196,0.9871951341629028,0.2851689457893371,0.1141332313418388,0.3780402839183807
1631023576196,0.9847472310066224,0.2933204770088196,0.1141332313418388,0.283395916223526
1631023576290,0.9871951341629028,0.2751132249832153,0.1154891699552536,0.4479447603225708
1631023576384,0.9965624809265136,0.2754861414432525,0.1281487345695495,0.4678536355495453
1631023576478,0.9972167015075684,0.2645846605300903,0.1609317064285278,0.472095787525177
1631023576524,0.9878364205360411,0.18245530128479,0.2453100979328155,0.4862861931324005
1631023576665,0.9373809099197388,0.1236028224229812,0.3097552061080932,0.5068295001983643
1631023576727,0.8598855137825012,0.1236028224229812,0.3241821229457855,0.514919102191925
1631023576868,0.7740877270698547,0.1236028224229812,0.3239724934101105,0.5206778645515442
1631023577009,0.6987725496292114,0.1236028224229812,0.3211309909820556,0.5383463501930237
1631023577071,0.6797765493392944,0.1236028224229812,0.3211309909820556,0.5383463501930237
1631023577152,0.6878978610038757,0.1279304921627044,0.3099041879177093,0.5383463501930237
1631023577277,0.6958780288696289,0.1318734735250473,0.2885180413722992,0.5383463501930237
1631023577402,0.7018418908119202,0.1412941962480545,0.2550211548805237,0.5383463501930237
1631023577480,0.7730664610862732,0.1412941962480545,0.2427940219640731,0.5383463501930237
1631023577574,0.8282756805419922,0.1412941962480545,0.2352686077356338,0.5383463501930237
1631023577714,0.8434828519821167,0.1412941962480545,0.2448752373456955,0.5359421372413635
1631023577824,0.8557432293891907,0.1400324702262878,0.2759720683097839,0.593910813331604
1631023577886,0.8645051121711731,0.136523351073265,0.2884358763694763,0.5797462463378906
1631023578011,0.8749257922172546,0.1030223295092582,0.2746199369430542,0.5841586589813232
1631023578058,0.8825039863586426,0.0396040603518486,0.2727090418338775,0.5937820672988892
1631023578167,0.8680338859558105,-0.0038587935268878,0.2642641365528106,0.5896714925765991
1631023578279,0.8665885329246521,0.0707671865820884,0.2007754296064376,0.5896714925765991
1631023578389,0.848026692867279,0.181626945734024,0.1312413513660431,0.5896714925765991
1631023578467,0.869320809841156,0.3073468804359436,0.1076681837439537,0.5657036900520325
1631023578608,0.9618462920188904,0.4084601402282715,0.0985059142112732,0.5657036900520325
1631023578655,1.048944354057312,0.4588806331157684,0.0936088040471077,0.5657036900520325
1631023578779,1.0753766298294067,0.4600668251514435,0.0840128436684608,0.5657036900520325
1631023578951,1.0943701267242432,0.4607991576194763,0.0476158522069454,0.5657036900520325
1631023579045,1.127028465270996,0.4607991576194763,0.0136154508218169,0.5657036900520325
1631023579154,1.1581981182098389,0.4607991576194763,0.0021990232635289,0.5657036900520325
1631023579170,1.1581981182098389,0.4616353809833526,0.0021990232635289,0.5657036900520325
1631023579297,1.1581981182098389,0.4775309562683105,-0.0025831705424934,0.4655147790908813
1631023579376,1.1581981182098389,0.4903416931629181,-0.0448156185448169,0.311906099319458
1631023579469,1.1581981182098389,0.5113775134086609,-0.0448156185448169,0.311906099319458
1631023579735,1.1570369005203247,0.5602894425392151,-0.0448156185448169,0.311906099319458
1631023579766,1.1531319618225098,0.5762888193130493,-0.0448156185448169,0.311906099319458
1631023579797,1.149999976158142,0.5769856572151184,-0.0448156185448169,0.311906099319458
1631023579860,1.149999976158142,0.5769856572151184,-0.0448156185448169,0.311906099319458
1631023580049,1.149999976158142,0.5769856572151184,-0.0448156185448169,0.311906099319458
1631023580206,1.149999976158142,0.5769856572151184,-0.0448156185448169,0.311906099319458
1631023580299,1.149999976158142,0.56654953956604,-0.0448156185448169,0.311906099319458
1631023580331,1.149999976158142,0.5457975268363953,-0.0448156185448169,0.311906099319458
1631023580362,1.149999976158142,0.5457975268363953,-0.0448156185448169,0.311906099319458
1631023580456,1.149999976158142,0.5457975268363953,-0.2081050723791122,0.311906099319458
1631023580581,1.149999976158142,0.5457975268363953,-0.187746375799179,0.311906099319458
1631023580737,1.149999976158142,0.5457975268363953,-0.1793938130140304,0.311906099319458
1631023580815,1.149999976158142,0.5457975268363953,-0.1793938130140304,0.311906099319458
1631023580893,1.149999976158142,0.5419526696205139,-0.1793938130140304,0.311906099319458
1631023581002,1.149999976158142,0.5272945761680603,-0.1711395978927612,0.311906099319458
1631023581162,1.149999976158142,0.4569935500621795,-0.1302653700113296,0.311906099319458
1631023581240,1.149999976158142,0.2883235216140747,-0.0171095039695501,0.311906099319458
1631023581397,1.149999976158142,0.1132370084524154,0.1436408013105392,0.311906099319458
1631023581412,1.149999976158142,0.0416179299354553,0.240272507071495,0.311906099319458
1631023581553,1.149999976158142,0.0089115211740136,0.2607765197753906,0.311906099319458
1631023581631,0.7080231308937073,-0.0179836452007293,0.2619314193725586,0.311906099319458
1631023581725,0.7346804738044739,-0.0403018034994602,0.250308096408844,0.311906099319458
1631023581975,0.7451114654541016,-0.0616225078701972,0.2436060011386871,0.6084131002426147
1631023582037,0.7119857668876648,-0.0523549579083919,0.2692281603813171,0.5912014842033386
1631023582053,0.6499484181404114,-0.0099707664921879,0.3210701048374176,0.589570939540863
1631023582091,0.5647768974304199,0.0201633591204881,0.3670848309993744,0.6021897792816162
1631023582259,0.5737651586532593,0.0157806687057018,0.3879235088825226,0.6188473105430603
1631023582431,0.5944605469703674,-0.0032200540881603,0.3937854766845703,0.6233201622962952
1631023582525,0.5944605469703674,-0.0130846248939633,0.3968033492565155,0.6233201622962952
1631023582572,0.5944605469703674,-0.0159939602017402,0.3992550671100616,0.6233201622962952
1631023582697,0.5944605469703674,-0.0159939602017402,0.403635561466217,0.6233201622962952
1631023582947,0.5944605469703674,-0.0159939602017402,0.4057927131652832,0.6233201622962952
1631023583040,0.5944605469703674,-0.0159939602017402,0.4069888889789581,0.6233201622962952
1631023583087,0.5944605469703674,-0.0159939602017402,0.3771682381629944,0.6233201622962952
1631023583212,0.5713850259780884,-0.0507856495678424,0.2717416882514953,0.6233201622962952
1631023583228,0.5944605469703674,-0.0230723544955253,0.3119852244853973,0.6233201622962952
1631023583462,0.5492729544639587,-0.0618970952928066,0.2448517978191375,0.5937539935112
1631023583556,0.4963687062263489,-0.064462661743164,0.2333384901285171,0.49747234582901
1631023583665,0.4291107356548309,-0.064462661743164,0.2296124398708343,0.3511434197425842
1631023583681,0.4291107356548309,-0.0874462649226188,0.2296124398708343,0.3511434197425842
1631023583712,0.4291107356548309,0.0901719033718109,0.2296124398708343,0.3511434197425842
1631023583822,0.4291107356548309,0.1282027512788772,0.1980266124010086,0.3511434197425842
1631023583993,0.4291107356548309,0.0945454537868499,0.1207629740238189,0.3511434197425842
1631023584134,0.4291107356548309,-0.0133117353543639,0.0373741164803504,0.3511434197425842
1631023584165,0.5719628930091858,0.0069714877754449,-0.0272066760808229,0.3511434197425842
1631023584231,0.5932290554046631,0.0232654567807912,-0.0707787498831749,0.35530886054039
1631023584309,0.6210547089576721,0.0446654595434665,-0.1044984608888626,0.3728358447551727
1631023584341,0.6470062136650085,0.0902797654271125,-0.1471084058284759,0.4177912175655365
1631023584544,0.6561601161956787,0.143318772315979,-0.2319716662168502,0.4803319275379181
1631023584622,0.6561601161956787,0.1675130128860473,-0.3041837215423584,0.4966098666191101
1631023584794,0.6561601161956787,0.1766445934772491,-0.2974078953266144,0.5007585883140564
1631023584809,0.6561601161956787,0.1798257082700729,-0.1765955686569214,0.5007585883140564
1631023584997,0.6577054858207703,0.1910399943590164,-0.0159573648124933,0.5007585883140564
1631023585059,0.6873236894607544,0.2028605341911316,0.1676184087991714,0.5007585883140564
1631023585153,0.7857668995857239,0.2204441130161285,0.2903464138507843,0.506564736366272
1631023585296,0.8589330911636353,0.2366930097341537,0.3211134076118469,0.5212269425392151
1631023585311,0.8610148429870605,0.2284793406724929,0.3136536478996277,0.5337046980857849
1631023585374,0.8584248423576355,0.2040656954050064,0.3072884082794189,0.5533390045166016
1631023585639,0.8584248423576355,0.2014682441949844,0.3199035227298736,0.5609208941459656
1631023585843,0.8504989743232727,0.2014682441949844,0.3263440430164337,0.5760008096694946
1631023585874,0.8391014337539673,0.2014682441949844,0.3263440430164337,0.5791265368461609
1631023585921,0.823112428188324,0.2014682441949844,0.3263440430164337,0.5866548418998718
1631023585936,0.8372901082038879,0.2006564140319824,0.3263440430164337,0.5984955430030823
1631023586030,0.8639864921569824,0.1784558594226837,0.3263440430164337,0.5979991555213928
1631023586143,0.8838221430778503,0.1401912719011306,0.3263440430164337,0.6031429171562195
1631023586314,0.8838221430778503,0.1242792904376983,0.3263440430164337,0.6087627410888672
1631023586392,0.8845826983451843,0.1594432145357132,0.3263440430164337,0.6120197176933289
1631023586455,0.8869276642799377,0.1916059404611587,0.3206847012042999,0.6120197176933289
1631023586471,0.8960551619529724,0.1859785318374633,0.3040115535259247,0.6120197176933289
1631023586549,0.8960551619529724,0.168271854519844,0.2898491621017456,0.6120197176933289
1631023586705,0.8715607523918152,0.1511149108409881,0.2016341835260391,0.6109942197799683
