timestamp,TP9,AF7,AF8,TP10
1631023450842,0.8239807486534119,0.2712988555431366,-0.0298680141568183,0.6383171081542969
1631023451081,0.8239807486534119,0.2816319465637207,-0.0355636775493621,0.6383171081542969
1631023451299,0.8336674571037292,0.2895703017711639,-0.0437594316899776,0.6503925323486328
1631023451393,0.8496572375297546,0.2931774854660034,-0.0532239265739917,0.6545695662498474
1631023451534,0.8708245158195496,0.2906564474105835,-0.0686955377459526,0.6453487873077393
1631023451596,0.8965621590614319,0.2821787595748901,-0.0967179760336875,0.6281019449234009
1631023451612,0.929105818271637,0.2705508470535278,-0.1374922394752502,0.6178489327430725
1631023451768,0.96128648519516,0.257777601480484,-0.1783283352851867,0.6234266757965088
1631023451971,0.9793614745140076,0.4093967974185943,-0.2012514919042587,0.6483580470085144
1631023452025,0.9793614745140076,0.3959470093250274,-0.1976638585329055,0.6483580470085144
1631023452068,0.9793614745140076,0.3797658383846283,-0.172590747475624,0.6483580470085144
1631023452146,0.9793614745140076,0.3623852133750915,-0.1659281402826309,0.6483580470085144
1631023452224,0.9793614745140076,0.345630794763565,-0.1830320060253143,0.6483580470085144
1631023452271,0.9793614745140076,0.3323146998882293,-0.2199704796075821,0.6483580470085144
1631023452318,0.9793614745140076,0.3261876404285431,-0.2553072869777679,0.6483580470085144
1631023452536,0.9793614745140076,0.3280821144580841,-0.2510946989059448,0.6483580470085144
1631023452615,0.9793614745140076,0.3330625295639038,-0.2482222318649292,0.6483580470085144
1631023452677,0.9793614745140076,0.3348880410194397,-0.2419862747192382,0.6483580470085144
1631023452724,0.9793614745140076,0.4751981198787689,-0.2200084179639816,0.6483580470085144
1631023452755,0.9793614745140076,0.4751640260219574,-0.1759631484746933,0.6483580470085144
1631023452802,0.9793614745140076,0.4806151390075683,-0.120176114141941,0.6483580470085144
1631023452818,0.9793614745140076,0.4937339723110199,-0.0705946683883667,0.6483580470085144
1631023452943,0.9793614745140076,0.5166330337524414,-0.0384866930544376,0.6483580470085144
1631023453101,0.9793614745140076,0.4361743330955505,-0.0233187619596719,0.6483580470085144
1631023453226,0.9793614745140076,0.4874092042446136,-0.0188181884586811,0.6483580470085144
1631023453336,0.9793614745140076,0.536186695098877,-0.0193230863660573,0.6483580470085144
1631023453398,0.9793614745140076,0.5767871737480164,-0.0083672944456338,0.6483580470085144
1631023453554,0.9793614745140076,0.6076589226722717,0.005584493279457,0.6483580470085144
1631023453586,0.9793614745140076,0.6279262900352478,0.0223408043384552,0.6483580470085144
1631023453664,0.9793614745140076,0.6379256844520569,0.0400694496929645,0.6483580470085144
1631023453679,0.9793614745140076,0.6406424045562744,0.0571586303412914,0.6483580470085144
1631023453882,0.9793614745140076,0.6413678526878357,0.0721013769507408,0.5794749855995178
1631023454091,0.9793614745140076,0.6435447931289673,0.0841839388012886,0.5794749855995178
1631023454120,0.9793614745140076,0.554565966129303,0.0911087095737457,0.5794749855995178
1631023454198,0.9793614745140076,0.5519849061965942,0.0942128971219062,0.5794749855995178
1631023454277,0.9793614745140076,0.5420224666595459,0.0856724232435226,0.5794749855995178
1631023454339,0.9793614745140076,0.5481972098350525,0.0703499317169189,0.5794749855995178
1631023454464,0.9793614745140076,0.5455815196037292,0.0560581535100936,0.5794749855995178
1631023454573,0.9793614745140076,0.5286043286323547,0.0490520745515823,0.5794749855995178
1631023454776,0.9793614745140076,0.4877529740333557,0.050354965031147,0.5794749855995178
1631023454808,0.9793614745140076,0.4415283501148224,0.0581075884401798,0.5794749855995178
1631023454870,0.9793614745140076,0.3888149857521057,0.0683032721281051,0.5794749855995178
1631023454933,0.9793614745140076,0.3318789303302765,0.0764310806989669,0.5794749855995178
1631023455202,0.9793614745140076,0.2835051715373993,0.0790530443191528,0.5794749855995178
1631023455280,0.9793614745140076,0.2592141926288605,0.0470246486365795,0.5794749855995178
1631023455342,0.9793614745140076,0.260198563337326,0.0248232726007699,0.5794749855995178
1631023455358,0.9793614745140076,0.2555350959300995,0.0145914293825626,0.5794749855995178
1631023455514,0.9793614745140076,0.2468146085739135,0.0103550842031836,0.5794749855995178
1631023455561,0.9793614745140076,0.2409840822219848,0.0099742570891976,0.5794749855995178
1631023455876,0.9793614745140076,0.2489435672760009,0.0011096998350694,0.5794749855995178
1631023456012,0.9793614745140076,0.2767766714096069,0.0162882134318351,0.5794749855995178
1631023456061,0.9793614745140076,0.2767766714096069,0.0259803663939237,0.5794749855995178
1631023456089,0.9793614745140076,0.2767766714096069,0.0295408554375171,0.5794749855995178
1631023456150,0.9793614745140076,0.2767766714096069,0.0295309834182262,0.5794749855995178
1631023456205,0.9793614745140076,0.2511643469333648,0.031988225877285,0.5794749855995178
1631023456328,0.9793614745140076,0.1945709437131881,0.0422172546386718,0.5794749855995178
1631023456541,0.9793614745140076,0.1512919217348098,0.06089673563838,0.5794749855995178
1631023456586,0.9793614745140076,0.1383511275053024,0.0823092088103294,0.5794749855995178
1631023456613,0.9793614745140076,0.1431050151586532,0.0987931117415428,0.5794749855995178
1631023456642,0.9793614745140076,0.1384843736886978,0.1183137223124504,0.5794749855995178
1631023456861,0.9793614745140076,0.1132436841726303,0.1240639686584472,0.5794749855995178
1631023456995,0.9793614745140076,0.1467327624559402,0.1199752688407898,0.6807599067687988
1631023457088,0.8464325070381165,0.1830561310052871,0.1123111248016357,0.6508333086967468
1631023457120,0.8357274532318115,0.2183966338634491,0.1050467044115066,0.6323727369308472
1631023457185,0.8266701698303223,0.2481108009815216,0.0991697609424591,0.6323727369308472
1631023457388,0.8217010498046875,0.2481108009815216,0.09623933583498,0.6323727369308472
1631023457435,0.8228642344474792,0.2481108009815216,0.098130889236927,0.6132792234420776
1631023457622,0.8292456269264221,0.2481108009815216,0.1048293262720108,0.5936957597732544
1631023457685,0.8424817323684692,0.2481108009815216,0.1130462437868118,0.5721428990364075
1631023457763,0.8596476912498474,0.2392044812440872,0.1174982264637947,0.5488235354423523
1631023457903,0.8698699474334717,0.2352169603109359,0.1125531494617462,0.527279257774353
1631023458013,0.8682227730751038,0.2327239960432052,0.1022221818566322,0.5122236013412476
1631023458139,0.8573858737945557,0.2351815849542617,0.099248893558979,0.5048719048500061
1631023458228,0.8462936282157898,0.2453204095363617,0.082816407084465,0.4762662351131439
1631023458260,0.8383063673973083,0.2648232579231262,0.072254367172718,0.4443632364273071
1631023458302,0.845815122127533,0.2974610030651092,0.0725273862481117,0.4221755862236023
1631023458490,0.8488346934318542,0.3494551479816437,0.083561435341835,0.4097252488136291
1631023458561,0.8529033660888672,0.4141636788845062,0.1010078191757202,0.3977345824241638
1631023458608,0.8577522039413452,0.4126198887825012,0.1192116364836692,0.3786577582359314
1631023458780,0.8643022775650024,0.4081479907035827,0.1347156912088394,0.3786577582359314
1631023458846,0.8710262179374695,0.4081479907035827,0.1454228311777115,0.3786577582359314
1631023458909,0.8752620816230774,0.4081479907035827,0.1500767320394516,0.3626354336738586
1631023459050,0.8750219941139221,0.4081479907035827,0.148859366774559,0.3514367341995239
1631023459081,0.8638059496879578,0.4081479907035827,0.1468485593795776,0.3526788651943207
1631023459228,0.8358290195465088,0.4325664937496185,0.1468485593795776,0.3747979402542114
1631023459372,0.8035370111465454,0.4657067060470581,0.1468485593795776,0.3747979402542114
1631023459435,0.7916848063468933,0.5091128349304199,0.1468485593795776,0.3747979402542114
1631023459606,0.7916848063468933,0.5617396831512451,0.1468485593795776,0.3747979402542114
1631023459638,0.7916848063468933,0.6196823120117188,0.1468485593795776,0.3747979402542114
1631023459731,0.7916848063468933,0.6196823120117188,0.1468485593795776,0.3747979402542114
1631023459872,0.7916848063468933,0.6196823120117188,0.1468485593795776,0.3747979402542114
1631023459981,0.7916848063468933,0.6196823120117188,0.1468485593795776,0.3747979402542114
1631023460062,0.7916848063468933,0.6196823120117188,0.1468485593795776,0.3747979402542114
1631023460171,0.7916848063468933,0.6196823120117188,0.1468485593795776,0.3747979402542114
1631023460422,0.7916848063468933,0.6196823120117188,0.1468485593795776,0.3747979402542114
1631023460437,0.7916848063468933,0.6196823120117188,0.1468485593795776,0.3747979402542114
1631023460453,0.7916848063468933,0.1018615141510963,-0.0017237741267308,0.3747979402542114
1631023460640,0.8550733327865601,0.1050389856100082,0.0124418167397379,0.3747979402542114
1631023460781,0.8550733327865601,0.1084341928362846,0.0144050661474466,0.3747979402542114
1631023460968,0.8550733327865601,0.1038903519511222,0.0097687281668186,0.3747979402542114
1631023461015,0.8550733327865601,0.093167096376419,0.0026977031957358,0.3747979402542114
1631023461031,0.8550733327865601,0.093167096376419,-0.0053718788549304,0.3747979402542114
1631023461062,0.8550733327865601,0.093167096376419,-0.0162871144711971,0.3747979402542114
1631023461171,0.8550733327865601,0.093167096376419,-0.0296964887529611,0.3747979402542114
1631023461325,0.8550733327865601,0.093167096376419,-0.0446918047964572,0.3747979402542114
1631023461377,0.8550733327865601,0.093167096376419,-0.0582798980176448,0.3747979402542114
1631023461507,0.8550733327865601,0.093167096376419,-0.0667604580521583,0.3747979402542114
1631023461587,0.8550733327865601,0.093167096376419,-0.0670669823884964,0.3747979402542114
1631023461667,0.8550733327865601,0.0917308926582336,-0.0563050433993339,0.3747979402542114
1631023462070,0.8550733327865601,0.0894621610641479,-0.0496220476925373,0.3747979402542114
1631023462107,0.8550733327865601,0.0877968519926071,-0.0533993504941463,0.3747979402542114
1631023462137,0.8550733327865601,0.1054770648479461,-0.0674533396959304,0.3747979402542114
1631023462169,0.8550733327865601,0.1028705388307571,-0.0860240086913108,0.3747979402542114
1631023462194,0.7915103435516357,0.0799442157149314,-0.1022283434867858,0.3747979402542114
1631023462300,0.7997152805328369,0.0551468357443809,-0.1116712093353271,0.3747979402542114
1631023462410,0.799091100692749,0.0451279543340206,-0.1115132942795753,0.3747979402542114
1631023462598,0.7968418002128601,0.0370282977819442,-0.0990586429834365,0.3747979402542114
1631023462665,0.7995220422744751,0.0300352815538644,-0.0713473483920097,0.3747979402542114
1631023462695,0.7995220422744751,0.0206747017800807,-0.0638285651803016,0.3747979402542114
1631023462829,0.7995220422744751,0.0191743038594722,-0.0520044490694999,0.3747979402542114
1631023462876,0.7995220422744751,0.0387035198509693,-0.0381051786243915,0.3747979402542114
1631023463032,0.7995220422744751,0.0778034031391143,-0.0262721814215183,0.3747979402542114
1631023463196,0.7995220422744751,0.1200765296816825,-0.0220086406916379,0.3747979402542114
1631023463211,0.7995220422744751,0.1528716534376144,-0.0281909368932247,0.3747979402542114
1631023463289,0.7995220422744751,0.1728076189756393,-0.0399753116071224,0.3747979402542114
1631023463342,0.8112797737121582,0.1820200085639953,-0.0456167683005332,0.3747979402542114
1631023463455,0.8184496760368347,0.1850174814462661,-0.0351800918579101,0.3747979402542114
1631023463763,0.8154168725013733,0.1924973875284195,-0.0079293949529528,0.3747979402542114
1631023463778,0.8073886036872864,0.2147697657346725,0.0317263044416904,0.3747979402542114
1631023463794,0.8073886036872864,0.2524079382419586,0.0317263044416904,0.3747979402542114
1631023464023,0.8073886036872864,0.2933543622493744,0.0317263044416904,0.3747979402542114
1631023464149,0.8073886036872864,0.3245502710342407,0.0317263044416904,0.3747979402542114
1631023464252,0.8073886036872864,0.3427419364452362,0.0317263044416904,0.3747979402542114
1631023464295,0.8073886036872864,0.3608565032482147,0.0317263044416904,0.3747979402542114
1631023464327,0.8073886036872864,0.3790858685970306,0.0317263044416904,0.3747979402542114
1631023464449,0.8073886036872864,0.3920138478279114,0.0317263044416904,0.3747979402542114
1631023464587,0.8073886036872864,0.395839661359787,0.0317263044416904,0.3747979402542114
1631023464777,0.8073886036872864,0.3927610218524933,0.0317263044416904,0.3747979402542114
1631023464892,0.8073886036872864,0.3930818140506744,0.0317263044416904,0.3747979402542114
1631023464939,0.8073886036872864,0.4006779193878174,0.0317263044416904,0.3747979402542114
1631023464963,0.8073886036872864,0.4120387732982635,0.0317263044416904,0.3747979402542114
1631023465029,0.8073886036872864,0.4215497672557831,0.0317263044416904,0.3747979402542114
1631023465226,0.8073886036872864,0.4239923059940338,0.0317263044416904,0.3747979402542114
1631023465322,0.8073886036872864,0.4125302135944366,0.0317263044416904,0.3747979402542114
1631023465442,0.8073886036872864,0.3841127157211303,0.0317263044416904,0.3747979402542114
1631023465677,0.8073886036872864,0.3437493443489074,0.0317263044416904,0.3747979402542114
1631023465723,0.8073886036872864,0.3043054342269897,0.0317263044416904,0.3747979402542114
1631023465754,0.8073886036872864,0.2754257917404175,0.0317263044416904,0.3747979402542114
1631023465833,0.8073886036872864,0.2754257917404175,0.0317263044416904,0.3747979402542114
1631023465955,0.8073886036872864,0.2754257917404175,0.0317263044416904,0.3747979402542114
1631023465986,0.8073886036872864,0.2754257917404175,0.0317263044416904,0.3747979402542114
1631023466046,0.8073886036872864,0.2754257917404175,0.0317263044416904,0.3747979402542114
1631023466180,0.8073886036872864,0.2754257917404175,0.0317263044416904,0.3747979402542114
1631023466211,0.8073886036872864,0.2545687854290008,0.0317263044416904,0.3747979402542114
1631023466442,0.8073886036872864,0.2233840972185135,0.0317263044416904,0.3747979402542114
1631023466570,0.8073886036872864,0.1861613243818283,0.0317263044416904,0.3747979402542114
1631023466608,0.8073886036872864,0.1512102484703064,0.0317263044416904,0.3747979402542114
1631023466795,0.8073886036872864,0.1257020235061645,0.0317263044416904,0.3747979402542114
1631023466889,0.8073886036872864,0.1082676947116851,0.0317263044416904,0.3747979402542114
1631023467045,0.8073886036872864,0.1082676947116851,0.0317263044416904,0.3747979402542114
1631023467092,0.8073886036872864,0.1082676947116851,0.0317263044416904,0.3747979402542114
1631023467170,0.8073886036872864,0.1082676947116851,0.0317263044416904,0.3747979402542114
1631023467396,0.8073886036872864,0.1082676947116851,0.0317263044416904,0.3747979402542114
1631023467486,0.8073886036872864,0.1082676947116851,0.0317263044416904,0.3747979402542114
1631023467711,0.8073886036872864,-0.0758014395833015,0.0317263044416904,0.3747979402542114
1631023467755,0.8073886036872864,-0.0369439981877803,0.0317263044416904,0.3747979402542114
1631023467808,0.8073886036872864,-0.0065743317827582,0.0317263044416904,0.3747979402542114
1631023467921,0.8073886036872864,0.010561148636043,0.0317263044416904,0.3747979402542114
1631023468011,0.7413861751556396,0.0137999281287193,0.0078147752210497,0.4644672274589538
1631023468175,0.7531677484512329,0.006000580266118,-0.0022329473868012,0.4454262256622314
1631023468210,0.7723280191421509,-0.0078009669668972,-0.0084803765639662,0.4339748620986938
1631023468252,0.7947563529014587,-0.022535540163517,-0.0165057741105556,0.4266655147075653
1631023468280,0.8187605142593384,-0.0345702692866325,-0.0282320026308298,0.4182014763355255
1631023468326,0.8454524874687195,-0.0418115407228469,-0.0407015420496463,0.4063154757022857
1631023468413,0.8681601285934448,-0.042140208184719,-0.0513204671442508,0.3941234946250915
1631023468554,0.8784648776054382,-0.0342990420758724,-0.0600990615785121,0.3856435716152191
1631023468579,0.8786391615867615,-0.0123681407421827,-0.0694125071167945,0.3838181793689728
1631023468805,0.8742396235466003,0.01121705211699,-0.0786107033491134,0.3885069489479065
1631023468883,0.8709295988082886,0.0301581155508756,-0.0848740264773368,0.3948193788528442
1631023468899,0.8702986836433411,0.0391478985548019,-0.0876668915152549,0.3980188369750976
1631023468996,0.8797581195831299,0.0378405153751373,-0.1084583848714828,0.3906192183494568
1631023469324,0.887004017829895,0.0299557093530893,-0.1202686727046966,0.3802881836891174
1631023469355,0.8932870626449585,0.0211438033729791,-0.1258733570575714,0.3728988766670227
1631023469371,0.9006334543228149,0.016189232468605,-0.121976725757122,0.3710726201534271
1631023469402,0.9042626619338988,0.0184434745460748,-0.1032308861613273,0.3738997876644134
1631023469605,0.902188777923584,0.0298139844089746,-0.0707399919629097,0.3779284954071045
1631023469652,0.8935208916664124,0.0485181771218776,-0.0336878933012485,0.3832988739013672
1631023469846,0.8809477090835571,0.0673601701855659,-0.0021060619037598,0.3914914131164551
1631023469924,0.865717887878418,0.0780970379710197,0.018898757174611,0.4037438631057739
1631023470083,0.8519099950790405,0.075557917356491,0.0291851349174976,0.419525533914566
1631023470192,0.8441019654273987,0.0592944622039794,0.0311959516257047,0.4353569149971008
1631023470224,0.8429636359214783,0.0328798778355121,0.0288145598024129,0.4460243582725525
1631023470333,0.8455402851104736,0.0015555816935375,0.025016825646162,0.4482995867729187
1631023470442,0.8469415307044983,-0.0278060846030712,0.0212662201374769,0.4467460513114929
1631023470489,0.845811665058136,-0.0465311184525489,0.0187144558876752,0.4472228288650512
1631023470552,0.8421295285224915,-0.0463814102113246,0.0234841275960207,0.4517583549022674
1631023470755,0.8388658761978149,-0.0273060463368892,0.0437327809631824,0.4594814479351043
1631023470864,0.836033046245575,0.0001696455292403,0.0757350623607635,0.4680127799510956
1631023470880,0.8314263820648193,0.022716574370861,0.1037790700793266,0.4772250354290008
1631023470989,0.8274931907653809,0.0317778475582599,0.1005567908287048,0.4858517348766327
1631023471056,0.8283922672271729,0.0270909257233142,0.0852418914437294,0.4934236705303192
1631023471118,0.8388581871986389,0.0140512688085436,0.0616140142083168,0.4996583461761474
1631023471259,0.853486955165863,0.0034446390345692,0.0386783815920352,0.5054147839546204
1631023471353,0.8642992973327637,-0.0017387503758072,0.0247539486736059,0.510866641998291
1631023471524,0.8642992973327637,0.0055426401086151,0.0244138166308403,0.510866641998291
1631023471571,0.8642992973327637,0.0251081213355064,0.0390675142407417,0.510866641998291
1631023471649,0.8642992973327637,0.0516883060336113,0.0361989475786685,0.510866641998291
1631023471837,0.8642992973327637,0.0803869143128395,0.034297838807106,0.510866641998291
1631023471899,0.8757821917533875,0.108107604086399,0.0294531527906656,0.8001716732978821
1631023472043,0.8962202072143555,0.130778506398201,0.0171325989067554,0.7998915910720825
1631023472153,0.897598385810852,0.1309252381324768,-0.0092372819781303,0.8031783699989319
1631023472231,0.8910471796989441,0.1061953082680702,-0.0626638084650039,0.8127778768539429
1631023472309,0.8898187279701233,0.0655056983232498,-0.1493277102708816,0.8306825757026672
1631023472512,0.8959056735038757,0.0228413827717304,-0.2565924823284149,0.8505600094795227
1631023472715,0.901102602481842,-0.0096103409305214,-0.2223301082849502,0.8647165894508362
1631023472762,0.8966745734214783,-0.0331628955900669,-0.2027634233236313,0.8681254386901855
1631023472809,0.8828550577163696,-0.0588392615318298,-0.1960600763559341,0.861324667930603
1631023472918,0.8654046654701233,-0.0852889493107795,-0.1940405815839767,0.861324667930603
1631023472965,0.8504994511604309,-0.1040631234645843,-0.187518298625946,0.861324667930603
1631023473115,0.841810405254364,-0.1147696822881698,-0.173279270529747,0.8426417112350464
1631023473257,0.843796968460083,-0.1169037371873855,-0.1538048535585403,0.8292076587677002
1631023473542,0.8454411625862122,-0.1093393713235855,-0.1260756403207779,0.8179432153701782
1631023473573,0.8395466208457947,-0.0900495797395706,-0.0992002934217453,0.8094426393508911
1631023473807,0.8258914947509766,-0.0577883571386337,-0.0736218318343162,0.8021277785301208
1631023473854,0.8166846632957458,-0.0041994964703917,-0.0325089171528816,0.797427773475647
1631023473916,0.821574866771698,0.0672605335712432,0.0336886867880821,0.7973840832710266
1631023474010,0.8355072140693665,0.1474912315607071,0.1091060042381286,0.7981064319610596
1631023474373,0.843673825263977,0.1550300866365432,0.1677110940217971,0.7919449806213379
1631023474420,0.8357419371604919,0.1661919355392456,0.1979962736368179,0.7758426666259766
1631023474638,0.8260515332221985,0.1835205256938934,0.2058975249528885,0.7534469366073608
1631023474638,0.8240198493003845,0.2073965668678283,0.206389382481575,0.7385733127593994
1631023474732,0.8342494368553162,0.5030685663223267,0.4342489242553711,0.7347537279129028
1631023474748,0.8535405993461609,0.5387144088745117,0.4569906592369079,0.7347537279129028
1631023474748,0.875084638595581,0.5780324935913086,0.4808040559291839,0.7347537279129028
1631023474795,0.892942488193512,0.6215277910232544,0.5049211382865906,0.7515468001365662
1631023474904,0.9050493836402892,0.6698321104049683,0.5430254936218262,0.7688772082328796
1631023474951,0.915946125984192,0.6642670631408691,0.5353113412857056,0.7846405506134033
1631023474982,0.9310320615768432,0.7767083048820496,0.6341891288757324,0.799291729927063
1631023475091,0.9569201469421388,0.7665902376174927,0.6294273734092712,0.8156437277793884
1631023475174,0.9569201469421388,0.7490635514259338,0.6210954785346985,0.8304792046546936
1631023475221,0.9569201469421388,0.7193737626075745,0.6035333871841431,0.8333727121353149
1631023475533,0.9569201469421388,0.7262153625488281,0.7862597703933716,0.8333727121353149
1631023475564,0.9569201469421388,0.7262153625488281,0.7695370316505432,0.8333727121353149
1631023475611,0.9569201469421388,0.7262153625488281,0.758743405342102,0.8333727121353149
1631023475689,0.9569201469421388,0.6788080334663391,0.7547987103462219,0.8333727121353149
1631023475752,0.9569201469421388,0.7937731146812439,0.8504287004470825,0.8333727121353149
1631023475767,0.9569201469421388,0.6411974430084229,0.7560330033302307,0.8333727121353149
1631023475861,0.9569201469421388,0.6097711324691772,0.7261031270027161,0.8333727121353149
1631023475970,0.9569201469421388,0.5817176103591919,0.6984768509864807,0.8333727121353149
1631023476017,0.9569201469421388,0.5552544593811035,0.6727335453033447,0.8333727121353149
1631023476111,0.9569201469421388,0.5165001749992371,0.6477346420288086,0.8333727121353149
1631023476301,1.0001164674758911,0.5218361616134644,0.6498842239379883,0.8301354050636292
1631023476426,0.9526979327201844,0.3780132532119751,0.5735347270965576,0.8356776833534241
1631023476473,0.9265235662460328,0.3817484974861145,0.5766440033912659,0.8327815532684326
1631023476536,0.9150959253311156,0.3834542632102966,0.5804371237754822,0.8291588425636292
1631023476629,0.9072246551513672,0.3862471282482147,0.5854499936103821,0.8356061577796936
1631023476817,0.8943853974342346,0.3709267377853393,0.3070049583911896,0.8519157767295837
1631023476942,0.8779366612434387,0.3591437637805938,0.315678596496582,0.8661138415336609
1631023476973,0.8622947335243225,0.3475320041179657,0.3217900693416595,0.8661138415336609
1631023477195,0.8499484658241272,0.3515073359012604,0.327378898859024,0.8661138415336609
1631023477226,0.8406537771224976,0.0548696778714656,0.0130267729982733,0.8661138415336609
1631023477327,0.8307051062583923,0.0514527559280395,0.0291939955204725,0.8661138415336609
1631023477593,0.8185887932777405,0.0425161682069301,0.0428367592394351,0.8661138415336609
1631023477655,0.7716161012649536,0.0316803343594074,0.0528395175933837,0.872067928314209
1631023477702,0.7304957509040833,0.0231076385825872,0.0603437386453151,0.8560988306999207
1631023477780,0.7175015211105347,0.0177103672176599,0.0649272501468658,0.8390344381332397
1631023477921,0.7315957546234131,0.0133924465626478,0.064732976257801,0.824796199798584
1631023477983,0.7522661685943604,0.0083846254274249,0.0581090040504932,0.8163856863975525
1631023478014,0.7599044442176819,0.002911195391789,0.0440850220620632,0.8125198483467102
1631023478046,0.7502695322036743,-0.0033036805689334,0.0215451717376709,0.8032721877098083
1631023478205,0.7318391799926758,-0.0120731033384799,-0.0083114830777049,0.7744796276092529
1631023478252,0.7155155539512634,-0.0245240144431591,-0.0399515815079212,0.7186528444290161
1631023478455,0.7057567834854126,-0.0388275273144245,-0.0658465847373008,0.6474597454071045
1631023478518,0.7002326250076294,-0.0513378493487834,-0.0843605771660804,0.631225049495697
1631023478533,0.6980671286582947,-0.0629973784089088,-0.0997838973999023,0.62909334897995
1631023478799,0.6975262761116028,-0.074954368174076,-0.1135115176439285,0.6376039981842041
1631023478846,0.7007465958595276,-0.0802565738558769,-0.1105925887823104,0.651317298412323
1631023479083,0.7076255679130554,-0.0640983432531356,-0.0756489336490631,0.6658791899681091
1631023479114,0.7164254784584045,-0.0246790461242198,-0.018962163478136,0.6793975830078125
1631023479114,0.720332145690918,0.0212689395993948,0.0321175716817379,0.695015549659729
1631023479364,0.710880696773529,0.0565868616104126,0.0617734007537364,0.7041655778884888
1631023479395,0.6901949048042297,0.0769079476594924,0.0727634951472282,0.7032511234283447
1631023479426,0.6737292408943176,0.0889064893126487,0.0782650709152221,0.694283664226532
1631023479567,0.6834701895713806,0.1009260118007659,0.0873692035675048,0.6840983033180237
1631023479615,0.7174784541130066,0.1141884252429008,0.1010961309075355,0.6780788898468018
1631023479678,0.7542350888252258,0.1246358603239059,0.1166932731866836,0.6794232130050659
1631023479725,0.7783417105674744,0.1285504251718521,0.130191221833229,0.6873293519020081
1631023479974,0.787922739982605,0.1254321783781051,0.1385930776596069,0.6969825625419617
1631023480053,0.7922921180725098,0.1187568232417106,0.1418405026197433,0.7032842040061951
1631023480146,0.798224687576294,0.1130927801132202,0.1420253068208694,0.702407956123352
1631023480178,0.8058423399925232,0.1094378232955932,0.1394064575433731,0.6951279044151306
1631023480318,0.812827467918396,0.1019342765212059,0.126573771238327,0.6841592788696289
1631023480412,0.8198269009590149,0.0818284898996353,0.0949575081467628,0.6716277599334717
1631023480474,0.8261538147926331,0.0479306578636169,0.044666726142168,0.65879887342453
1631023480742,0.8302868604660034,0.010486633516848,-0.0103145530447363,0.6478263735771179
1631023480925,0.8322863578796387,-0.0166642423719167,-0.0502069815993309,0.641306459903717
1631023480972,0.8306396007537842,-0.029899924993515,-0.0678498521447181,0.6388368606567383
1631023480987,0.8222306370735168,-0.038522183895111,-0.0747061222791671,0.6355983018875122
1631023481084,0.7996647953987122,-0.0528393201529979,-0.0833677873015403,0.630820631980896
1631023481310,0.7663534879684448,-0.0745167508721351,-0.0979744419455528,0.6292744874954224
1631023481337,0.7362262010574341,-0.0981934368610382,-0.11746796220541,0.6352494359016418
1631023481370,0.7277848124504089,-0.1154815405607223,-0.1368115097284317,0.6495747566223145
1631023481417,0.7401468753814697,-0.1200465708971023,-0.1495304852724075,0.6677753329277039
1631023481526,0.7572002410888672,-0.115679994225502,-0.1538908928632736,0.6840851306915283
1631023481573,0.766364574432373,-0.1106973811984062,-0.1527084410190582,0.694643497467041
1631023481804,0.7656587958335876,-0.1102802157402038,-0.1501806080341339,0.6979423761367798
1631023481830,0.7603506445884705,-0.1133760213851928,-0.148067831993103,0.6935943961143494
1631023481928,0.7517942786216736,-0.1169026419520378,-0.1477099955081939,0.6821606755256653
1631023482122,0.7428542971611023,-0.1212255582213401,-0.1489046514034271,0.6668307185173035
1631023482148,0.7390317320823669,-0.1298658996820449,-0.1488828361034393,0.6516399383544922
1631023482263,0.7416547536849976,-0.1436102986335754,-0.1443136632442474,0.6400460600852966
1631023482494,0.7493686079978943,-0.1578106135129928,-0.1330786198377609,0.6330363750457764
1631023482541,0.7580249905586243,-0.1664728373289108,-0.1162666082382202,0.629783034324646
1631023482573,0.7682778239250183,-0.1675758361816406,-0.0971852764487266,0.6262428760528564
1631023482600,0.7786641716957092,-0.1639513075351715,-0.0807617530226707,0.6173731684684753
1631023482754,0.7853173017501831,-0.1611674576997757,-0.0700085908174514,0.5990034341812134
1631023482826,0.7824035286903381,-0.1642145216464996,-0.0649840608239173,0.5709452629089355
1631023482981,0.7748675346374512,-0.1730729341506958,-0.0645190477371215,0.5439902544021606
1631023483027,0.7639182806015015,-0.1807088404893875,-0.0670381039381027,0.5136010646820068
1631023483163,0.7528051733970642,-0.1765074431896209,-0.0717366263270378,0.4859479069709778
1631023483222,0.7464616894721985,-0.1537196189165115,-0.0769232884049415,0.4659475684165954
1631023483504,0.7448745965957642,-0.1163168027997016,-0.0769216120243072,0.4565117359161377
1631023483549,0.7490184307098389,-0.0771095380187034,-0.0673914849758148,0.4603433609008789
1631023483580,0.757161557674408,-0.0494518354535102,-0.0654480829834938,0.4716337919235229
1631023483631,0.7636285424232483,-0.0382567420601844,-0.0628794133663177,0.4793689846992492
1631023483740,0.7675716280937195,-0.0384984277188777,-0.0624172315001487,0.4741568565368652
1631023483800,0.7693960666656494,-0.0410699397325515,-0.0674460604786872,0.4543182551860809
1631023484044,0.7711629271507263,-0.0403294637799263,-0.0790220573544502,0.4274297654628753
1631023484104,0.7711629271507263,-0.0361552461981773,-0.0947501435875892,0.4274297654628753
1631023484160,0.7711629271507263,-0.0313740633428096,-0.1079014539718627,0.4274297654628753
1631023484241,0.7711629271507263,-0.026498407125473,-0.1128393933176994,0.4274297654628753
1631023484346,0.7711629271507263,-0.0195544064044952,-0.0863252580165863,0.4274297654628753
1631023484481,0.7711629271507263,-0.0103274956345558,-0.0672377496957779,0.4274297654628753
1631023484658,0.7711629271507263,-0.0017273634439334,-0.0553683303296566,0.4274297654628753
1631023484677,0.6484484076499939,0.0022729823831468,-0.0465218797326087,0.4274297654628753
1631023484722,0.6636176705360413,0.0003815917298197,-0.0365966707468032,0.7352550029754639
1631023484841,0.6831823587417603,-0.0041108131408691,-0.0264946017414331,0.7558444142341614
1631023484954,0.704315721988678,-0.0048842127434909,-0.0185938421636819,0.7695307731628418
1631023485124,0.7219007611274719,0.0023419433273375,0.0043032113462686,0.769248902797699
1631023485151,0.7325395941734314,0.0153250703588128,0.0182453952729702,0.7592912316322327
1631023485312,0.7336556911468506,0.0268853064626455,0.0192966572940349,0.7464008331298828
1631023485397,0.7266055345535278,0.0318715460598468,0.0086955372244119,0.7338790893554688
1631023485462,0.7214725017547607,0.0298276022076606,-0.0093228332698345,0.7203684449195862
1631023485661,0.728888213634491,0.0246521551162004,-0.029780076816678,0.7044832110404968
1631023485694,0.7461420893669128,0.024201950058341,-0.047825638204813,0.6887943744659424
1631023485766,0.7645323872566223,0.0359666533768177,-0.0602292008697986,0.678811252117157
1631023485814,0.7808115482330322,0.0612967610359191,-0.073042131960392,0.6775891780853271
1631023485980,0.7966933250427246,0.0989100188016891,-0.0759291872382164,0.6804072260856628
1631023486027,0.8107281923294067,0.1464630663394928,-0.0700505226850509,0.686897337436676
1631023486152,0.8213205337524414,0.1956207007169723,-0.0595534741878509,0.6906455159187317
1631023486308,0.8306239247322083,0.2344579100608825,-0.0514317974448204,0.6833043694496155
1631023486402,0.8484344482421875,0.2548468708992004,-0.0536408722400665,0.6630495190620422
1631023486449,0.8805245161056519,0.2576291561126709,-0.0704069137573242,0.6378734707832336
1631023486527,0.9178409576416016,0.2506800293922424,-0.0988190621137619,0.6192213892936707
1631023486695,0.9473696947097778,0.2438421100378036,-0.1293936371803283,0.6147453188896179
1631023486804,0.9633824229240416,0.2428988069295883,-0.1516539752483368,0.6241960525512695
1631023486866,0.9688231348991394,0.2483124285936355,-0.1593605577945709,0.6417749524116516
1631023487053,0.9672861099243164,0.2557834386825561,-0.1526404768228531,0.660889744758606
1631023487103,0.9581424593925476,0.2601266503334045,-0.1366988718509674,0.6768400073051453
1631023487177,0.9440491199493408,0.2576140761375427,-0.1200967729091644,0.6890145540237427
1631023487313,0.929275929927826,0.2457895278930664,-0.1108215749263763,0.6992283463478088
1631023487438,0.9205263257026672,0.2227141857147216,-0.1127168536186218,0.7090726494789124
1631023487548,0.918394148349762,0.1846719086170196,-0.1242308393120765,0.7174896597862244
1631023487595,0.9231749176979064,0.1275374740362167,-0.1421136856079101,0.7106295824050903
1631023487688,0.9293879866600036,0.0543646290898323,-0.1626366227865219,0.7059679627418518
1631023487814,0.9340679049491882,-0.0202609989792108,-0.1802412867546081,0.7090668678283691
1631023488021,0.9269165992736816,-0.0771850869059562,-0.1901267170906067,0.7216798663139343
1631023488068,0.894005537033081,-0.1115945428609848,-0.191526710987091,0.7407327890396118
1631023488130,0.8338336944580078,-0.1332530975341797,-0.1840667575597763,0.7611814737319946
1631023488177,0.7615975141525269,-0.1545399725437164,-0.1669151484966278,0.7759596705436707
1631023488333,0.7072442173957825,-0.1836664229631424,-0.1411202251911163,0.7798684239387512
1631023488505,0.6913569569587708,-0.2251903563737869,-0.1147708594799041,0.7728884220123291
1631023488536,0.7057730555534363,-0.2727478742599487,-0.0977481827139854,0.7636563181877136
1631023488661,0.7373553514480591,-0.3120826184749603,-0.0935818925499916,0.7682005167007446
1631023488692,0.8078023791313171,-0.2525656521320343,-0.0977413803339004,0.7682005167007446
1631023488817,0.8261855840682983,-0.1970810741186142,-0.1025867089629173,0.7682005167007446
1631023488926,0.8178570866584778,-0.1458455026149749,-0.1034429371356964,0.7682005167007446
1631023489056,0.8199551105499268,-0.0942099839448928,-0.0990576669573783,0.7682005167007446
1631023489119,0.8665837645530701,-0.0415232889354229,-0.0890030339360237,0.6586577892303467
1631023489244,0.9156492352485656,0.0050802640616893,-0.0732447803020477,0.6955093741416931
1631023489306,0.9453133940696716,0.0394658967852592,-0.0553100481629371,0.7052920460700989
1631023489494,0.9504255056381226,0.0638015121221542,-0.0405465178191661,0.6945974826812744
1631023489743,0.9397599101066588,0.0690177977085113,-0.0317380093038082,0.6783268451690674
1631023489790,0.9216712117195128,0.0715030059218406,-0.0304021555930376,0.6643597483634949
1631023489822,0.9025100469589232,0.0691050812602043,-0.0365282483398914,0.65318363904953
1631023489853,0.886536180973053,0.0626948475837707,-0.0497303940355777,0.6454854607582092
1631023489947,0.8817880749702454,0.0595071166753768,-0.0658113732933998,0.6437637805938721
1631023490025,0.8916103839874268,0.0668904781341552,-0.0789974704384803,0.6477149724960327
1631023490197,0.908583641052246,0.0844182074069976,-0.0855004265904426,0.6525627374649048
1631023490259,0.9220787286758424,0.1055555418133735,-0.0858641788363456,0.6537389755249023
1631023490384,0.9329702854156494,0.1094132214784622,-0.0801617428660392,0.6548492908477783
1631023490478,0.9410748481750488,0.1157204657793045,-0.0579848475754261,0.6573547720909119
1631023490681,0.9493731260299684,0.1233080029487609,0.0015925959451124,0.6660246849060059
1631023490712,0.9588325023651124,0.1300301402807235,0.0939754024147987,0.6846017837524414
1631023490806,0.9670037031173706,0.1345645189285278,0.1848368495702743,0.7097457051277161
1631023490841,0.9696941375732422,0.137931540608406,0.1910611093044281,0.7340390086174011
1631023490948,0.9689245223999025,0.1417874544858932,0.1986370682716369,0.752694845199585
1631023491120,0.9683351516723632,0.1463234573602676,0.2171667218208313,0.7644026875495911
1631023491311,0.9714207053184508,0.1545707732439041,0.2363405674695968,0.7779988646507263
1631023491342,0.9772818088531494,0.1736134886741638,0.2620072066783905,0.793141782283783
1631023491373,0.9806464910507202,0.2102515697479248,0.2877192199230194,0.7989151477813721
1631023491483,0.98114675283432,0.2745284140110016,0.3089460134506225,0.8009397387504578
1631023491530,0.9823225736618042,0.3885048031806946,0.3703272938728332,0.8056651949882507
1631023491780,0.9884984493255616,0.5178993344306946,0.4525624513626098,0.819290816783905
1631023491826,0.9988369345664978,0.6206613183021545,0.5289855003356934,0.8393609523773193
1631023492076,1.007888674736023,0.6255773901939392,0.5582025647163391,0.8576366305351257
1631023492092,1.0147507190704346,0.5953753590583801,0.5855626463890076,0.8651161193847656
1631023492221,1.01690936088562,0.5503174066543579,0.5690494179725647,0.8535279631614685
1631023492331,1.0067219734191897,0.506277859210968,0.520564079284668,0.8199626803398132
1631023492378,0.964146614074707,0.4685587882995605,0.4490804970264435,0.7722971439361572
1631023492440,0.92365825176239,0.4358467161655426,0.4130517840385437,0.7303674221038818
1631023492471,0.8955662846565247,0.4076577723026275,0.3813077807426452,0.708588719367981
1631023492549,0.8808016777038574,0.383758008480072,0.3589800000190735,0.7098380327224731
1631023492612,0.875778317451477,0.3632694482803345,0.3392439186573028,0.711499035358429
1631023492784,0.8770462274551392,0.3444344103336334,0.3158689141273498,0.7109376788139343
1631023493004,0.8853007555007935,0.3259716928005218,0.2937211692333221,0.7106397747993469
1631023493109,0.8857626914978027,0.3070669174194336,0.2805034518241882,0.7088379263877869
1631023493187,0.8641242384910583,0.2618629038333893,0.2229287177324295,0.6990853548049927
1631023493234,0.8195100426673889,0.1809741407632827,0.1065345779061317,0.6768292188644409
1631023493249,0.7644572854042053,0.0707311555743217,-0.0800597220659256,0.6456267237663269
1631023493330,0.7196555137634277,-0.0373865813016891,-0.0622778944671154,0.614351212978363
1631023493599,0.7207804322242737,-0.102564550936222,-0.0508185215294361,0.5913099646568298
1631023493662,0.7247411012649536,-0.1192259266972541,-0.0476833060383796,0.5804431438446045
1631023493708,0.7306981086730957,-0.1150199025869369,-0.0189353767782449,0.5806028842926025
1631023493755,0.7449711561203003,-0.1064129024744033,0.0160517767071723,0.5891813635826111
1631023493990,0.7610558271408081,-0.0942527949810028,0.0515301153063774,0.6005048751831055
1631023494052,0.7785475850105286,-0.0823366269469261,0.083436831831932,0.6086916923522949
1631023494240,0.7921940684318542,-0.0779281854629516,0.1089963465929031,0.6101070642471313
1631023494271,0.794050931930542,-0.0844913497567176,0.1288319677114486,0.6041213870048523
1631023494302,0.7843561172485352,-0.0982070565223693,0.1448521316051483,0.5949196219444275
1631023494475,0.772945761680603,-0.1113420873880386,0.1573710441589355,0.5884329080581665
1631023494522,0.7706905603408813,-0.1202651336789131,0.1636735796928405,0.5874440670013428
1631023494709,0.7748045921325684,-0.1269310861825943,0.1605721116065979,0.5894134044647217
1631023494803,0.7747231721878052,-0.1310098320245742,0.1501434445381164,0.591707170009613
1631023494834,0.7695489525794983,-0.1303038597106933,0.138102576136589,0.5937014222145081
1631023494865,0.76515793800354,-0.1254007667303085,0.1294590681791305,0.5999482870101929
1631023495022,0.762160062789917,-0.1216100305318832,0.1236248537898063,0.6152272820472717
1631023495225,0.7564394474029541,-0.1238349080085754,0.117725521326065,0.6380211114883423
1631023495267,0.7456348538398743,-0.1305011063814163,0.110510729253292,0.66200852394104
1631023495446,0.7328804135322571,-0.1334543824195861,0.1015534177422523,0.6796672344207764
1631023495524,0.7199075818061829,-0.1245297119021415,0.0906575471162796,0.6889011859893799
1631023495696,0.7049806714057922,-0.1006127223372459,0.0789025425910949,0.6937293410301208
1631023495743,0.6891600489616394,-0.0644361823797226,0.0703022330999374,0.699537992477417
1631023495790,0.6777464151382446,-0.025135489180684,0.065100759267807,0.7101848125457764
1631023495805,0.6704046130180359,0.0072126761078834,0.058497454971075,0.724189281463623
1631023495899,0.6588149070739746,0.0265152584761381,0.0445814542472362,0.7374578714370728
1631023496089,0.6391869187355042,0.0336009487509727,0.0245578326284885,0.7472733855247498
1631023496120,0.6209773421287537,0.0335820466279983,0.0064916810952126,0.7547205686569214
1631023496292,0.6157604455947876,0.0309325791895389,-0.0052504544146358,0.7607463002204895
1631023496511,0.6211091876029968,0.027616748586297,-0.0121376682072877,0.7647322416305542
1631023496573,0.6219198703765869,0.0261689722537994,-0.0183635987341403,0.7634424567222595
1631023496729,0.6112551093101501,0.0301009491086006,-0.0255444142967462,0.7541908025741577
1631023496792,0.593772828578949,0.039978802204132,-0.0356416441500186,0.7374425530433655
1631023496839,0.580188512802124,0.0514541864395141,-0.0489872768521308,0.715889036655426
1631023496995,0.5739791989326477,0.0572860836982727,-0.0625640675425529,0.6935203671455383
1631023497107,0.5824820399284363,0.0521450340747833,-0.0723716765642166,0.672343909740448
1631023497325,0.605341911315918,0.0347901210188865,-0.0780059099197387,0.651992917060852
1631023497388,0.6355121731758118,0.0075573101639747,-0.083192266523838,0.632297933101654
1631023497653,0.6613912582397461,-0.0232966616749763,-0.0902221947908401,0.6129936575889587
1631023497685,0.6791157126426697,-0.048188779503107,-0.0967208221554756,0.5948979258537292
1631023497716,0.6891195178031921,-0.0588461272418499,-0.0976991280913353,0.5771772861480713
1631023497905,0.6952851414680481,-0.052191112190485,-0.0918608531355857,0.5616294741630554
1631023498077,0.7009947896003723,-0.0309085622429847,-0.0825236141681671,0.5521674752235413
1631023498187,0.7068606615066528,-0.0034481105394661,-0.0753074362874031,0.5537773370742798
1631023498312,0.7121749520301819,0.0209264475852251,-0.0731144472956657,0.5703140497207642
1631023498359,0.7167237997055054,0.0343574956059455,-0.074746049940586,0.6057078242301941
1631023498483,0.7185152769088745,0.0350629761815071,-0.0759187415242195,0.6617240905761719
1631023498515,0.7351065278053284,0.4034484624862671,0.2141220867633819,0.6764315366744995
1631023498546,0.7528473734855652,0.4038599729537964,0.21791672706604,0.6922177672386169
1631023498718,0.7676021456718445,0.4084688127040863,0.2208245545625686,0.7079622149467468
1631023498780,0.7719374895095825,0.4141837656497955,0.2204776853322982,0.7233497500419617
1631023498921,0.7631733417510986,0.4169909060001373,0.2172420769929886,0.7389746904373169
1631023498983,0.7432605624198914,0.561066746711731,0.2136840969324112,0.7559492588043213
1631023499061,0.7228073477745056,0.5605495572090149,0.2121372669935226,0.7752149105072021
1631023499173,0.7123180627822876,0.5616301894187927,0.2135671526193618,0.797195315361023
1631023499392,0.7169821858406067,0.5643592476844788,0.2172722369432449,0.8247432708740234
1631023499485,0.7296261787414551,0.586709201335907,0.2212708294391632,0.8583418726921082
1631023499501,0.7348718047142029,0.6094078421592712,0.2242259234189987,0.8961918354034424
1631023499642,0.7348718047142029,0.6330789923667908,0.2264204770326614,0.8961918354034424
1631023499673,0.7348718047142029,0.7132495045661926,0.2295795381069183,0.8961918354034424
1631023499735,0.7348718047142029,0.7156010270118713,0.2352898716926574,0.8961918354034424
1631023499892,0.7348718047142029,0.7241345643997192,0.2452224045991897,0.8961918354034424
1631023499923,0.7348718047142029,0.5689919590950012,-0.0073404368013143,0.8961918354034424
1631023499970,0.7348718047142029,0.5971153378486633,-0.0028900331817567,0.8961918354034424
1631023500110,0.7348718047142029,0.624990701675415,0.0002018718369072,0.8961918354034424
1631023500238,0.7348718047142029,0.6565137505531311,0.0043465397320687,0.8961918354034424
1631023500316,0.7348718047142029,0.6973451375961304,0.0114092640578746,0.8961918354034424
1631023500488,0.7348718047142029,0.4859327971935272,0.0198891162872314,0.8961918354034424
1631023500535,0.7348718047142029,0.4886981844902038,0.0259371101856231,0.8961918354034424
1631023500551,0.7348718047142029,0.4877431690692901,0.030134854838252,0.8961918354034424
1631023500832,0.7348718047142029,0.4793523550033569,0.0340354181826114,0.8961918354034424
1631023500941,0.7348718047142029,0.4294845759868622,0.0411234907805919,0.8961918354034424
1631023501050,0.7348718047142029,0.3863628506660461,0.0529528930783271,0.8961918354034424
1631023501082,0.7348718047142029,0.3487485349178314,0.0692043155431747,0.8961918354034424
1631023501160,0.7348718047142029,-0.003242049831897,0.0843125656247139,0.8961918354034424
1631023501241,0.7072030901908875,-0.0419380739331245,0.0912084281444549,0.8961918354034424
1631023501303,0.7038357257843018,-0.1188754513859748,0.0810674801468849,0.8961918354034424
1631023501506,0.712522029876709,-0.1119741201400756,0.0698733180761337,0.8961918354034424
1631023501538,0.7276382446289062,-0.1043664440512657,0.0571026429533958,0.8961918354034424
1631023501616,0.7417564988136292,-0.0950295701622963,0.0451048016548156,0.8961918354034424
1631023501663,0.7482956647872925,-0.0808392837643623,0.0362073481082916,0.8961918354034424
1631023501803,0.7462459206581116,-0.0623211450874805,0.0299960076808929,0.8961918354034424
1631023501897,0.7406610250473022,-0.0454602427780628,0.0243674535304307,0.8961918354034424
1631023502084,0.7350148558616638,-0.0392323210835456,0.0187146756798028,0.8961918354034424
1631023502116,0.7307761311531067,-0.0399502143263816,0.0110534271225333,0.8961918354034424
1631023502178,0.7259877920150757,-0.0431408174335956,0.0024866503663361,0.8961918354034424
1631023502259,0.7196049094200134,-0.042621660977602,-0.0058341035619378,0.8961918354034424
1631023502368,0.7052517533302307,-0.035117968916893,-0.0139185590669512,0.8961918354034424
1631023502399,0.6913937330245972,-0.0224950145930051,-0.0231155268847942,0.8961918354034424
1631023502493,0.6809445023536682,-0.0092633683234453,-0.034097958356142,0.8961918354034424
1631023502696,0.6742216348648071,-0.0006397801334969,-0.0463465563952922,0.8961918354034424
1631023502758,0.6668931841850281,0.001325329998508,-0.0563374757766723,0.581207811832428
1631023502790,0.6557141542434692,-0.0020530351903289,-0.0601638257503509,0.5674805045127869
1631023502962,0.6398180723190308,-0.0059681949205696,-0.0577675066888332,0.5508251190185547
1631023502977,0.6240900158882141,-0.0066074691712856,-0.0547817349433898,0.5380849838256836
1631023503055,0.6224432587623596,-0.001055616652593,-0.0568466372787952,0.5353683233261108
1631023503196,0.643392026424408,0.0102419778704643,-0.0632349252700805,0.5446164608001709
1631023503211,0.6777824759483337,0.0227628871798515,-0.0692521557211875,0.5624411106109619
1631023503368,0.7089808583259583,0.0315142534673213,-0.0736459642648696,0.5833949446678162
1631023503540,0.7235262989997864,0.0346077419817447,-0.0802182406187057,0.6029160618782043
1631023503571,0.7244957685470581,0.0331841967999935,-0.0919926315546035,0.6185190677642822
1631023503665,0.7209066152572632,0.0299019403755664,-0.1046869829297065,0.6298102736473083
1631023503712,0.7237188220024109,0.0289525724947452,-0.1062431558966636,0.6380770802497864
1631023503852,0.7387765049934387,0.0355361476540565,-0.0879890173673629,0.6537260413169861
1631023504102,0.7671315670013428,0.051193680614233,-0.055324837565422,0.671951413154602
1631023504149,0.7972655296325684,0.0697984769940376,-0.021773375570774,0.6916898488998413
1631023504196,0.8194965720176697,0.0833401158452034,0.0021989711094647,0.7095972895622253
1631023504367,0.8311481475830078,0.0900742262601852,0.0150417564436793,0.7228783369064331
1631023504446,0.8354232311248779,0.0929832905530929,0.0219897888600826,0.7321805953979492
1631023504681,0.8369016647338867,0.0929973050951957,0.0289107505232095,0.7404138445854187
1631023504743,0.8359598517417908,0.0844656601548194,0.0384534560143947,0.7488839626312256
1631023504868,0.829766035079956,0.0628296732902526,0.0487087070941925,0.7567605376243591
1631023504946,0.8178314566612244,0.0326562002301216,0.0580252483487129,0.76422518491745
1631023504961,0.8057780265808105,0.0058764657005667,0.0698080882430076,0.7723828554153442
1631023505151,0.8023653030395508,-0.007642837241292,0.0936947241425514,0.7810907959938049
1631023505432,0.8090571761131287,-0.008447884581983,0.1353028416633606,0.7880873680114746
1631023505448,0.820676326751709,-0.0058147492818534,0.1855571120977401,0.7905975580215454
1631023505667,0.8320085406303406,-0.00921231508255,0.226195827126503,0.7875146865844727
1631023505745,0.8355147838592529,-0.0238149650394916,0.2455755472183227,0.7771362662315369
1631023505792,0.8268699049949646,-0.0487059392035007,0.2455108761787414,0.7578760385513306
1631023505901,0.8106188178062439,-0.0753205865621566,0.2371455430984497,0.7323591113090515
1631023505979,0.7955923080444336,0.0383100882172584,0.2302226722240448,0.7094072103500366
1631023505995,0.7862575650215149,0.0351130589842796,0.2254944443702697,0.7064630389213562
1631023506042,0.7803317308425903,0.0361832901835441,0.2201260328292846,0.7098084092140198
1631023506104,0.7731580138206482,0.0371462851762771,0.2132049798965454,0.7150111198425293
1631023506229,0.7593142986297607,0.0408886931836605,0.2055468559265136,0.717161238193512
1631023506245,0.7399514317512512,0.0521320365369319,0.1982006877660751,0.7136397361755371
1631023506463,0.7234031558036804,0.0700872391462326,0.1909206360578537,0.7014700770378113
1631023506510,0.7179350852966309,0.0897564142942428,0.1813858598470688,0.676357090473175
1631023506541,0.7241358757019043,0.1065990030765533,0.1624176949262619,0.6352848410606384
1631023506573,0.7358233332633972,0.1187328398227691,0.1253387629985809,0.5805589556694031
1631023506776,0.7446098327636719,0.3947043418884277,0.0675165429711341,0.5216730237007141
1631023506807,0.7434707283973694,0.3956743776798248,-0.0020053195767104,0.4691783487796783
1631023506979,0.7359293103218079,0.3940620720386505,-0.0657650008797645,0.4691783487796783
1631023507010,0.7271031737327576,0.3910194635391235,-0.1111577972769737,0.4691783487796783
1631023507073,0.7202866673469543,0.3880206048488617,-0.1405557841062545,0.4691783487796783
1631023507152,0.7114078402519226,0.3319269120693207,-0.1613148748874664,0.4691783487796783
1631023507403,0.7062990665435791,0.3327704668045044,-0.1691138297319412,0.5961782932281494
1631023507528,0.7158320546150208,0.3431727588176727,-0.1545797288417816,0.6568338871002197
1631023507622,0.7445040345191956,0.3676491975784302,-0.1152151450514793,0.7256774306297302
1631023507653,0.781602144241333,0.4004334807395935,-0.0639076605439186,0.7788791656494141
1631023507684,0.8106428384780884,0.428973913192749,-0.0183729510754346,0.8076773285865784
1631023507965,0.822163462638855,0.4450455605983734,0.0113007463514804,0.8169907927513123
1631023508059,0.8144817352294922,0.4492956399917602,0.0241752602159976,0.8155924081802368
1631023508153,0.808674156665802,0.4480240643024444,0.0268969945609569,0.8104837536811829
1631023508218,0.7984870672225952,0.4465487003326416,0.0273309051990509,0.8052046895027161
1631023508265,0.7897476553916931,0.2175558507442474,0.0301129538565874,0.8009436130523682
1631023508421,0.7920926213264465,0.2204900383949279,0.0363955795764923,0.7968445420265198
1631023508515,0.8093687891960144,0.225565493106842,0.0441575087606906,0.7905837297439575
1631023508546,0.8295174837112427,0.2314417213201522,0.0501265041530132,0.7905210256576538
1631023508702,0.8443114757537842,0.2372883409261703,0.052713006734848,0.78892582654953
1631023508749,0.8565759658813477,0.2430134713649749,0.0523496381938457,0.7856454849243164
1631023508780,0.8753439784049988,0.2463623434305191,0.0487116128206253,0.7927932143211365
1631023508986,0.8870558142662048,0.2391394078731537,0.036841582506895,0.7890198826789856
1631023509033,0.8813560009002686,0.2119887918233871,0.0109260538592934,0.7706204652786255
1631023509267,0.8606400489807129,0.1641858667135238,-0.0285683590918779,0.7410412430763245
1631023509282,0.8409597873687744,0.109353058040142,-0.0714632198214531,0.7100176215171814
1631023509423,0.8401831984519958,0.0682558044791221,-0.1040171831846237,0.6853758096694946
1631023509486,0.8691699504852295,0.0495884083211422,-0.1174599826335907,0.6681860089302063
1631023509606,0.8691699504852295,0.0434756837785244,-0.1118064522743225,0.6540930271148682
1631023509677,0.8691699504852295,0.0398087389767169,-0.0922673642635345,0.6374452114105225
1631023509739,0.8691699504852295,0.0387461297214031,-0.0674361884593963,0.6119821071624756
1631023509826,0.8793511986732483,0.042215496301651,-0.0468926765024662,0.5731765627861023
1631023509905,0.8793511986732483,0.0496656782925128,-0.0352260023355484,0.5731765627861023
1631023510112,0.8793511986732483,0.0571506693959236,-0.0287568382918834,0.5731765627861023
1631023510174,0.8793511986732483,0.0612126588821411,-0.0229627676308155,0.5731765627861023
1631023510225,0.8793511986732483,0.0605528578162193,-0.0176113862544298,0.5731765627861023
1631023510411,0.8793511986732483,0.055309772491455,-0.0141682773828506,0.5731765627861023
1631023510505,0.7885884046554565,0.0482353828847408,-0.0098348269239068,0.819914698600769
1631023510628,0.8142600059509277,0.0442365296185016,-0.0005095249507576,0.7890949845314026
1631023510678,0.8147589564323425,0.046712689101696,0.0136225344613194,0.7551300525665283
1631023510772,0.7959966063499451,0.053435917943716,0.027327723801136,0.7324846386909485
1631023510991,0.769721269607544,0.0582370944321155,0.0366690717637538,0.7228497266769409
1631023511025,0.7515153884887695,0.0570302940905094,0.040798507630825,0.7231130003929138
1631023511103,0.7479578256607056,0.0498562790453434,0.0385052002966403,0.7280802130699158
1631023511196,0.7526342272758484,0.0382651649415493,0.0269398782402277,0.7318151593208313
1631023511257,0.7554646134376526,0.0227532889693975,0.0057001784443855,0.7283771634101868
1631023511439,0.7531729936599731,0.002401532838121,-0.0204670242965221,0.7174907326698303
1631023511486,0.7482914924621582,-0.0220052674412727,-0.0432769320905208,0.7039412260055542
1631023511533,0.7467476725578308,-0.0460370481014251,-0.0587624907493591,0.6925060749053955
1631023511689,0.7588525414466858,-0.0635944977402687,-0.0662211328744888,0.6831609010696411
1631023511829,0.7736660838127136,-0.0713320150971412,-0.0639954656362533,0.6616106629371643
1631023512001,0.7852469086647034,-0.0718547031283378,-0.053089752793312,0.6366768479347229
1631023512036,0.7912281155586243,-0.0734402537345886,-0.0418143048882484,0.6225900053977966
1631023512098,0.7954400181770325,-0.0831287577748298,-0.0398109667003154,0.6255011558532715
1631023512145,0.8030070662498474,-0.1000126078724861,-0.0466249138116836,0.6362461447715759
1631023512255,0.8166706562042236,-0.113623097538948,-0.0498112291097641,0.64250248670578
1631023512395,0.8324952125549316,-0.1121681556105613,-0.0386078394949436,0.6420592069625854
1631023512551,0.8461224436759949,-0.0942782461643219,-0.0169837325811386,0.6349515318870544
1631023512692,0.8540512323379517,-0.0688921958208084,0.0033300169743597,0.6214996576309204
1631023512723,0.856493353843689,-0.0448281615972518,0.017970360815525,0.6054299473762512
1631023512754,0.8585244417190552,-0.0258163958787918,0.0320755019783973,0.5961593985557556
1631023512911,0.8632477521896362,-0.0121424226090312,0.0520937256515026,0.6000255346298218
1631023513132,0.8696026802062988,-0.0037870418746024,0.0764345377683639,0.6135483980178833
1631023513163,0.8730341196060181,-0.0004525198601186,0.0982225313782692,0.6287053227424622
1631023513210,0.8712992668151855,-0.0011509696487337,0.1118050068616867,0.6403893828392029
1631023513335,0.8622654676437378,-0.0044781924225389,0.1178897693753242,0.6535822749137878
1631023513413,0.8476234078407288,-0.0090758297592401,0.1221037358045578,0.6677430272102356
1631023513445,0.8311455845832825,-0.0117382761090993,0.1310213953256607,0.6677430272102356
1631023513632,0.8174111843109131,-0.0101390993222594,0.1452904045581817,0.6677430272102356
1631023513742,0.8071152567863464,-0.00744259217754,0.1585363745689392,0.6677430272102356
1631023513866,0.7983739376068115,-0.0113090947270393,0.1628390401601791,0.6677430272102356
1631023513997,0.7895069718360901,-0.0268499720841646,0.1558675915002823,0.6171656250953674
1631023514044,0.7761233448982239,-0.0514916069805622,0.1424208134412765,0.637408435344696
1631023514059,0.7589964270591736,-0.0771652087569236,0.129542738199234,0.6450455188751221
1631023514266,0.7438092231750488,-0.0983367636799812,0.1219433024525642,0.635965883731842
1631023514360,0.7357481122016907,-0.1137921512126922,0.1193630620837211,0.6154555678367615
1631023514407,0.7337356805801392,-0.1224456056952476,0.1182576641440391,0.5956782698631287
1631023514453,0.7281138300895691,-0.1234762668609619,0.1168186590075492,0.5956782698631287
1631023514578,0.7228500247001648,-0.1186726912856102,0.1158602535724639,0.5956782698631287
1631023514703,0.7162032127380371,-0.1139663755893707,0.1166482344269752,0.5956782698631287
1631023514813,0.7116634845733643,-0.1132329478859901,0.115565113723278,0.5956782698631287
1631023514891,0.7072687149047852,-0.1152219623327255,0.1061112880706787,0.5956782698631287
1631023515000,0.7024009227752686,-0.1152464672923088,0.0841000750660896,0.5956782698631287
1631023515219,0.6946176290512085,-0.11036366969347,0.0530395321547985,0.5968837738037109
1631023515329,0.6825050711631775,-0.1026767939329147,0.022274475544691,0.5982614755630493
1631023515516,0.6685929894447327,-0.0980098694562912,-0.0011605974286794,0.5951143503189087
1631023515595,0.6611270904541016,-0.0991707742214202,-0.0178895462304353,0.5776885151863098
1631023515688,0.6710765361785889,-0.1038881093263626,-0.0424777790904045,0.5371553897857666
1631023515688,0.6710765361785889,-0.1027933582663536,-0.0311456732451915,0.5371553897857666
1631023515719,0.6710765361785889,-0.1011793315410614,-0.0548067688941955,0.5371553897857666
1631023515923,0.6710765361785889,-0.0994753390550613,-0.072133645415306,0.5371553897857666
1631023515938,0.6710765361785889,-0.1036003082990646,-0.0960786268115043,0.5371553897857666
1631023516048,0.7090177536010742,-0.1118883267045021,-0.1194882020354271,0.5371553897857666
1631023516172,0.7520971298217773,-0.1153724193572998,-0.1238570064306259,0.7118117809295654
1631023516204,0.8141497373580933,-0.1134796664118766,-0.0955629721283912,0.7308951020240784
1631023516409,0.8652662038803101,-0.1118862554430961,-0.0441474691033363,0.750504195690155
1631023516519,0.8945264220237732,-0.1114719212055206,0.0073764845728874,0.7625208497047424
1631023516550,0.9057105779647828,-0.1173063814640045,0.0442215837538242,0.7630658745765686
1631023516831,0.9093840718269348,-0.1393312811851501,0.0796090215444564,0.7444714307785034
1631023516831,0.908246636390686,-0.1367389410734176,0.0658300444483757,0.7549235820770264
1631023516925,0.9094821810722352,-0.1509665101766586,0.0922462344169616,0.7357890009880066
1631023517034,0.90631365776062,-0.1581871807575225,0.1048621013760566,0.7357890009880066
1631023517081,0.9000604152679443,-0.1594846844673156,0.1149444058537483,0.7357890009880066
1631023517112,0.8924795985221863,-0.1607112139463424,0.1220266744494438,0.7395064830780029
1631023517284,0.8920112252235413,-0.1594748646020889,0.1306324005126953,0.7436540722846985
1631023517362,0.8976826071739197,-0.1437451094388961,0.1467544883489608,0.746731698513031
1631023517503,0.90571391582489,-0.1080737262964248,0.1717705279588699,0.7465368509292603
1631023517597,0.9097630381584167,-0.0626016929745674,0.2019426226615905,0.7460175156593323
1631023517659,0.903587281703949,-0.0288519486784935,0.228322148323059,0.7471690773963928
1631023517847,0.8842179179191589,-0.0191729087382555,0.2418760657310485,0.7420516610145569
1631023517925,0.8559023141860962,-0.0161848478019237,0.2403978854417801,0.7312910556793213
1631023517925,0.8248782157897949,-0.0121608832851052,0.2308895736932754,0.7245638966560364
1631023518041,0.7964876294136047,-0.0022003126796334,0.2242308408021927,0.7263134121894836
1631023518189,0.7689610719680786,0.0105996094644069,0.2238348573446273,0.7333276271820068
1631023518236,0.739681601524353,0.0167603306472301,0.2242212444543838,0.7393207550048828
1631023518408,0.709006130695343,0.0235214531421661,0.2194762527942657,0.7400276064872742
1631023518455,0.682755708694458,0.0301117468625307,0.2110955417156219,0.7297889590263367
1631023518627,0.667121171951294,0.0369533449411392,0.2030684202909469,0.7211775779724121
1631023518783,0.6690520644187927,0.044291041791439,0.1959350407123565,0.7104533314704895
1631023518814,0.6861097812652588,0.0496623516082763,0.1860732585191726,0.7022889256477356
1631023518876,0.7057288289070129,0.0494062565267086,0.1687252670526504,0.7006610035896301
1631023518970,0.7171851992607117,0.0411123186349868,0.1420812904834747,0.7039728760719299
1631023519064,0.7204097509384155,0.0261521879583597,0.1052735224366188,0.7037787437438965
1631023519267,0.7241417169570923,0.0099924653768539,0.0596651248633861,0.6972362399101257
1631023519298,0.7339274883270264,-0.0029687928035855,0.0117253707721829,0.6904699206352234
1631023519407,0.7498235106468201,-0.0143801840022206,-0.0297315865755081,0.6884856820106506
1631023519564,0.7705633640289307,-0.0298512391746044,-0.0608986653387546,0.6862655878067017
1631023519595,0.7941219806671143,-0.0540299266576767,-0.0852535441517829,0.6867385506629944
1631023519829,0.8206258416175842,-0.0856157168745994,-0.1037626788020134,0.6893408298492432
1631023519860,0.8452008962631226,-0.1202440038323402,-0.1125729903578758,0.6934521198272705
1631023520095,0.8631566166877747,-0.1502491235733032,-0.1078191250562667,0.6976313591003418
1631023520173,0.8725090026855469,-0.1913366764783859,-0.0779994577169418,0.6975354552268982
1631023520173,0.8723552823066711,-0.1730842888355255,-0.0943397581577301,0.6996800899505615
1631023520345,0.8620452284812927,-0.2100561559200287,-0.0599723309278488,0.6916661858558655
1631023520407,0.8400018215179443,-0.2282678633928299,-0.0397052429616451,0.6828333735466003
1631023520438,0.8139817118644714,-0.235640749335289,-0.0166226495057344,0.6743029952049255
1631023520688,0.7936770915985107,-0.2233624011278152,0.0075974287465214,0.6712932586669922
1631023520719,0.7847357392311096,-0.198832705616951,0.0291107054799795,0.6770062446594238
1631023520829,0.7800734639167786,-0.1773637235164642,0.0440811477601528,0.6874145269393921
1631023520938,0.7705240249633789,-0.1648589223623275,0.0519626252353191,0.6926069855690002
1631023521001,0.7526800632476807,-0.1559352278709411,0.0563385412096977,0.6873851418495178
1631023521094,0.7277790904045105,-0.1455185264348983,0.0613534338772296,0.6831203699111938
1631023521110,0.6971548199653625,-0.1328412443399429,0.0678506940603256,0.6738847494125366
1631023521238,0.6629045009613037,-0.1173604875802993,0.0740109533071518,0.6571670174598694
1631023521285,0.6322158575057983,-0.0951582863926887,0.0779250711202621,0.6443522572517395
1631023521394,0.6161541938781738,-0.0659982040524482,0.0783441141247749,0.6382088661193848
1631023521504,0.6156672835350037,-0.0331437066197395,0.0749493911862373,0.639943540096283
1631023521722,0.6222372651100159,0.0038853660225868,0.0705004259943962,0.6474961042404175
1631023521816,0.6254127025604248,0.0445813201367855,0.0675524845719337,0.6545283198356628
1631023522035,0.6241148114204407,0.081312745809555,0.0643247738480568,0.6581827402114868
1631023522066,0.6165792942047119,0.1019433215260505,0.0545507445931434,0.6583908796310425
1631023522066,0.6042307615280151,0.1012090668082237,0.0348369441926479,0.6556843519210815
1631023522288,0.5892997980117798,0.0867849811911583,0.0091595789417624,0.6512219309806824
1631023522303,0.5774921774864197,0.0742126181721687,-0.0142943216487765,0.6460093855857849
1631023522382,0.573246955871582,0.0732548385858535,-0.0301515124738216,0.6410765647888184
1631023522382,0.5807754397392273,0.0830306634306907,-0.0346990004181861,0.6351533532142639
1631023522506,0.5958049893379211,0.0975837782025337,-0.0253501217812299,0.619850754737854
1631023522585,0.6109127402305603,0.1111627668142318,-0.0063085928559303,0.6066074967384338
1631023522913,0.6202858686447144,0.1211276948451995,0.0182810239493846,0.5920723676681519
1631023522913,0.6199659109115601,0.1198989748954773,0.0112826712429523,0.5984635949134827
1631023522960,0.6154993176460266,0.1152978464961052,0.0154917407780885,0.5874261260032654
1631023523100,0.6131550073623657,0.1049186438322067,0.012337458319962,0.5839857459068298
1631023523131,0.6212635040283203,0.0890608951449394,0.0149486446753144,0.5838063359260559
1631023523273,0.642634391784668,0.06589987128973,0.0210553724318742,0.5881734490394592
1631023523523,0.6722133159637451,0.0399013943970203,0.0267363861203193,0.5951088666915894
1631023523539,0.7011380791664124,0.022220054641366,0.032191339880228,0.600136935710907
1631023523555,0.7238147258758545,0.0193980187177658,0.0396030098199844,0.5984354019165039
1631023523633,0.7378214001655579,0.0256989616900682,0.0492700040340423,0.5906237959861755
1631023523742,0.744588315486908,0.0308003313839435,0.0588091164827346,0.5824609994888306
1631023523883,0.7490232586860657,0.0321971550583839,0.0659426301717758,0.5845205187797546
1631023524055,0.7550957798957825,0.0314880460500717,0.066865250468254,0.600787878036499
1631023524179,0.7652021050453186,0.0279989261180162,0.0577509552240371,0.623974621295929
1631023524226,0.777432382106781,0.0205275490880012,0.0400132574141025,0.6426711082458496
1631023524242,0.7905579805374146,0.0106205865740776,0.0220628678798675,0.6517568230628967
1631023524401,0.8053339719772339,0.0029164347797632,0.0141816837713122,0.6532880663871765
1631023524417,0.8211187720298767,0.0007086574914865,0.0178795028477907,0.6513113379478455
1631023524589,0.8362072110176086,0.0035396204330027,0.0228772088885307,0.6492567658424377
1631023524682,0.8461588621139526,0.0109285609796643,0.0187707152217626,0.6475636959075928
1631023524807,0.8483157157897949,0.023055100813508,0.0047952989116311,0.6445368528366089
1631023524854,0.8431031107902527,0.0373907089233398,-0.0119671421125531,0.6389036774635315
1631023525058,0.8357873558998108,0.0492800883948802,-0.0250284615904092,0.6321402192115784
1631023525107,0.8310717344284058,0.0562586113810539,-0.0356423631310462,0.6293784976005554
1631023525138,0.8314327597618103,0.0598508119583129,-0.0489330701529979,0.632987380027771
1631023525341,0.837288498878479,0.0616452880203723,-0.0651762783527374,0.6349741220474243
1631023525450,0.8426439762115479,0.0596591271460056,-0.0774980634450912,0.634288489818573
1631023525481,0.8444981575012207,0.0516775026917457,-0.0760020688176155,0.6274714469909668
1631023525513,0.8420892953872681,0.0405948124825954,-0.0588548257946968,0.6155406832695007
1631023525622,0.8392471671104431,0.0318436995148658,-0.0375223755836486,0.6055342555046082
1631023525825,0.8385032415390015,0.0271856803447008,-0.0253937691450119,0.6049455404281616
1631023525934,0.8384262919425964,0.0235007125884294,-0.0280658509582281,0.6128292083740234
1631023525981,0.8331118226051331,0.019259363412857,-0.0407151766121387,0.623105525970459
1631023526013,0.8169410824775696,0.0172729175537824,-0.0525171570479869,0.6283590197563171
1631023526200,0.791603684425354,0.0209463313221931,-0.053272295743227,0.6243619918823242
1631023526341,0.7646414637565613,0.0363661274313926,-0.0357385911047458,0.6162815690040588
1631023526372,0.7646414637565613,0.0687892585992813,-0.0012951089302077,0.6162815690040588
1631023526466,0.7646414637565613,0.1172276586294174,0.0402587726712226,0.6162815690040588
1631023526575,0.7646414637565613,0.1198832467198371,0.0783584862947464,0.6162815690040588
1631023526684,0.7646414637565613,0.1276310384273529,0.1076571196317672,0.6162815690040588
1631023526794,0.6073680520057678,0.1382866650819778,0.1271466463804245,0.7497105598449707
1631023526950,0.6166293025016785,0.1505598276853561,0.136854887008667,0.774390459060669
1631023527028,0.6274436116218567,0.1652652621269226,0.1355094313621521,0.7938035726547241
1631023527122,0.63779217004776,0.1633605659008026,0.1235439181327819,0.8055369853973389
1631023527249,0.6592244505882263,0.1657086610794067,0.1086148992180824,0.8064324259757996
1631023527343,0.6975072026252747,0.1742046028375625,0.1015931516885757,0.7957169413566589
1631023527390,0.7447187304496765,0.1874775886535644,0.1101847738027572,0.7762752771377563
1631023527468,0.7814700603485107,0.1994881927967071,0.1347547173500061,0.7531481981277466
1631023527577,0.7980725765228271,0.2030735164880752,0.1698451191186905,0.7306868433952332
1631023527780,0.7957791686058044,0.192967340350151,0.2065704613924026,0.710547149181366
1631023527843,0.7815200090408325,0.1618126183748245,0.2344032227993011,0.6943877339363098
1631023527952,0.7653566002845764,0.1037487983703613,0.2334958761930465,0.6943877339363098
1631023528030,0.7626665830612183,0.0101973414421081,0.2256010621786117,0.6971175670623779
1631023528155,0.7769775390625,0.036950621753931,0.2173439860343933,0.6951904296875
1631023528189,0.8120589256286621,0.036950621753931,0.2156383991241455,0.6868271231651306
1631023528377,0.8552596569061279,0.036950621753931,0.2228783220052719,0.7237061858177185
1631023528486,0.8882949948310852,0.036950621753931,0.236654058098793,0.7072371244430542
1631023528502,0.90571528673172,0.036950621753931,0.2544767558574676,0.6830580830574036
1631023528705,0.9124811887741088,0.0472883842885494,0.2766674757003784,0.652832567691803
1631023528752,0.9127922654151917,0.0555763244628906,0.3042382299900055,0.6243184208869934
1631023528892,0.904677391052246,0.0587762929499149,0.3384667634963989,0.6105422973632812
1631023528989,0.8857352137565613,0.0566433742642402,0.377967894077301,0.6224389672279358
1631023529036,0.8625280857086182,0.0527448952198028,0.377967894077301,0.6626318097114563
1631023529099,0.8474215865135193,0.0322935730218887,0.377967894077301,0.6626318097114563
1631023529224,0.8478307127952576,0.0375588685274124,0.377967894077301,0.6626318097114563
1631023529302,0.8590301275253296,0.0554184280335903,0.377967894077301,0.6626318097114563
1631023529567,0.8699523210525513,0.0554184280335903,0.377967894077301,0.6626318097114563
1631023529598,0.8724819421768188,0.0554184280335903,0.377967894077301,0.6626318097114563
1631023529645,0.8570584058761597,0.0554184280335903,0.377967894077301,0.6626318097114563
1631023529770,0.8185951709747314,0.0554184280335903,0.377967894077301,0.6626318097114563
1631023529817,0.7651429176330566,-0.0415288917720317,0.377967894077301,0.6626318097114563
1631023529942,0.7234205007553101,-0.0485045947134494,0.377967894077301,0.6626318097114563
1631023530192,0.7177863717079163,-0.0429489985108375,-0.0099391462281346,0.6626318097114563
1631023530223,0.7399224638938904,-0.0316464602947235,-0.0463142059743404,0.7319116592407227
1631023530255,0.7620839476585388,-0.0253604594618082,-0.0581553615629673,0.7166213393211365
1631023530380,0.7719266414642334,-0.0275298599153757,-0.0497692488133907,0.701190710067749
1631023530426,0.7733492255210876,-0.0331477969884872,-0.0327141880989074,0.6858861446380615
1631023530551,0.772908091545105,-0.0353915020823478,-0.017284981906414,0.6695554852485657
1631023530708,0.7710428237915039,-0.0249749757349491,-0.0090331509709358,0.6524379253387451
1631023530786,0.7667648196220398,-0.0104928044602274,-0.0083052730187773,0.6361221075057983
1631023530848,0.7638797760009766,0.0103519316762685,-0.012059505097568,0.6212257146835327
1631023530942,0.7663282752037048,0.031896349042654,-0.0164119601249694,0.608204185962677
1631023531020,0.7751455903053284,0.047847680747509,-0.0194655619561672,0.5989606380462646
1631023531227,0.789867103099823,0.0566752962768077,-0.0220265444368124,0.5975068211555481
1631023531273,0.8080881834030151,0.0595562048256397,-0.0389287173748016,0.6071341037750244
1631023531445,0.8276140093803406,0.0589263550937175,-0.0533682405948638,0.6153750419616699
1631023531461,0.8391014337539673,0.0549761429429054,-0.0588455274701118,0.6335941553115845
1631023531633,0.8343328237533569,0.0475148372352123,-0.0513792969286441,0.6541458964347839
1631023531773,0.8159886002540588,0.0385751836001873,-0.0337870456278324,0.6759215593338013
1631023531851,0.7972174882888794,0.0324051603674888,-0.0127434283494949,0.6994752287864685
1631023531898,0.7886802554130554,0.0332726575434207,0.0034075470175594,0.7238646149635315
1631023532039,0.7886042594909668,0.0402364283800125,0.0089356862008571,0.7451075315475464
1631023532242,0.7886331081390381,0.0477248132228851,0.002624831860885,0.759124219417572
1631023532320,0.7756374478340149,0.0363725423812866,-0.0282268226146698,0.7709639072418213
1631023532320,0.7840650081634521,0.0482385009527206,-0.011877198703587,0.7658885717391968
1631023532367,0.7660086750984192,0.0118247987702488,-0.0398007705807685,0.7803434729576111
1631023532523,0.7623814940452576,-0.0179278124123811,-0.0429736375808715,0.7948602437973022
1631023532570,0.7720604538917542,-0.0383998788893222,-0.0393602699041366,0.8099441528320312
1631023532695,0.7918126583099365,-0.0389839187264442,-0.0336093381047248,0.819713830947876
1631023532929,0.8097473382949829,-0.0245443694293499,-0.0293600372970104,0.8209601640701294
1631023533023,0.8055793642997742,-0.0081501668319106,-0.0282605327665805,0.8191370368003845
1631023533101,0.7987719178199768,0.0025699031539261,-0.0306843724101781,0.8111231327056885
1631023533117,0.7926099896430969,0.0080002602189779,-0.0390322916209697,0.7998920679092407
1631023533167,0.78936368227005,0.0098817003890872,-0.0567503906786441,0.786809504032135
1631023533401,0.7880025506019592,0.0074976459145545,-0.077207513153553,0.7701460123062134
1631023533646,0.7872536778450012,-0.0005413326434791,-0.1064576655626297,0.7486181259155273
1631023533684,0.7897850871086121,-0.0114891324192285,-0.1345632821321487,0.7269401550292969
1631023533888,0.8026273846626282,-0.0184577330946922,-0.1433834880590438,0.7172644138336182
1631023534025,0.8308457732200623,-0.0147169521078467,-0.121628038585186,0.7284396290779114
1631023534071,0.8729045391082764,0.0016367853386327,-0.0819073319435119,0.7519276142120361
1631023534133,0.9252289533615112,0.0236708149313926,-0.0458664298057556,0.7706275582313538
1631023534227,0.9252289533615112,0.0416435301303863,-0.027818089351058,0.7706275582313538
1631023534248,0.9252289533615112,0.0489667579531669,-0.0286025963723659,0.7706275582313538
1631023534280,0.9252289533615112,0.0475260354578495,-0.0389608182013034,0.7706275582313538
1631023534381,0.9252289533615112,0.0445223860442638,-0.0459224991500377,0.7706275582313538
1631023534490,0.9252289533615112,0.0448996648192405,-0.0414385236799716,0.7706275582313538
1631023534588,0.9252289533615112,0.0468081906437873,-0.0277692265808582,0.7706275582313538
1631023534622,0.9252289533615112,0.0463752970099449,-0.0130686815828084,0.7706275582313538
1631023534658,0.9252289533615112,0.0439032241702079,-0.0007681732531636,0.7706275582313538
1631023534766,0.9252289533615112,0.0426717400550842,-0.0016329779755324,0.7706275582313538
1631023534946,0.9252289533615112,0.0433482527732849,0.0005900750984437,0.7706275582313538
1631023535121,0.8296571373939514,0.0444270521402359,0.0029007459525018,0.7706275582313538
1631023535185,0.8263208270072937,0.0468183010816574,0.007470681797713,0.7706275582313538
1631023535239,0.813450276851654,0.0528564006090164,0.0017023592954501,0.7706275582313538
1631023535364,0.7965216636657715,0.0599404536187648,-0.0112224826589226,0.8571373820304871
1631023535411,0.7819231152534485,0.0638357102870941,-0.0233642794191837,0.861273467540741
1631023535625,0.7706518769264221,0.0629851296544075,-0.0276804510504007,0.8748237490653992
1631023535704,0.7617425918579102,0.0608156248927116,-0.0208947118371725,0.8828781247138977
1631023535735,0.7543774843215942,0.0615721568465232,-0.0030348757281899,0.8788370490074158
1631023535907,0.754116415977478,0.0668569803237915,0.0218342337757349,0.8667743802070618
1631023535938,0.7685750126838684,0.075553260743618,0.0457857586443424,0.8548644185066223
1631023536176,0.7955465316772461,0.0853716805577278,0.0613544471561908,0.8477463126182556
1631023536232,0.8224018216133118,0.0941878482699394,0.0683881342411041,0.8449161648750305
1631023536310,0.8374485969543457,0.102015271782875,0.0714736655354499,0.8441571593284607
1631023536341,0.841548502445221,0.1109094023704528,0.0760937333106994,0.8420012593269348
1631023536410,0.8359477519989014,0.1214225217700004,0.0835400745272636,0.8366934657096863
1631023536479,0.825770914554596,0.1298295110464096,0.0931820794939994,0.8231470584869385
1631023536728,0.8144674897193909,0.1295334100723266,0.1040166467428207,0.8096012473106384
1631023536947,0.8065438866615295,0.1162101253867149,0.1139678359031677,0.8023082613945007
1631023537010,0.802717924118042,0.0938320904970169,0.1201799437403678,0.8006830811500549
1631023537025,0.8010173439979553,0.0741831436753273,0.1209421902894973,0.7989873290061951
1631023537056,0.7994363903999329,0.0709144175052642,0.1177681684494018,0.7937109470367432
1631023537244,0.7961580157279968,0.087983600795269,0.1129263639450073,0.7873250246047974
1631023537400,0.791134238243103,0.113867312669754,0.1050304844975471,0.7837173938751221
1631023537478,0.7816041707992554,0.1346326172351837,0.0909538120031356,0.7831209301948547
1631023537541,0.7646533250808716,0.1451458483934402,0.0712583437561988,0.7826645374298096
1631023537556,0.7405145168304443,0.1519786715507507,0.0513551607728004,0.7829373478889465
1631023537634,0.7168968319892883,0.1629329919815063,0.0352753028273582,0.786817193031311
1631023537806,0.7043960094451904,0.1775427013635635,0.0228146333247423,0.7945631146430969
1631023537853,0.7038185000419617,0.1906262189149856,0.0114898728206753,0.8031460046768188
1631023537978,0.7094849348068237,0.2021952271461486,0.0045111579820513,0.8095819354057312
1631023538088,0.7159473896026611,0.2169848531484604,0.0069830059073865,0.8131299614906311
1631023538163,0.7221787571907043,0.2354816198348999,0.0177437923848629,0.8153482675552368
1631023538257,0.7257935404777527,0.2532820999622345,0.0303030591458082,0.8153877258300781
1631023538462,0.7266556620597839,0.265681505203247,0.0415126904845237,0.8126323223114014
1631023538509,0.7289748787879944,0.2699651718139648,0.0557019375264644,0.8094295859336853
1631023538619,0.7376391291618347,0.2633944451808929,0.0790334045886993,0.8078664541244507
1631023538698,0.7549143433570862,0.2438186705112457,0.1099909022450447,0.8076858520507812
1631023538745,0.7753734588623047,0.2140493690967559,0.1405186355113983,0.8067376613616943
1631023538979,0.7902765274047852,0.1831328868865966,0.1634888052940368,0.8040175437927246
1631023539010,0.7927680611610413,0.1601524204015731,0.1767889112234115,0.799445629119873
1631023539232,0.7793745994567871,0.1449209004640579,0.1824899613857269,0.7906104326248169
1631023539294,0.7528233528137207,0.1312098056077957,0.1842949986457824,0.7744141221046448
1631023539341,0.7229067087173462,0.1153144687414169,0.1865953952074051,0.753095805644989
1631023539466,0.7034103870391846,0.0982453674077987,0.198939710855484,0.7359473705291748
1631023539575,0.6991015076637268,0.0788379907608032,0.2276879251003265,0.7318481802940369
1631023539732,0.7029789686203003,0.0526961535215377,0.2653869688510895,0.740969717502594
1631023539810,0.7074263095855713,0.0190213825553655,0.2972182631492615,0.7527390718460083
1631023539841,0.7078160643577576,-0.015836426988244,0.3149879574775696,0.7579389810562134
1631023539888,0.7048434615135193,-0.0420130416750907,0.3202925026416778,0.7538579702377319
1631023540138,0.6957464814186096,-0.0517326816916465,0.318303495645523,0.7495599985122681
1631023540138,0.6792420148849487,-0.0433623753488063,0.3102737665176391,0.7402932643890381
1631023540203,0.6572576761245728,-0.0237761884927749,0.2952988445758819,0.7297864556312561
1631023540268,0.6341670155525208,-0.0039725340902805,0.2768978476524353,0.7364609837532043
1631023540378,0.6170411705970764,0.0073191728442907,0.2615731954574585,0.7456299662590027
1631023540612,0.608020007610321,0.0075344298966228,0.2544649243354797,0.7518242001533508
1631023540628,0.6095367074012756,-0.0008948380127549,0.2561983168125152,0.762967586517334
1631023540690,0.6216995120048523,-0.0139258047565817,0.2625484466552734,0.776791512966156
1631023540846,0.6392160058021545,-0.0263266433030366,0.2666755318641662,0.7908024191856384
1631023540878,0.6617045402526855,-0.0336751043796539,0.2586843073368072,0.8003661632537842
1631023541065,0.6864012479782104,-0.0276384800672531,0.2303385138511657,0.7849006056785583
1631023541286,0.7097021341323853,-0.0014140185667201,0.1829603761434555,0.7713497281074524
1631023541349,0.725336492061615,0.0407376177608966,0.1291484981775283,0.7598069310188293
1631023541443,0.7330846190452576,0.0833933055400848,0.0848759859800338,0.7509384155273438
1631023541489,0.7351683974266052,0.1127100437879562,0.0555705279111862,0.7466282248497009
1631023541536,0.7336400151252747,0.1238532587885856,0.0337919071316719,0.7352750897407532
1631023541802,0.7313729524612427,0.1191827729344368,0.0132531384006142,0.7314175963401794
1631023541911,0.7297290563583374,0.1039645373821258,-0.0038551732432097,0.7329940795898438
1631023541974,0.730985164642334,0.0844090580940246,-0.0145202483981847,0.726067304611206
1631023542036,0.7342185378074646,0.0670798420906066,-0.0197935923933982,0.7277652621269226
1631023542192,0.7377966046333313,0.0569807142019271,-0.0252012480050325,0.7374831438064575
1631023542430,0.7394818663597107,0.054037470370531,-0.0361821837723255,0.7392496466636658
1631023542576,0.7371267080307007,0.0552118085324764,-0.0511988475918769,0.7318184971809387
1631023542608,0.7306380271911621,0.056335262954235,-0.0594025179743766,0.7192447781562805
1631023542639,0.7140925526618958,0.0536659657955169,-0.0435413345694541,0.7077436447143555
1631023542655,0.6856639981269836,0.0400114059448242,0.0014563049189746,0.7025378942489624
1631023542670,0.65043705701828,0.0077292891219258,0.0589509159326553,0.6907051801681519
1631023542779,0.6251481771469116,-0.0434781424701213,0.1099787428975105,0.6758918166160583
1631023542967,0.6201649308204651,-0.1000590175390243,0.1462693065404892,0.6646177768707275
1631023543096,0.633663535118103,-0.1396950334310531,0.1695896834135055,0.6609854102134705
1631023543143,0.6576786041259766,-0.149815171957016,0.1840428858995437,0.662442147731781
1631023543158,0.6806727051734924,-0.1350549757480621,0.1918140202760696,0.662373423576355
1631023543221,0.6965154409408569,-0.1051807850599289,0.193874642252922,0.656486988067627
1631023543424,0.7015277743339539,-0.0686675980687141,0.192999318242073,0.6424583792686462
1631023543643,0.6972849369049072,-0.0360671170055866,0.1910946369171142,0.6209335923194885
1631023543752,0.6909043788909912,-0.0167650282382965,0.1893422752618789,0.5965795516967773
1631023543767,0.6900814175605774,-0.0119489738717675,0.189587652683258,0.5764230489730835
1631023543814,0.6967076659202576,-0.0147260325029492,0.1936963498592376,0.567351758480072
1631023544208,0.7037982940673828,-0.0152234742417931,0.2000223100185394,0.5696678757667542
1631023544223,0.7061809301376343,-0.007082337513566,0.1977967172861099,0.5769603252410889
1631023544270,0.7036426663398743,0.0101460721343755,0.1743956357240677,0.5837476849555969
1631023544286,0.7005239129066467,0.0311172828078269,0.1264259368181228,0.5903903245925903
1631023544317,0.6980249881744385,0.0495959669351577,0.0636424198746681,0.5992846488952637
1631023544583,0.6961779594421387,0.0623109117150306,0.0042437822557985,0.610469400882721
1631023544645,0.695644199848175,0.0715722739696502,-0.0393108427524566,0.6195322275161743
1631023544723,0.7020969986915588,0.0817717015743255,-0.0671554282307624,0.6225722432136536
1631023544754,0.7171741127967834,0.0927550122141838,-0.0844076871871948,0.6203414797782898
1631023544770,0.732243537902832,0.0994171276688575,-0.0923917219042778,0.6164236068725586
1631023544879,0.7428015470504761,0.1000158116221427,-0.0929580256342887,0.614648163318634
1631023545036,0.7507869005203247,0.1005355864763259,-0.0868697315454483,0.6199029684066772
1631023545131,0.7579705715179443,0.1096314787864685,-0.0778505206108093,0.6280326247215271
1631023545241,0.7636201977729797,0.1285663247108459,-0.0727799609303474,0.6437697410583496
1631023545350,0.7659947276115417,0.1483720391988754,-0.0775885581970214,0.6691858172416687
1631023545413,0.7728871703147888,0.1600071340799331,-0.0950156673789024,0.699993371963501
1631023545709,0.8078738451004028,0.1501217633485794,-0.1515390127897262,0.7510690689086914
1631023545709,0.7884824275970459,0.1600582748651504,-0.1224273890256881,0.7292769551277161
1631023545725,0.8212352991104126,0.1346074789762497,-0.1710208505392074,0.7622013688087463
1631023545803,0.8246371150016785,0.1182597875595092,-0.1749052107334137,0.7644544243812561
1631023545959,0.8204644322395325,0.1042340770363807,-0.1623940765857696,0.7603530287742615
1631023546213,0.8110185265541077,0.0917828604578971,-0.1317770332098007,0.7532362341880798
1631023546243,0.7947422862052917,0.0778786689043045,-0.0845336318016052,0.7455022931098938
1631023546431,0.7745102047920227,0.0606336705386638,-0.0316622778773307,0.740105390548706
1631023546478,0.7593080997467041,0.0410555303096771,0.01022529322654,0.7412899136543274
1631023546540,0.7550868988037109,0.0197211615741252,0.0305805541574955,0.7495623230934143
1631023546540,0.7561524510383606,-0.0059617939405143,0.0313773043453693,0.7484544515609741
1631023546759,0.7602260708808899,-0.0400117076933383,0.025349048897624,0.7484544515609741
1631023546821,0.7639811635017395,-0.0827183574438095,0.0254909209907054,0.7515580654144287
1631023547009,0.7665411829948425,-0.1266360133886337,0.0379284285008907,0.74566251039505
1631023547024,0.761505126953125,-0.1606015861034393,0.0524476543068885,0.7280893921852112
1631023547071,0.7435057759284973,-0.1762867420911789,0.069477304816246,0.7001961469650269
1631023547087,0.7174007892608643,-0.172487273812294,0.0885330438613891,0.6690288186073303
1631023547199,0.6975204944610596,-0.1532008498907089,0.1094197258353233,0.6457323431968689
1631023547355,0.6948557496070862,-0.1256243139505386,0.1309820711612701,0.6352589130401611
1631023547512,0.7095894813537598,-0.098516970872879,0.1413444131612777,0.6373357176780701
1631023547527,0.7330930233001709,-0.0793728306889534,0.1384899914264679,0.6479225754737854
1631023547605,0.7603062391281128,-0.0696963369846344,0.1153416410088539,0.6668408513069153
1631023547871,0.7603062391281128,-0.0670389831066131,0.0724529847502708,0.6668408513069153
1631023547886,0.7603062391281128,-0.0562627650797367,0.0213811267167329,0.6668408513069153
1631023547918,0.7603062391281128,-0.0273930691182613,-0.0202411636710166,0.6668408513069153
1631023547996,0.7603062391281128,0.01481528673321,-0.0437364391982555,0.6668408513069153
1631023548090,0.7603062391281128,0.0541677772998809,-0.0547117106616497,0.4068282842636108
1631023548183,0.5817344188690186,0.0811599344015121,-0.0592361539602279,0.4485418796539306
1631023548402,0.6277452111244202,0.0962503179907798,-0.061404600739479,0.4878165423870086
1631023548512,0.6660551428794861,0.1039298400282859,-0.0370724909007549,0.5238922238349915
1631023548674,0.6961706876754761,0.1069862991571426,-0.0052339001558721,0.5501577854156494
1631023548721,0.7162008881568909,0.1053600534796714,0.0294284988194704,0.5599768757820129
1631023548752,0.731421709060669,0.098015695810318,0.0591183379292488,0.556441605091095
1631023548846,0.746453046798706,0.0856162756681442,0.0777458846569061,0.5492318868637085
1631023548986,0.7627333998680115,0.0697381868958473,0.0849771499633789,0.5461780428886414
1631023549018,0.7795482277870178,0.0535522177815437,0.0822446346282959,0.5455911755561829
1631023549193,0.7928984761238098,0.0389524027705192,0.0769774243235588,0.5447679758071899
1631023549224,0.8009098172187805,0.0266144108027219,0.0755387470126152,0.5451636910438538
1631023549302,0.8035422563552856,0.0073089301586151,0.0792544782161712,0.5621513724327087
1631023549599,0.817564070224762,-0.0272546894848346,0.085999883711338,0.5861473679542542
1631023549771,0.8274863362312317,-0.0765691772103309,0.0929739028215408,0.6073983907699585
1631023549818,0.8397421836853027,-0.1237572506070137,0.0976764038205146,0.6129505038261414
1631023549833,0.8488655686378479,-0.1506555080413818,0.0971820503473281,0.6150926947593689
1631023549849,0.8545224666595459,-0.1510862559080124,0.0897047072649002,0.6126073598861694
1631023549989,0.8576118350028992,-0.1348852664232254,0.0735983550548553,0.6044317483901978
1631023550036,0.85905522108078,-0.115127258002758,0.0460688062012195,0.593656063079834
1631023550273,0.8616164922714233,-0.1004603728652,0.0061921244487166,0.5892482995986938
1631023550336,0.8645848631858826,-0.0921530798077583,-0.0293449778109788,0.5968342423439026
1631023550367,0.8648886680603027,-0.0868763178586959,-0.0734353587031364,0.6123037338256836
1631023550601,0.8589707016944885,-0.0801356136798858,-0.1040876731276512,0.6270967721939087
1631023550617,0.8429750800132751,-0.0711665004491806,-0.1218583881855011,0.6428390741348267
1631023550648,0.8190039396286011,-0.0611516907811164,-0.1340337693691253,0.6662783026695251
1631023550898,0.8190039396286011,-0.0484245121479034,-0.1457289159297943,0.6662783026695251
1631023550945,0.8190039396286011,-0.0319631919264793,-0.1546109169721603,0.6662783026695251
1631023551104,0.8190039396286011,-0.0161757059395313,-0.1559304744005203,0.6662783026695251
1631023551182,0.8190039396286011,-0.0064204344525933,-0.1445395201444625,0.6662783026695251
1631023551338,0.4671077728271484,-0.0041573671624064,-0.1195251420140266,0.6662783026695251
1631023551432,0.4953833222389221,-0.0063223196193575,-0.0860643461346626,0.8258834481239319
1631023551479,0.5482227206230164,-0.0127918729558587,-0.0552331991493701,0.8516793251037598
1631023551510,0.6067243814468384,-0.02597376704216,-0.0347262062132358,0.8636648058891296
1631023551541,0.6534625887870789,-0.0453682467341423,-0.0248581208288669,0.8606225252151489
1631023552025,0.6796998381614685,-0.0647728368639946,-0.0205444619059562,0.8471686244010925
1631023552076,0.6904064416885376,-0.0780070722103118,-0.0285896826535463,0.8291727304458618
1631023552091,0.6941253542900085,-0.0843992233276367,-0.0261787436902523,0.810734748840332
1631023552122,0.6990879774093628,-0.0857126116752624,-0.0247150212526321,0.7929944396018982
1631023552201,0.7083897590637207,-0.0844709277153015,-0.0226632244884967,0.7929944396018982
1631023552357,0.7227391600608826,-0.0837137699127197,-0.0187813527882099,0.7929944396018982
1631023552372,0.7375242710113525,-0.0837760865688324,-0.0128412628546357,0.7929944396018982
1631023552435,0.7581156492233276,-0.079474538564682,-0.0060675139538943,0.7824482321739197
1631023552513,0.7730520963668823,-0.0660368204116821,-0.000829252123367,0.7754559516906738
1631023552575,0.7815303802490234,-0.0478016063570976,-0.0028966583777219,0.7624358534812927
1631023552654,0.786500096321106,-0.0332021787762641,-0.0189749132841825,0.7404933571815491
1631023552872,0.7893723249435425,-0.0239843297749757,-0.0510165616869926,0.7103695273399353
1631023552888,0.792104959487915,-0.0151062905788421,-0.0899558290839195,0.6773402094841003
1631023553090,0.7972301244735718,-0.0018661799840629,-0.1174989491701126,0.6507609486579895
1631023553110,0.8090505003929138,0.0151956100016832,-0.1205179616808891,0.6283636093139648
1631023553188,0.8062304854393005,0.033359371125698,-0.1023964062333107,0.6155598163604736
1631023553298,0.8084375858306885,0.0514148287475109,-0.0756444782018661,0.6115918159484863
1631023553407,0.8144001960754395,0.0710171088576316,-0.0466578267514705,0.6135218739509583
1631023553626,0.8197895288467407,0.0933621749281883,-0.0162841137498617,0.6208171248435974
1631023553626,0.8210687637329102,0.1169195100665092,0.0127740083262324,0.6208171248435974
1631023553672,0.8145394921302795,0.1365451067686081,0.0348513126373291,0.6208171248435974
1631023553860,0.8018734455108643,0.145683005452156,0.0461511053144931,0.6208171248435974
1631023554222,0.793154776096344,0.1416259855031967,0.0486755706369876,0.6165563464164734
1631023554269,0.797400712966919,0.1280692368745803,0.048223927617073,0.6139771342277527
1631023554300,0.8216808438301086,0.1150156781077385,0.0499105043709278,0.618757963180542
1631023554331,0.8630846738815308,0.1076531633734703,0.0555779226124286,0.618757963180542
1631023554394,0.8630846738815308,0.1067579239606857,0.0643546059727668,0.618757963180542
1631023554519,0.8630846738815308,0.1081095561385154,0.0747183933854103,0.618757963180542
1631023554675,0.8630846738815308,0.1106808558106422,0.0841433033347129,0.618757963180542
1631023554784,0.8630846738815308,0.1168917044997215,0.0894580632448196,0.618757963180542
1631023554815,0.776078462600708,0.1259535253047943,0.0871028900146484,0.832771897315979
1631023554831,0.8254862427711487,0.1327492296695709,0.0755739510059356,0.8596958518028259
1631023554940,0.85428386926651,0.132289707660675,0.055705614387989,0.8750078678131104
1631023555065,0.8608214855194092,0.1244807466864585,0.0310576390475034,0.8823165893554688
1631023555209,0.8523180484771729,0.113308198750019,0.007166130002588,0.8814429640769958
1631023555256,0.8369810581207275,0.104560762643814,-0.0112562421709299,0.8733628988265991
1631023555303,0.8222824335098267,0.1028681024909019,-0.0234914254397153,0.8607205748558044
1631023555459,0.8109332919120789,0.1095286905765533,-0.0344227030873298,0.8470854759216309
1631023555506,0.8063194155693054,0.1226779296994209,-0.0494389906525611,0.83488929271698
1631023555662,0.8063194155693054,0.1378014087677002,-0.069234512746334,0.83488929271698
1631023555850,0.8063194155693054,0.1527833938598632,-0.0895094498991966,0.83488929271698
1631023555944,0.8063194155693054,0.1630917191505432,-0.1042140126228332,0.83488929271698
1631023555959,0.8223397135734558,0.1669160574674606,-0.1130391433835029,0.8484525084495544
1631023556084,0.8345322608947754,0.1629606336355209,-0.1205969974398613,0.8544504642486572
1631023556178,0.8351278901100159,0.150810495018959,-0.1311833411455154,0.8497084975242615
1631023556274,0.8206852078437805,0.1334958970546722,-0.1431206613779068,0.8359441161155701
1631023556367,0.7920916676521301,0.1161733195185661,-0.1518319547176361,0.816260576248169
1631023556461,0.7523922920227051,0.1016050428152084,-0.1544006764888763,0.790683925151825
1631023556508,0.7163061499595642,0.0867649912834167,-0.1550775468349456,0.7583674788475037
1631023556758,0.6964851021766663,0.0681474208831787,-0.1598691940307617,0.7234618067741394
1631023556867,0.6964851021766663,0.0479036010801792,-0.1683428585529327,0.7234618067741394
1631023557058,0.6964851021766663,0.031243585050106,-0.1747514456510543,0.7234618067741394
1631023557073,0.6964851021766663,0.0172728914767503,-0.1729022115468979,0.7234618067741394
1631023557261,0.6964851021766663,-0.0004629118193406,-0.1633720993995666,0.7234618067741394
1631023557323,0.7303303480148315,-0.0278909392654895,-0.1496980190277099,0.7234618067741394
1631023557401,0.6938233971595764,-0.0637787729501724,-0.1339794844388961,0.5561631917953491
1631023557526,0.6816179752349854,-0.1006033271551132,-0.1193859875202179,0.5874833464622498
1631023557573,0.6962946653366089,-0.1289738267660141,-0.1082814037799835,0.6255980730056763
1631023557605,0.7275540232658386,-0.1400126963853836,-0.0994485914707183,0.6591004729270935
1631023557667,0.759131133556366,-0.1288996636867523,-0.0862381681799888,0.6773411631584167
1631023557792,0.779564380645752,-0.0977544784545898,-0.062563806772232,0.6806548833847046
1631023557948,0.7852641344070435,-0.0561516024172306,-0.0313418917357921,0.6755732893943787
1631023558091,0.7766201496124268,-0.0151825351640582,-0.0024627286475151,0.6695267558097839
1631023558154,0.7618509531021118,0.0186017900705337,0.0190551225095987,0.6652286052703857
1631023558185,0.7488341331481934,0.0446860939264297,0.0353939048945903,0.6629637479782104
1631023558310,0.7432334423065186,0.0667408928275108,0.0494670718908309,0.6624680757522583
1631023558357,0.7349633574485779,0.0874892845749855,0.0604149438440799,0.6627314686775208
1631023558450,0.7330595850944519,0.1076263338327407,0.0659698247909545,0.6762332320213318
1631023558575,0.7374131083488464,0.1266900897026062,0.0658570453524589,0.6852065920829773
1631023558700,0.7476049065589905,0.1439993977546692,0.0656140372157096,0.6910614967346191
1631023558778,0.7641215324401855,0.1593980342149734,0.0705500468611717,0.6958033442497253
1631023558903,0.7765737175941467,0.1719288229942321,0.0747448652982711,0.6959712505340576
1631023558997,0.7767204642295837,0.1804146319627761,0.0781824439764022,0.6858327984809875
1631023559094,0.7585920691490173,0.1836916506290435,0.079855665564537,0.6658838391304016
1631023559234,0.7221797108650208,0.1802639365196228,0.0778522118926048,0.6454097628593445
1631023559297,0.6753490567207336,0.1683156788349151,0.0679522380232811,0.6343781352043152
1631023559453,0.633823812007904,0.1491205841302871,0.0480034351348876,0.6358492374420166
1631023559500,0.6248189806938171,0.1277354508638382,0.022285234183073,0.6434768438339233
1631023559625,0.6248189806938171,0.1101082414388656,-0.00359154981561,0.6434768438339233
1631023559797,0.6248189806938171,0.0985485613346099,-0.0246680453419685,0.6434768438339233
1631023559859,0.6248189806938171,0.0913339927792549,-0.0387951433658599,0.6434768438339233
1631023559890,0.6248189806938171,0.0823944136500358,-0.042984515428543,0.6434768438339233
1631023560081,0.6248189806938171,0.0687922537326812,-0.0374395251274108,0.6434768438339233
1631023560253,0.6248189806938171,0.060993768274784,-0.0264064166694879,0.6434768438339233
1631023560284,0.6248189806938171,0.056682500988245,-0.0204391088336706,0.6434768438339233
1631023560331,0.6248189806938171,0.0569843128323555,-0.0194613691419363,0.6434768438339233
1631023560377,0.6248189806938171,0.0596031062304973,-0.0267019551247358,0.6434768438339233
1631023560830,0.6248189806938171,0.0597231388092041,-0.0332372114062309,0.6434768438339233
1631023560877,0.6248189806938171,0.0541994199156761,-0.0385790728032588,0.6934553980827332
1631023560940,0.6248189806938171,0.0433245338499546,-0.0437213331460952,0.6925907731056213
1631023560955,0.6248189806938171,0.0285107754170894,-0.045853529125452,0.690849244594574
1631023560987,0.6248189806938171,0.0113566191866993,-0.0403681769967079,0.690849244594574
1631023561033,0.6248189806938171,-0.006654629483819,-0.0267874207347631,0.690849244594574
1631023561428,0.6248189806938171,-0.0229480657726526,-0.009219542145729,0.690849244594574
1631023561428,0.6248189806938171,-0.0330943278968334,0.0067164003849029,0.690849244594574
1631023561490,0.6248189806938171,-0.0326439253985881,0.0180992018431425,0.690849244594574
1631023561537,0.6248189806938171,-0.0081785311922431,0.0242524296045303,0.690849244594574
1631023561584,0.6248189806938171,0.0211100857704877,0.0260189101099967,0.690849244594574
1631023561693,0.6248189806938171,0.0370489358901977,0.0259443912655115,0.690849244594574
1631023561849,0.6248189806938171,0.0450083725154399,0.0167088825255632,0.690849244594574
1631023561974,0.6248189806938171,0.0423228591680526,0.0062280320562422,0.6842951774597168
1631023561974,0.6248189806938171,0.0338783040642738,-0.0014462417457252,0.6826955080032349
1631023561990,0.6248189806938171,0.0261436346918344,-0.004248144570738,0.6826955080032349
1631023562145,0.6248189806938171,0.0343934930860996,-0.0016963853267952,0.6826955080032349
1631023562258,0.6248189806938171,0.0486116595566272,-0.0003691640158649,0.6826955080032349
1631023562383,0.6248189806938171,0.0943107455968856,-0.0027154018171131,0.6826955080032349
1631023562477,0.6248189806938171,0.1414331197738647,0.0202708952128887,0.6826955080032349
1631023562555,0.6248189806938171,0.1762770265340805,0.0257354862987995,0.6826955080032349
1631023562586,0.6248189806938171,0.1957865357398986,0.0162217319011688,0.6826955080032349
1631023562836,0.6248189806938171,0.213491216301918,0.0010336859850212,0.6826955080032349
1631023562976,0.6248189806938171,0.2246128320693969,-0.0111160697415471,0.6826955080032349
1631023563180,0.6248189806938171,0.2245310246944427,-0.0195642821490764,0.6826955080032349
1631023563214,0.6248189806938171,0.2136712521314621,-0.0198523178696632,0.6826955080032349
1631023563277,0.6248189806938171,0.1661796569824218,-0.0188532229512929,0.6826955080032349
1631023563417,0.6248189806938171,0.1253967434167862,-0.0089217154309153,0.6826955080032349
1631023563496,0.6248189806938171,0.1027781218290329,0.0050838752649724,0.6826955080032349
1631023563683,0.6248189806938171,0.0962056666612625,0.0173568744212389,0.6826955080032349
1631023563730,0.8613165020942688,0.097399391233921,0.0239142216742038,0.8355612754821777
1631023563761,0.8153885006904602,0.0740180611610412,0.0217740479856729,0.8047774434089661
1631023563792,0.7730675935745239,0.0492194890975952,0.0182647984474897,0.7690108418464661
1631023563917,0.7458378672599792,-0.0220145061612129,0.0123345907777547,0.7332658171653748
1631023564042,0.7391616106033325,-0.1201382279396057,-0.0168624799698591,0.7064863443374634
1631023564136,0.7504557371139526,-0.2227147072553634,-0.0413698479533195,0.6929526925086975
1631023564265,0.7682912945747375,-0.228804737329483,-0.0570072829723358,0.6888743042945862
1631023564328,0.780567467212677,-0.2335419356822967,-0.0665701329708099,0.6866410374641418
1631023564453,0.7846325039863586,-0.2358483374118805,-0.0742772966623306,0.6806561350822449
1631023564531,0.7824047207832336,-0.2296972572803497,-0.0805548280477523,0.6714016795158386
1631023564562,0.7779771685600281,-0.209491565823555,-0.0870251879096031,0.6621828675270081
1631023564640,0.7738387584686279,-0.1782800853252411,-0.0954197645187377,0.6558977961540222
1631023564812,0.7625108361244202,-0.1443969756364822,-0.1065138131380081,0.6359745860099792
1631023564906,0.7498800158500671,-0.1229145005345344,-0.1175516322255134,0.6177257299423218
1631023565062,0.7453587055206299,-0.1149681434035301,-0.1243748068809509,0.6053134799003601
1631023565078,0.7560070753097534,-0.1078890040516853,-0.1253925263881683,0.5997004508972168
1631023565203,0.7736836671829224,-0.0886579677462577,-0.1212468221783638,0.6010059118270874
1631023565331,0.7881507873535156,-0.0578074008226394,-0.1121263429522514,0.6085305213928223
1631023565377,0.7933785915374756,-0.0270347949117422,-0.0983983874320983,0.6199602484703064
1631023565487,0.7874443531036377,-0.0049137840978801,-0.0826914459466934,0.627615213394165
1631023565612,0.7729511260986328,0.0088093243539333,-0.0696863457560539,0.6252830624580383
1631023565674,0.7559472918510437,0.0198492333292961,-0.0616967044770717,0.6134551167488098
1631023565830,0.7434566617012024,0.0323764719069004,-0.0570874623954296,0.5985926389694214
1631023565877,0.7361933588981628,0.0448546782135963,-0.051928985863924,0.5881527662277222
1631023566067,0.7315776944160461,0.050931416451931,-0.0431269891560077,0.5832645297050476
1631023566177,0.726388156414032,0.044247105717659,-0.0291307363659143,0.5812225341796875
1631023566305,0.7198107838630676,0.0250113438814878,-0.0105306478217244,0.5789458155632019
1631023566398,0.7109737992286682,0.0014201755402609,0.0093677416443824,0.5724793076515198
1631023566461,0.697662353515625,-0.014249887317419,0.0263411235064268,0.5612683892250061
1631023566492,0.6818940043449402,-0.0160011313855648,0.0369963161647319,0.5504375100135803
1631023566695,0.6662532091140747,-0.0118042035028338,0.0406813770532608,0.5486404299736023
1631023566711,0.6543707847595215,-0.0131184011697769,0.0398924052715301,0.5577033758163452
1631023566836,0.6454718112945557,-0.0235869605094194,0.0384114421904087,0.5698868036270142
1631023566914,0.6376248598098755,-0.0358736626803875,0.0389731600880622,0.5766573548316956
1631023566992,0.6297126412391663,-0.0416099242866039,0.0424957647919654,0.5768300294876099
1631023567039,0.6194860935211182,-0.0419823974370956,0.0495854467153549,0.5748617649078369
1631023567354,0.6072070002555847,-0.0461561270058155,0.0602450780570507,0.5739850997924805
1631023567525,0.6003128290176392,-0.058620885014534,0.072097010910511,0.5729061961174011
1631023567604,0.6083539724349976,-0.0741457715630531,0.0812612920999527,0.5691933631896973
1631023567619,0.631105899810791,-0.0825863927602768,0.0845727920532226,0.5614387392997742
1631023567807,0.654753565788269,-0.078242152929306,0.0802871733903884,0.5502973794937134
1631023567869,0.6708092093467712,-0.0659771487116813,0.0685326009988784,0.5370233058929443
1631023567900,0.6794499158859253,-0.0549154616892337,0.0508078448474407,0.5259857773780823
1631023567994,0.6821483373641968,-0.0520229712128639,0.0295306835323572,0.5163955688476562
1631023568072,0.680192232131958,-0.0590792745351791,0.0068265018053352,0.5025889873504639
1631023568088,0.677492618560791,-0.0726791769266128,-0.0157871879637241,0.4778801202774048
1631023568215,0.6786829233169556,-0.0884110555052757,-0.0379546657204628,0.4420313239097595
1631023568418,0.6875237226486206,-0.103612907230854,-0.0599514134228229,0.4054741561412811
1631023568575,0.7015846371650696,-0.117153413593769,-0.0817008689045906,0.3798026740550995
1631023568684,0.7139065861701965,-0.1252359002828598,-0.1005989536643028,0.3706892728805542
1631023568715,0.7214249968528748,-0.120557315647602,-0.1117454171180725,0.3793429732322693
1631023568793,0.7232807278633118,-0.1013232767581939,-0.1133410036563873,0.4046410918235779
1631023568840,0.7197802662849426,-0.076539859175682,-0.1060251742601394,0.4440614879131317
1631023568949,0.713185727596283,-0.0579825937747955,-0.0916422680020332,0.4922389388084411
1631023569218,0.7083555459976196,-0.0499201044440269,-0.0715134441852569,0.5423955321311951
1631023569234,0.7117424011230469,-0.0483448952436447,-0.04868745803833,0.5879261493682861
1631023569249,0.7212506532669067,-0.0470851361751556,-0.028038702905178,0.6238769888877869
1631023569421,0.7308634519577026,-0.0438363440334796,-0.0117768328636884,0.6491417288780212
1631023569437,0.7380263805389404,-0.0400478616356849,0.0021518864668905,0.6684636473655701
1631023569515,0.7395882606506348,-0.0367288328707218,0.017488507553935,0.6874617338180542
1631023569702,0.7332677841186523,-0.0315667316317558,0.0349699892103672,0.7071055769920349
1631023569749,0.7217586636543274,-0.0212621130049228,0.0508198589086532,0.7242558598518372
1631023569827,0.7138756513595581,-0.0060359542258083,0.0601432360708713,0.7356404662132263
1631023569999,0.7177593111991882,0.0089591080322861,0.0611377879977226,0.7420966625213623
1631023570108,0.7328067421913147,0.0156790781766176,0.0556388385593891,0.7459529638290405
1631023570314,0.7500249147415161,0.0089610535651445,0.0459718219935894,0.7468735575675964
1631023570376,0.7608264088630676,-0.0092255817726254,0.0342214219272136,0.7411996722221375
1631023570407,0.7613690495491028,-0.0312934331595897,0.0204801745712757,0.7264755368232727
1631023570486,0.7486036419868469,-0.0487843789160251,0.0031224235426634,0.703330934047699
1631023570595,0.7213988304138184,-0.058622058480978,-0.0201683696359395,0.6759673953056335
1631023570626,0.6846317052841187,-0.0631030201911926,-0.0489751324057579,0.6496695876121521
1631023570736,0.6490800380706787,-0.0625738948583602,-0.0775770470499992,0.628811240196228
1631023570876,0.6251000165939331,-0.0546010546386241,-0.0974990352988243,0.614285945892334
1631023570985,0.6129000186920166,-0.0401087664067745,-0.1045419946312904,0.6034504771232605
1631023571032,0.6111987829208374,-0.0262422189116477,-0.0999508053064346,0.592882513999939
1631023571157,0.6133273243904114,-0.0211656633764505,-0.0887162461876869,0.5837405323982239
1631023571282,0.6129865646362305,-0.0263519324362278,-0.0772128999233245,0.5818997025489807
1631023571454,0.6035817265510559,-0.0340208485722541,-0.06946362555027,0.5911381840705872
1631023571501,0.5872999429702759,-0.0342673510313034,-0.065612219274044,0.6092950701713562
1631023571657,0.576489269733429,-0.0228492561727762,-0.0647120103240013,0.6304894685745239
1631023571767,0.580440878868103,-0.0051107965409755,-0.0677234753966331,0.6493539810180664
1631023571892,0.5993371605873108,0.0095787104219198,-0.0780828073620796,0.6643068790435791
1631023571954,0.6215086579322815,0.016808908432722,-0.0963408648967742,0.6743276119232178
1631023572001,0.6399165987968445,0.0177824907004833,-0.1174561232328414,0.6798084378242493
1631023572110,0.6540176272392273,0.0145004978403449,-0.1337807327508926,0.6826978921890259
1631023572253,0.6645654439926147,0.0071203992702066,-0.1405506432056427,0.685011625289917
1631023572300,0.6691367030143738,-0.0061369324102997,-0.14064621925354,0.6882083415985107
1631023572394,0.6716576814651489,-0.0240137185901403,-0.1428935378789901,0.6931982040405273
1631023572519,0.6793636679649353,-0.0405442789196968,-0.1557575762271881,0.6994919776916504
1631023572581,0.69394850730896,-0.0503448136150836,-0.1836013793945312,0.7064200043678284
1631023572691,0.7125712037086487,-0.0530087128281593,-0.2236162275075912,0.7140761017799377
1631023572862,0.7312915325164795,-0.0529868341982364,-0.26469886302948,0.7204439043998718
1631023572940,0.7489306926727295,-0.0559357553720474,-0.2936636507511139,0.7223896980285645
1631023573052,0.7612318396568298,-0.0659211054444313,-0.3046147227287292,0.7173498868942261
1631023573130,0.7649809122085571,-0.082724280655384,-0.301404058933258,0.7064226269721985
1631023573161,0.7604532241821289,-0.1004591584205627,-0.2887291610240936,0.6959285140037537
1631023573410,0.7529923915863037,-0.1086108982563018,-0.2669544517993927,0.6936874985694885
1631023573457,0.7484700679779053,-0.1035657003521919,-0.2358143478631973,0.7019859552383423
1631023573613,0.7488614916801453,-0.0920732393860817,-0.2000072002410888,0.7142605781555176
1631023573707,0.7617918848991394,-0.0766171514987945,-0.1444787830114364,0.731896698474884
1631023573707,0.7535887360572815,-0.082027181982994,-0.1676540672779083,0.7245729565620422
1631023573770,0.7736594676971436,-0.0748662501573562,-0.1306540220975875,0.7383782863616943
1631023573926,0.7837393283843994,-0.076412446796894,-0.1225291565060615,0.7440783381462097
1631023574116,0.787842333316803,-0.0813721418380737,-0.1165337711572647,0.7452661395072937
1631023574163,0.7858821749687195,-0.0878573581576347,-0.1114819794893264,0.7398052215576172
1631023574178,0.7813087105751038,-0.0933420658111572,-0.1069855764508247,0.7266659736633301
1631023574397,0.7739335298538208,-0.0980347469449043,-0.1008026227355003,0.7072592973709106
1631023574507,0.7609374523162842,-0.1050441041588783,-0.0909904912114143,0.6865949034690857
1631023574741,0.7424566149711609,-0.1153548508882522,-0.0787875577807426,0.6710866689682007
1631023574788,0.7218098044395447,-0.1259740740060806,-0.0674681290984153,0.6634351015090942
1631023574803,0.7041785717010498,-0.131594181060791,-0.0580796375870704,0.658527672290802
1631023574819,0.6905959844589233,-0.1299696564674377,-0.0472715124487876,0.6503512859344482
1631023574866,0.6839449405670166,-0.1229412108659744,-0.0319083333015441,0.6395304203033447
1631023575038,0.6864515542984009,-0.1130006611347198,-0.0125146666541695,0.6314113736152649
1631023575147,0.6961354613304138,-0.0990826860070228,0.0080144200474023,0.625620424747467
1631023575319,0.7072621583938599,-0.0789876133203506,0.0263322349637746,0.6158828139305115
1631023575350,0.7140778303146362,-0.0559382773935794,0.0394996777176857,0.598520815372467
1631023575444,0.7157837152481079,-0.0371740087866783,0.0472358353435993,0.5768420100212097
1631023575522,0.7124190330505371,-0.028303412720561,0.0520369857549667,0.5590593218803406
1631023575709,0.7039716243743896,-0.0266167744994163,0.0571904592216014,0.5499515533447266
1631023575850,0.6952494382858276,-0.0248865839093923,0.0636712908744812,0.550047755241394
1631023575944,0.6960732340812683,-0.0180624090135097,0.0689414143562316,0.5586197376251221
1631023576022,0.7083456516265869,-0.0069045047275722,0.0700827240943908,0.5727072358131409
1631023576196,0.7333527207374573,0.0103256627917289,0.0616990812122821,0.5902327299118042
1631023576196,0.7242040634155273,0.0038271725643426,0.0668950974941253,0.5853408575057983
1631023576290,0.7336992025375366,0.0114666894078254,0.0585188679397106,0.5852900147438049
1631023576384,0.7298411130905151,0.0085682300850749,0.0587188154458999,0.5720382332801819
1631023576478,0.7235165238380432,0.0049184602685272,0.0591196678578853,0.5541427731513977
1631023576524,0.7142388224601746,0.0022894092835485,0.0554110631346702,0.5426371097564697
1631023576665,0.7016373872756958,-0.0019852258265018,0.0474913939833641,0.5515349507331848
1631023576712,0.6874774098396301,-0.0104815643280744,0.0396331250667572,0.5825528502464294
1631023576868,0.6733660697937012,-0.0193608570843935,0.0366489961743354,0.6185634136199951
1631023577009,0.6596636772155762,-0.0207915790379047,0.0381675027310848,0.6428471803665161
1631023577071,0.6450121402740479,-0.0114575531333684,0.0398828014731407,0.6537967920303345
1631023577136,0.6309480667114258,0.0020675500854849,0.0393170751631259,0.6648678183555603
1631023577277,0.6176176071166992,0.0126285096630454,0.0378183685243129,0.6754018068313599
1631023577402,0.6079773902893066,0.0169476456940174,0.0379097238183021,0.6832882761955261
1631023577480,0.6081555485725403,0.0149351591244339,0.0408221520483493,0.6859659552574158
1631023577558,0.620288074016571,0.0083105638623237,0.0452104769647121,0.6860862970352173
1631023577714,0.6393944621086121,-0.0006538731395266,0.0491875708103179,0.690233588218689
1631023577824,0.6534665822982788,-0.0103545309975743,0.0485077835619449,0.6784612536430359
1631023577886,0.6571844816207886,-0.0213182531297206,0.0386131666600704,0.6739088296890259
1631023578011,0.6525511741638184,-0.0335098803043365,0.0193465109914541,0.6786410212516785
1631023578058,0.6434760093688965,-0.0458919629454612,-0.0046088998205959,0.6781747937202454
1631023578167,0.6317749619483948,-0.05599270388484,-0.0286084916442632,0.6577725410461426
1631023578279,0.619171679019928,-0.0624636523425579,-0.0507920943200588,0.6183246374130249
1631023578389,0.6100499629974365,-0.0666132196784019,-0.0690017715096473,0.5590804219245911
1631023578467,0.6100353002548218,-0.0686700940132141,-0.0822607651352882,0.5019981265068054
1631023578608,0.6283002495765686,-0.0589159876108169,-0.0870146974921226,0.5019981265068054
1631023578655,0.6694320440292358,-0.0258100945502519,-0.0848340094089508,0.5019981265068054
1631023578779,0.7231079936027527,0.0239480808377265,-0.0819476991891861,0.5019981265068054
1631023578951,0.7683293223381042,0.0704896077513694,-0.0834805816411972,0.5019981265068054
1631023579061,0.7921866178512573,0.101124107837677,-0.0906340926885604,0.5019981265068054
1631023579154,0.7995542883872986,0.1189099922776222,-0.1001196056604385,0.5019981265068054
1631023579170,0.79430091381073,0.1333830058574676,-0.107646606862545,0.5019981265068054
1631023579297,0.7976602911949158,0.1514045745134353,-0.1089386790990829,0.5198979377746582
1631023579376,0.8112156391143799,0.1729930341243744,-0.1008225828409195,0.5525299310684204
1631023579469,0.8316478133201599,0.1949991285800933,-0.1008225828409195,0.5525299310684204
1631023579735,0.8558326363563538,0.2136378735303878,-0.1008225828409195,0.5525299310684204
1631023579766,0.8837920427322388,0.2260129898786544,-0.1008225828409195,0.5525299310684204
1631023579797,0.9157543778419496,0.2321871668100357,-0.1008225828409195,0.5525299310684204
1631023579860,0.9520431756973268,0.2354224622249603,-0.1008225828409195,0.5525299310684204
1631023580049,0.9914257526397704,0.2381795942783355,-0.1008225828409195,0.5525299310684204
1631023580221,1.0277798175811768,0.2350860089063644,-0.1008225828409195,0.5525299310684204
1631023580299,1.0483229160308838,0.2179650217294693,-0.1008225828409195,0.5525299310684204
1631023580331,1.0483229160308838,0.1856758296489715,-0.1008225828409195,0.5525299310684204
1631023580362,1.0483229160308838,0.1491855978965759,-0.1008225828409195,0.5525299310684204
1631023580456,1.0483229160308838,0.1236463636159896,-0.0660097226500511,0.5525299310684204
1631023580581,1.0483229160308838,0.1122563779354095,-0.0575901120901107,0.5525299310684204
1631023580752,1.0483229160308838,0.1059414520859718,-0.0480124130845069,0.5525299310684204
1631023580815,1.0483229160308838,0.0939267203211784,-0.0450645387172699,0.5525299310684204
1631023580909,1.0483229160308838,0.0722748562693595,-0.0381125658750534,0.5525299310684204
1631023581002,1.0483229160308838,0.0417082458734512,-0.0159220993518829,0.5525299310684204
1631023581162,1.0483229160308838,0.0087700001895427,0.0187446065247058,0.5525299310684204
1631023581240,1.0483229160308838,-0.0173353087157011,0.0548843629658222,0.5525299310684204
1631023581397,1.0483229160308838,-0.0340273864567279,0.0826645195484161,0.5525299310684204
1631023581412,1.0483229160308838,-0.0487436652183532,0.0981240943074226,0.5525299310684204
1631023581553,1.0483229160308838,-0.0701835379004478,0.1017304807901382,0.5525299310684204
1631023581631,0.7457462549209595,-0.0969292894005775,0.0970505848526954,0.5525299310684204
1631023581725,0.7095506191253662,-0.1201195195317268,0.0932817086577415,0.5525299310684204
1631023581990,0.685218095779419,-0.1327342242002487,0.0933451727032661,0.7831013798713684
1631023582037,0.6433996558189392,-0.1363533735275268,0.097195491194725,0.7622912526130676
1631023582053,0.5765454769134521,-0.1357969045639038,0.0990222319960594,0.6982353925704956
1631023582092,0.4905909895896911,-0.1328924596309662,0.095034435391426,0.6555505990982056
1631023582259,0.4713267385959625,-0.1261577904224395,0.0878626108169555,0.6226240992546082
1631023582431,0.4608162343502044,-0.1128062307834625,0.0834596678614616,0.6053484678268433
1631023582525,0.4608162343502044,-0.0885596126317977,0.0830351859331131,0.6053484678268433
1631023582572,0.4608162343502044,-0.0793437287211418,0.0808551907539367,0.6053484678268433
1631023582697,0.4608162343502044,-0.0665400251746177,0.0701626688241958,0.6053484678268433
1631023582947,0.4608162343502044,-0.0531143434345722,0.0488280691206455,0.6053484678268433
1631023583040,0.4608162343502044,-0.039927240461111,0.02058513648808,0.6053484678268433
1631023583087,0.4608162343502044,-0.025321215391159,-0.0075816428288817,0.6053484678268433
1631023583212,0.446304589509964,0.0130411414429545,-0.0450146235525608,0.6053484678268433
1631023583228,0.4608162343502044,-0.0076055866666138,-0.0295589659363031,0.6053484678268433
1631023583447,0.4318831264972687,0.033394232392311,-0.0442738384008407,0.5836464166641235
1631023583572,0.4072548449039459,0.0501268021762371,-0.0429811365902423,0.5371155142784119
1631023583665,0.3743120729923248,0.0626984015107154,-0.0617839321494102,0.4773075878620147
1631023583681,0.3743120729923248,0.07343041151762,-0.0772269517183303,0.4773075878620147
1631023583712,0.3743120729923248,0.0207780804485082,-0.0842276588082313,0.4773075878620147
1631023583822,0.3743120729923248,-0.0549596063792705,-0.083818182349205,0.4773075878620147
1631023583993,0.3743120729923248,-0.1722533106803894,-0.0843057483434677,0.4773075878620147
1631023584134,0.3743120729923248,-0.3845202028751373,-0.0938909724354744,0.4773075878620147
1631023584181,0.8446857333183289,-0.3842651546001434,-0.1125408485531807,0.4773075878620147
1631023584231,0.8612036108970642,-0.3436872065067291,-0.1321869492530822,0.7063943147659302
1631023584309,0.874079704284668,-0.2811000943183899,-0.144531175494194,0.7036553025245667
1631023584356,0.8850047588348389,-0.2244612574577331,-0.1461674571037292,0.7029569149017334
1631023584544,0.8907342553138733,-0.1866936385631561,-0.1395644396543502,0.6997330188751221
1631023584622,0.8884137868881226,-0.1652445197105407,-0.1286827474832534,0.6926107406616211
1631023584794,0.8765286207199097,-0.1523656696081161,-0.1158285811543464,0.6831973195075989
1631023584809,0.8599057197570801,-0.1423889100551605,-0.113953948020935,0.6758314967155457
1631023584981,0.8416704535484314,-0.1321745216846466,-0.1093142852187156,0.6730353236198425
1631023585059,0.8263422846794128,-0.1188636422157287,-0.0809936970472335,0.6763147711753845
1631023585153,0.819401741027832,-0.1020101457834243,-0.0438144132494926,0.6858783960342407
1631023585296,0.8225934505462646,-0.0746986716985702,-0.0058454712852835,0.6987166404724121
1631023585296,0.8341293334960938,-0.048156913369894,0.022506907582283,0.7084647417068481
