timestamp,TP9,AF7,AF8,TP10
1631023450842,0.9231237173080444,-0.0115639297291636,-0.061791930347681,0.2472485899925232
1631023451081,0.9231237173080444,0.0007956860936246,-0.0789009630680084,0.2472485899925232
1631023451299,0.9233863949775696,0.0480156056582927,-0.0713242217898368,0.265398770570755
1631023451393,0.9202707409858704,0.0900650918483734,-0.0513276830315589,0.2753241956233978
1631023451534,0.9229758977890016,0.1033689752221107,-0.0319672599434852,0.2617271840572357
1631023451596,0.9425293803215028,0.0917399078607559,-0.0215889476239681,0.2346835732460022
1631023451612,0.9842172861099244,0.0751013979315757,-0.0222560912370681,0.2124893814325332
1631023451768,1.04032564163208,0.0716740936040878,-0.0276750791817903,0.1793535351753235
1631023451955,1.0969581604003906,0.1749515980482101,-0.0242238752543926,0.1578577011823654
1631023452026,1.0969581604003906,0.1831752806901931,0.0010932321893051,0.1578577011823654
1631023452068,1.0969581604003906,0.1895796656608581,0.0395549125969409,0.1578577011823654
1631023452146,1.0969581604003906,0.1951386779546737,0.0183716304600238,0.1578577011823654
1631023452240,1.0969581604003906,0.2022984325885772,-0.0221013650298118,0.1578577011823654
1631023452287,1.0969581604003906,0.2104882597923278,-0.0893782526254654,0.1578577011823654
1631023452318,1.0969581604003906,0.2154244184494018,-0.2520313262939453,0.1578577011823654
1631023452536,1.0969581604003906,0.2109887599945068,-0.2541626095771789,0.1578577011823654
1631023452615,1.0969581604003906,0.1865639388561248,-0.2322457730770111,0.1578577011823654
1631023452677,1.0969581604003906,0.1390057951211929,-0.1843197494745254,0.1578577011823654
1631023452724,1.0969581604003906,0.1848936229944229,-0.0855894386768341,0.1578577011823654
1631023452755,1.0969581604003906,0.1652995496988296,0.0445397719740867,0.1578577011823654
1631023452786,1.0969581604003906,0.1742699891328811,0.1551046222448349,0.1578577011823654
1631023452818,1.0969581604003906,0.1920187473297119,0.2183623015880584,0.1578577011823654
1631023452958,1.0969581604003906,0.1999403685331344,0.2359006553888321,0.1578577011823654
1631023453101,1.0969581604003906,0.111003428697586,0.224138930439949,0.1578577011823654
1631023453226,1.0969581604003906,0.1181464493274688,0.2016971856355667,0.1578577011823654
1631023453336,1.0969581604003906,0.1387443095445633,0.1796218305826187,0.1578577011823654
1631023453398,1.0969581604003906,0.1630676239728927,0.1773466616868972,0.1578577011823654
1631023453554,1.0969581604003906,0.1784946322441101,0.1789828091859817,0.1578577011823654
1631023453586,1.0969581604003906,0.1828963458538055,0.1889074593782425,0.1578577011823654
1631023453664,1.0969581604003906,0.1882342100143432,0.2061317265033722,0.1578577011823654
1631023453679,1.0969581604003906,0.2133828252553939,0.2254152595996856,0.1578577011823654
1631023453882,1.0969581604003906,0.2612539231777191,0.2413868010044098,0.5712608098983765
1631023454094,1.0969581604003906,0.3113446831703186,0.2551305294036865,0.5712608098983765
1631023454120,1.0969581604003906,0.2777284681797027,0.2806481122970581,0.5712608098983765
1631023454198,1.0969581604003906,0.3050633370876312,0.3729088604450226,0.5712608098983765
1631023454277,1.0969581604003906,0.3631274998188019,0.3463440239429474,0.5712608098983765
1631023454339,1.0969581604003906,0.3643585443496704,0.3203859329223633,0.5712608098983765
1631023454480,1.0969581604003906,0.3756429255008697,0.3137626051902771,0.5712608098983765
1631023454558,1.0969581604003906,0.3963495194911957,0.3313448131084442,0.5712608098983765
1631023454776,1.0969581604003906,0.464061439037323,0.3635435104370117,0.5712608098983765
1631023454808,1.0969581604003906,0.4766479432582855,0.4015553295612335,0.5712608098983765
1631023454870,1.0969581604003906,0.4670936167240143,0.4426956474781036,0.5712608098983765
1631023454933,1.0969581604003906,0.4548293054103851,0.4860564768314361,0.5712608098983765
1631023455217,1.0969581604003906,0.4468963742256164,0.5314620137214661,0.5712608098983765
1631023455280,1.0969581604003906,0.4398208856582641,0.525728702545166,0.5712608098983765
1631023455342,1.0969581604003906,0.4232156574726105,0.5076659321784973,0.5712608098983765
1631023455358,1.0969581604003906,0.414847731590271,0.4862514734268188,0.5712608098983765
1631023455530,1.0969581604003906,0.3941282033920288,0.4810800552368164,0.5712608098983765
1631023455561,1.0969581604003906,0.3756963014602661,0.5132676959037781,0.5712608098983765
1631023455876,1.0969581604003906,0.343757152557373,0.5256189703941345,0.5712608098983765
1631023456012,1.0969581604003906,0.1929601579904556,0.7066294550895691,0.5712608098983765
1631023456063,1.0969581604003906,0.1929601579904556,0.8073034286499023,0.5712608098983765
1631023456089,1.0969581604003906,0.1929601579904556,0.8442874550819397,0.5712608098983765
1631023456153,1.0969581604003906,0.1929601579904556,0.8404968976974487,0.5712608098983765
1631023456207,1.0969581604003906,-0.0956243500113487,0.820156455039978,0.5712608098983765
1631023456336,1.0969581604003906,-0.1138432919979095,0.7991542816162109,0.5712608098983765
1631023456545,1.0969581604003906,-0.0396903827786445,0.7799181342124939,0.5712608098983765
1631023456586,1.0969581604003906,0.0171120036393404,0.7612366676330566,0.5712608098983765
1631023456616,1.0969581604003906,0.0418327674269676,0.7412862181663513,0.5712608098983765
1631023456642,1.0969581604003906,0.0458168126642704,0.7414829134941101,0.5712608098983765
1631023456861,1.0969581604003906,0.0359626151621341,0.7404925227165222,0.5712608098983765
1631023456995,1.0969581604003906,0.0085618449375033,0.7387621402740479,0.2218314409255981
1631023457088,1.04058039188385,0.0243953336030244,0.7320307493209839,0.2222897112369537
1631023457120,1.047204852104187,0.0986031517386436,0.7072739005088806,0.203784555196762
1631023457185,1.0321075916290283,0.1991325467824936,0.6463631987571716,0.203784555196762
1631023457404,1.0097849369049072,0.1991325467824936,0.5390480756759644,0.203784555196762
1631023457450,0.98352313041687,0.1991325467824936,0.3960233032703399,0.2258891463279724
1631023457622,0.9508873224258424,0.1991325467824936,0.2552585005760193,0.2637344300746918
1631023457685,0.9148300886154176,0.1991325467824936,0.1612411439418792,0.2931714653968811
1631023457763,0.8793764710426331,0.1953085511922836,0.110015794634819,0.3074938356876373
1631023457903,0.8486849069595337,0.1654415130615234,0.0736769139766693,0.3112320899963379
1631023458014,0.8219390511512756,0.1415727287530899,0.0845820605754852,0.3067141473293304
1631023458145,0.7968619465827942,0.1388510912656784,0.1794312894344329,0.2979150414466858
1631023458229,0.7761598825454712,0.1897636353969574,0.1717142164707183,0.3055471181869507
1631023458261,0.7695232629776001,0.3040085732936859,0.1792362034320831,0.3125711679458618
1631023458302,0.7610605955123901,0.4424002468585968,0.1997900158166885,0.3163904845714569
1631023458490,0.7148348689079285,0.5618376731872559,0.2279477268457412,0.3194649815559387
1631023458546,0.65362948179245,0.6432130336761475,0.2593398094177246,0.3288741409778595
1631023458624,0.5904420614242554,0.6584082245826721,0.2920856177806854,0.350757896900177
1631023458784,0.5369033813476562,0.6587344408035278,0.3246589004993438,0.350757896900177
1631023458846,0.4896621406078338,0.6587344408035278,0.3575435280799866,0.350757896900177
1631023458909,0.4514840245246887,0.6587344408035278,0.3920385837554931,0.3524010479450226
1631023459065,0.4412500262260437,0.6587344408035278,0.4340378046035766,0.330762505531311
1631023459081,0.4620101153850555,0.6587344408035278,0.4934262633323669,0.2947491705417633
1631023459235,0.5040210485458374,0.6944848299026489,0.4934262633323669,0.2573030889034271
1631023459372,0.5508966445922852,0.7398448586463928,0.4934262633323669,0.2573030889034271
1631023459435,0.6074411869049072,0.797416627407074,0.4934262633323669,0.2573030889034271
1631023459606,0.6074411869049072,0.865016758441925,0.4934262633323669,0.2573030889034271
1631023459638,0.6074411869049072,0.9314122796058656,0.4934262633323669,0.2573030889034271
1631023459731,0.6074411869049072,0.9314122796058656,0.4934262633323669,0.2573030889034271
1631023459872,0.6074411869049072,0.9314122796058656,0.4934262633323669,0.2573030889034271
1631023459981,0.6074411869049072,0.9314122796058656,0.4934262633323669,0.2573030889034271
1631023460078,0.6074411869049072,0.9314122796058656,0.4934262633323669,0.2573030889034271
1631023460171,0.6074411869049072,0.9314122796058656,0.4934262633323669,0.2573030889034271
1631023460422,0.6074411869049072,0.9314122796058656,0.4934262633323669,0.2573030889034271
1631023460437,0.6074411869049072,0.9314122796058656,0.4934262633323669,0.2573030889034271
1631023460468,0.6074411869049072,0.2097277343273162,0.1211759895086288,0.2573030889034271
1631023460640,0.9347190260887146,0.2025600969791412,0.1366724967956543,0.2573030889034271
1631023460781,0.9347190260887146,0.1827809065580368,0.1308222711086273,0.2573030889034271
1631023460968,0.9347190260887146,0.1885771006345749,0.1163795441389083,0.2573030889034271
1631023460999,0.9347190260887146,0.2508176863193512,0.116236001253128,0.2573030889034271
1631023461031,0.9347190260887146,0.2508176863193512,0.1393579840660095,0.2573030889034271
1631023461062,0.9347190260887146,0.2508176863193512,0.1728336215019226,0.2573030889034271
1631023461171,0.9347190260887146,0.2508176863193512,0.1975028365850448,0.2573030889034271
1631023461327,0.9347190260887146,0.2508176863193512,0.2020881175994873,0.2573030889034271
1631023461378,0.9347190260887146,0.2508176863193512,0.1891526132822036,0.2573030889034271
1631023461507,0.9347190260887146,0.2508176863193512,0.1694263219833374,0.2573030889034271
1631023461589,0.9347190260887146,0.2508176863193512,0.1507243514060974,0.2573030889034271
1631023461667,0.9347190260887146,0.26726233959198,0.143696442246437,0.2573030889034271
1631023462071,0.9347190260887146,0.2802373468875885,0.1266725808382034,0.2573030889034271
1631023462109,0.9347190260887146,0.2838018536567688,0.0975913479924202,0.2573030889034271
1631023462139,0.9347190260887146,0.2558536827564239,0.0658379942178726,0.2573030889034271
1631023462169,0.9347190260887146,0.258184015750885,0.0430884696543216,0.2573030889034271
1631023462194,0.7508773803710938,0.2802119851112366,0.033658567816019,0.2573030889034271
1631023462300,0.7539076209068298,0.2753117978572845,0.0322853177785873,0.2573030889034271
1631023462426,0.7486041188240051,0.1732074469327926,0.0219723992049694,0.2573030889034271
1631023462592,0.7319464087486267,0.1683634519577026,-0.0125887487083673,0.2573030889034271
1631023462666,0.7105938196182251,0.1567015647888183,-0.0690044313669204,0.2573030889034271
1631023462696,0.7105938196182251,0.1412849128246307,-0.1311705708503723,0.2573030889034271
1631023462829,0.7105938196182251,0.1338371783494949,-0.1807651668787002,0.2573030889034271
1631023462876,0.7105938196182251,0.1458224803209304,-0.1990018784999847,0.2573030889034271
1631023463032,0.7105938196182251,0.1722909659147262,-0.1960406303405761,0.2573030889034271
1631023463196,0.7105938196182251,0.1980861872434616,-0.1897106617689132,0.2573030889034271
1631023463227,0.7105938196182251,0.2124670147895813,-0.1779094189405441,0.2573030889034271
1631023463289,0.7105938196182251,0.2189197391271591,-0.1528288722038269,0.2573030889034271
1631023463343,0.7012317180633545,0.224008247256279,-0.1162271946668624,0.2573030889034271
1631023463456,0.6880499720573425,0.2343784719705581,-0.0842858776450157,0.2573030889034271
1631023463763,0.6795904040336609,0.2315118610858917,-0.0684930831193924,0.2573030889034271
1631023463778,0.6661880612373352,0.2199920415878296,-0.0748943015933036,0.2573030889034271
1631023463794,0.6661880612373352,0.2126781940460205,-0.0748943015933036,0.2573030889034271
1631023464028,0.6661880612373352,0.2375395596027374,-0.0748943015933036,0.2573030889034271
1631023464150,0.6661880612373352,0.3097703754901886,-0.0748943015933036,0.2573030889034271
1631023464253,0.6661880612373352,0.4080372750759125,-0.0748943015933036,0.2573030889034271
1631023464296,0.6661880612373352,0.4261371195316314,-0.0748943015933036,0.2573030889034271
1631023464328,0.6661880612373352,0.444467544555664,-0.0748943015933036,0.2573030889034271
1631023464450,0.6661880612373352,0.4577993154525757,-0.0748943015933036,0.2573030889034271
1631023464589,0.6661880612373352,0.4646705389022827,-0.0748943015933036,0.2573030889034271
1631023464778,0.6661880612373352,0.4696528911590576,-0.0748943015933036,0.2573030889034271
1631023464899,0.6661880612373352,0.5194082260131836,-0.0748943015933036,0.2573030889034271
1631023464940,0.6661880612373352,0.5573793053627014,-0.0748943015933036,0.2573030889034271
1631023464964,0.6661880612373352,0.5720324516296387,-0.0748943015933036,0.2573030889034271
1631023465029,0.6661880612373352,0.5679147839546204,-0.0748943015933036,0.2573030889034271
1631023465226,0.6661880612373352,0.5601193308830261,-0.0748943015933036,0.2573030889034271
1631023465323,0.6661880612373352,0.5552827715873718,-0.0748943015933036,0.2573030889034271
1631023465442,0.6661880612373352,0.548492968082428,-0.0748943015933036,0.2573030889034271
1631023465677,0.6661880612373352,0.5200654864311218,-0.0748943015933036,0.2573030889034271
1631023465723,0.6661880612373352,0.4438966512680053,-0.0748943015933036,0.2573030889034271
1631023465754,0.6661880612373352,0.292321115732193,-0.0748943015933036,0.2573030889034271
1631023465833,0.6661880612373352,0.292321115732193,-0.0748943015933036,0.2573030889034271
1631023465956,0.6661880612373352,0.292321115732193,-0.0748943015933036,0.2573030889034271
1631023465988,0.6661880612373352,0.292321115732193,-0.0748943015933036,0.2573030889034271
1631023466046,0.6661880612373352,0.292321115732193,-0.0748943015933036,0.2573030889034271
1631023466180,0.6661880612373352,0.292321115732193,-0.0748943015933036,0.2573030889034271
1631023466211,0.6661880612373352,0.1842142790555954,-0.0748943015933036,0.2573030889034271
1631023466443,0.6661880612373352,0.0394475497305393,-0.0748943015933036,0.2573030889034271
1631023466573,0.6661880612373352,-0.0989218205213546,-0.0748943015933036,0.2573030889034271
1631023466608,0.6661880612373352,-0.167807936668396,-0.0748943015933036,0.2573030889034271
1631023466795,0.6661880612373352,-0.1716671288013458,-0.0748943015933036,0.2573030889034271
1631023466904,0.6661880612373352,-0.1550554484128952,-0.0748943015933036,0.2573030889034271
1631023467045,0.6661880612373352,-0.1550554484128952,-0.0748943015933036,0.2573030889034271
1631023467092,0.6661880612373352,-0.1550554484128952,-0.0748943015933036,0.2573030889034271
1631023467170,0.6661880612373352,-0.1550554484128952,-0.0748943015933036,0.2573030889034271
1631023467401,0.6661880612373352,-0.1550554484128952,-0.0748943015933036,0.2573030889034271
1631023467486,0.6661880612373352,-0.1550554484128952,-0.0748943015933036,0.2573030889034271
1631023467713,0.6661880612373352,-0.0248479954898357,-0.0748943015933036,0.2573030889034271
1631023467756,0.6661880612373352,-0.034267034381628,-0.0748943015933036,0.2573030889034271
1631023467809,0.6661880612373352,-0.0530871711671352,-0.0748943015933036,0.2573030889034271
1631023467921,0.6661880612373352,-0.0567134656012058,-0.0748943015933036,0.2573030889034271
1631023468014,0.4821206033229828,-0.0436040237545967,-0.08896354585886,-0.0941853895783424
1631023468176,0.4708309769630432,-0.027371933683753,-0.124152161180973,-0.0929162055253982
1631023468213,0.4720288217067718,-0.020157091319561,-0.1465166956186294,-0.0896574407815933
1631023468255,0.493390828371048,-0.0208565834909677,-0.1507656276226043,-0.0815417915582656
1631023468291,0.528988242149353,-0.0204991623759269,-0.1075819283723831,-0.0523166581988334
1631023468327,0.563129186630249,-0.014826032333076,0.0006712665781378,0.000199952366529
1631023468413,0.5825209021568298,-0.0093105118721723,0.1307759881019592,0.0616635456681251
1631023468554,0.5936830043792725,-0.0119291199371218,0.2312089502811432,0.1195272430777549
1631023468580,0.5920583009719849,-0.0174966230988502,0.2838249504566192,0.165531724691391
1631023468821,0.5871709585189819,-0.0378156751394271,0.2948818802833557,0.2058840095996856
1631023468883,0.5778746008872986,-0.0703072547912597,0.2838573455810547,0.2430434674024582
1631023468899,0.5660987496376038,-0.1002973392605781,0.2701300382614136,0.2762603461742401
1631023468996,0.5485488176345825,-0.1139076650142669,0.2718367278575897,0.3161484599113464
1631023469309,0.5382714867591858,-0.1123540997505188,0.2809530198574066,0.3528843224048614
1631023469355,0.5282190442085266,-0.1099240854382515,0.2914870381355285,0.3853132426738739
1631023469371,0.5196582078933716,-0.1155776306986808,0.2980203628540039,0.4126080572605133
1631023469402,0.5149344801902771,-0.1264222711324691,0.2991800606250763,0.4348722100257873
1631023469605,0.5175836086273193,-0.1346430033445358,0.2962266802787781,0.4511589407920837
1631023469668,0.5198124051094055,-0.1390434950590133,0.2904490530490875,0.4605286121368408
1631023469846,0.5114865303039551,-0.1474818736314773,0.275931179523468,0.4605075418949127
1631023469924,0.5072795748710632,-0.1620329171419143,0.2380200773477554,0.4528214931488037
1631023470083,0.5222598314285278,-0.1744539886713028,0.1633336693048477,0.4392435252666473
1631023470177,0.5504169464111328,-0.176013246178627,0.0532184690237045,0.4213402271270752
1631023470224,0.5777615904808044,-0.1675167828798294,-0.0672976002097129,0.4001125693321228
1631023470333,0.5873310565948486,-0.1553076654672622,-0.1569243222475052,0.3730692267417907
1631023470458,0.5964404344558716,-0.136501282453537,-0.1989456564188003,0.3562604188919067
1631023470489,0.6104539632797241,-0.0854250565171241,-0.1749518513679504,0.3326034843921661
1631023470552,0.6297433972358704,0.0379691421985626,-0.0078390184789896,0.3050138056278229
1631023470755,0.6532248854637146,0.222019538283348,0.2659688293933868,0.275148868560791
1631023470864,0.6815864443778992,0.3957370817661285,0.5105176568031311,0.2407493442296981
1631023470880,0.7129973769187927,0.5183815360069275,0.6757625341415405,0.2007642686367035
1631023470989,0.7439869046211243,0.5844830274581909,0.7021845579147339,0.1550328731536865
1631023471056,0.7683470845222473,0.6117845773696899,0.7323777675628662,0.1104902699589729
1631023471103,0.787659764289856,0.6240496635437012,0.7654481530189514,0.0781305581331253
1631023471259,0.8128705024719238,0.6488006711006165,0.8011497259140015,0.0714651569724083
1631023471353,0.8308684229850769,0.6756249070167542,0.8400242328643799,0.0739050284028053
1631023471540,0.8308684229850769,0.7043657302856445,0.8832632899284363,0.0739050284028053
1631023471587,0.8308684229850769,0.7360018491744995,0.9323539137840272,0.0739050284028053
1631023471649,0.8308684229850769,0.7723051309585571,0.9391586780548096,0.0739050284028053
1631023471837,0.8308684229850769,0.8143149018287659,0.9459904432296752,0.0739050284028053
1631023471915,0.9489012956619264,0.8610316514968872,0.9531859755516052,-0.052062164992094
1631023472043,0.8874196410179138,0.9068352580070496,0.9528213143348694,-0.0547149404883384
1631023472153,0.8291566967964172,0.8815383911132812,0.9244111776351928,-0.0373307690024375
1631023472231,0.7855274081230164,0.8052394986152649,0.8304523229598999,0.0400183349847793
1631023472309,0.7628821730613708,0.6604160666465759,0.6162191033363342,0.1528052389621734
1631023472512,0.7621048092842102,0.4427871704101562,0.1232264414429664,0.2531213164329529
1631023472731,0.7793939709663391,0.1980557292699813,0.1119567528367042,0.317065417766571
1631023472777,0.7992013096809387,0.026930371299386,0.1068057343363761,0.3439939320087433
1631023472809,0.8167850971221924,-0.0529339723289012,0.1047698557376861,0.354298859834671
1631023472918,0.8270778656005859,-0.018662316724658,0.098755694925785,0.354298859834671
1631023472965,0.8283470869064331,0.0012739124940708,0.0874300673604011,0.354298859834671
1631023473117,0.823028564453125,0.005662512499839,0.0768985301256179,0.3786322176456451
1631023473257,0.7937222123146057,-0.0014541943091899,0.073420263826847,0.4077575504779815
1631023473542,0.771636962890625,-0.0146929137408733,0.0760798826813697,0.434381365776062
1631023473573,0.7661076188087463,-0.0238441582769155,0.0897063612937927,0.4500861465930938
1631023473823,0.7786189913749695,-0.0076695960015058,0.1165065541863441,0.4685267210006714
1631023473870,0.8086862564086914,0.0958177149295806,0.2089047729969024,0.5289576053619385
1631023473916,0.8566999435424805,0.294916033744812,0.3781275749206543,0.6474378108978271
1631023474010,0.9106582999229432,0.5105228424072266,0.5537326335906982,0.7758559584617615
1631023474357,0.9577131271362304,0.5357906222343445,0.6818056702613831,0.8722367882728577
1631023474420,0.9690951704978944,0.5634928345680237,0.7529855370521545,0.9238808155059814
1631023474638,0.9744621515274048,0.6199134588241577,0.7912818193435669,0.9637445211410522
1631023474654,0.973315954208374,0.5917516350746155,0.7818921208381653,0.9426735639572144
1631023474732,0.974496603012085,0.706713855266571,0.8416725397109985,0.9901967644691468
1631023474748,0.978287637233734,0.7365776300430298,0.8671824336051941,0.9901967644691468
1631023474748,0.99089515209198,0.7713409066200256,0.8958348631858826,0.9901967644691468
1631023474795,1.0140337944030762,0.8133725523948669,0.9271318316459656,1.0153175592422483
1631023474904,1.0459092855453491,0.8190596103668213,0.9306031465530396,1.04608952999115
1631023474951,1.0793629884719849,0.816205620765686,0.9275567531585692,1.0852420330047607
1631023474982,1.1129510402679443,0.9803511500358582,1.016209363937378,1.13418447971344
1631023475091,1.1520429849624634,0.9755065441131592,1.0081446170806885,1.1898307800292969
1631023475174,1.1520429849624634,0.9519243836402892,0.987155556678772,1.237163782119751
1631023475221,1.1520429849624634,0.8792657852172852,0.9391192197799684,1.251903414726257
1631023475533,1.1520429849624634,0.7653794884681702,1.1923260688781738,1.251903414726257
1631023475580,1.1520429849624634,0.7653794884681702,1.1514724493026731,1.251903414726257
1631023475611,1.1520429849624634,0.7653794884681702,1.1238970756530762,1.251903414726257
1631023475689,1.1520429849624634,0.7330743670463562,1.1134613752365112,1.251903414726257
1631023475752,1.1520429849624634,0.7875775694847107,1.1336599588394165,1.251903414726257
1631023475767,1.1520429849624634,0.7056795954704285,1.102073311805725,1.251903414726257
1631023475861,1.1520429849624634,0.6752092838287354,1.069285273551941,1.251903414726257
1631023475970,1.1520429849624634,0.6463673114776611,1.0385103225708008,1.251903414726257
1631023476017,1.1520429849624634,0.619064211845398,1.0100064277648926,1.251903414726257
1631023476111,1.1520429849624634,0.6142997741699219,1.006516695022583,1.251903414726257
1631023476301,0.4777595698833465,0.6187417507171631,1.0066213607788086,0.2939003705978393
1631023476426,0.4438977539539337,0.3318175375461578,0.9317180514335632,0.2516148090362549
1631023476489,0.4176945686340332,0.3305326700210571,0.9324672222137452,0.2382633686065673
1631023476536,0.3823838531970978,0.3225085437297821,0.932939112186432,0.2932176291942596
1631023476629,0.3470265865325928,0.3134002089500427,0.9320371747016908,0.4057260453701019
1631023476817,0.3189482688903808,0.2938374578952789,0.2569605410099029,0.5189018249511719
1631023476942,0.3008446097373962,0.2764507830142975,0.2199990451335907,0.5896268486976624
1631023476973,0.2906357049942016,0.2568240463733673,0.171492725610733,0.5896268486976624
1631023477195,0.2819705009460449,0.221083328127861,0.1318133920431137,0.5896268486976624
1631023477226,0.2698162794113159,-0.0516941025853157,-0.1166813224554061,0.5896268486976624
1631023477327,0.2564755976200104,-0.1063874661922454,-0.0773461461067199,0.5896268486976624
1631023477593,0.2423856258392334,-0.1483127921819687,-0.021624818444252,0.5896268486976624
1631023477671,0.1850126087665558,-0.1848724782466888,0.0219087358564138,0.6032165288925171
1631023477702,0.1420530080795288,-0.2228858470916748,0.0442182198166847,0.5889418125152588
1631023477780,0.1192096769809722,-0.2600624859333038,0.0527184605598449,0.5822080969810486
1631023477921,0.1040650233626365,-0.2878929376602173,0.0573564432561397,0.5853404402732849
1631023477983,0.0900804027915,-0.2888579666614532,0.0652219802141189,0.5983025431632996
1631023478014,0.0727574154734611,-0.2502806484699249,0.0773612558841705,0.6090786457061768
1631023478046,0.066731296479702,-0.18445885181427,0.0911288782954216,0.5957985520362854
1631023478205,0.0724046379327774,-0.1243761032819747,0.1022547259926796,0.5365024209022522
1631023478252,0.0774446949362754,-0.0891017168760299,0.1072181165218353,0.4229372143745422
1631023478455,0.0917515680193901,-0.0739485919475555,0.1049638986587524,0.2811094522476196
1631023478518,0.1125527843832969,-0.0634401217103004,0.0967547595500946,0.2991070449352264
1631023478533,0.1591074168682098,-0.047859787940979,0.084257997572422,0.3131659030914306
1631023478799,0.2370596528053283,-0.0276263412088155,0.0653664097189903,0.3235244452953338
1631023478846,0.338766485452652,0.0108479019254446,0.0561002530157566,0.3378817141056061
1631023479083,0.4518615007400512,0.0827373713254928,0.0887173786759376,0.3617248237133026
1631023479114,0.6234145164489746,0.2523991465568542,0.252524733543396,0.4230238497257232
1631023479114,0.552132785320282,0.1739613860845565,0.1662384271621704,0.3872731924057007
1631023479364,0.6647460460662842,0.3015578091144562,0.3154695928096771,0.4410782158374786
1631023479395,0.6857296228408813,0.3245705366134643,0.3475407660007477,0.4400026798248291
1631023479426,0.7003807425498962,0.331213116645813,0.3579935729503631,0.4256497621536255
1631023479567,0.7170959115028381,0.3265338838100433,0.3573282659053802,0.4099269509315491
1631023479615,0.7349141240119934,0.310341328382492,0.3499261438846588,0.400074154138565
1631023479678,0.7516388297080994,0.2882607877254486,0.3399801552295685,0.3958494067192077
1631023479725,0.7642113566398621,0.2695836722850799,0.3316274583339691,0.3894424736499786
1631023479974,0.7696967720985413,0.2608874440193176,0.3282796740531921,0.3754874765872955
1631023480053,0.7683894634246826,0.2601535320281982,0.3291620016098022,0.3540564775466919
1631023480146,0.7580171823501587,0.2610631883144378,0.3304850161075592,0.3310712873935699
1631023480193,0.7371354103088379,0.2579913139343261,0.3287598192691803,0.3106411397457123
1631023480334,0.704102098941803,0.2403150349855423,0.3140099048614502,0.2852025926113128
1631023480412,0.6504039764404297,0.1969114542007446,0.2740439772605896,0.2478166073560714
1631023480459,0.5803373456001282,0.1331181079149246,0.207755759358406,0.2162719964981079
1631023480743,0.5078930854797363,0.0801435858011245,0.1333047747611999,0.2134230136871338
1631023480925,0.4516090452671051,0.0675150528550148,0.0785229355096817,0.2445104867219925
1631023480972,0.4178462326526642,0.086784504354,0.0566865429282188,0.2869306206703186
1631023480987,0.3968488574028015,0.1082628443837165,0.0538570508360862,0.3180201351642608
1631023481084,0.3672332763671875,0.1205384954810142,0.058803342282772,0.326863944530487
1631023481309,0.3254707455635071,0.1294727027416229,0.0730547904968261,0.3217770755290985
1631023481338,0.2735468745231628,0.1355404704809188,0.092002548277378,0.3175612688064575
1631023481372,0.2357537597417831,0.1364100724458694,0.1089798435568809,0.3258835971355438
1631023481418,0.2327634543180465,0.1316235959529876,0.1198503971099853,0.3488103449344635
1631023481526,0.2683553695678711,0.1264815032482147,0.1225812956690788,0.3733254373073578
1631023481573,0.3221243917942047,0.1278141438961029,0.1215850561857223,0.3895286321640014
1631023481805,0.3666911423206329,0.1362542361021042,0.1265407651662826,0.3968129456043243
1631023481832,0.3933031857013702,0.1450128704309463,0.144652634859085,0.4016689956188202
1631023481928,0.4108841717243194,0.1450141072273254,0.1685198694467544,0.4031844437122345
1631023482127,0.4219354391098022,0.1260448396205902,0.1794889718294143,0.3912680745124817
1631023482148,0.4320040941238403,0.0830501466989517,0.1660403460264206,0.3571629226207733
1631023482263,0.4427025020122528,0.0215878784656524,0.134212777018547,0.3058606088161468
1631023482498,0.4555978775024414,-0.0442486070096492,0.1020705103874206,0.2533113360404968
1631023482542,0.4648593664169311,-0.0992114245891571,0.0834987461566925,0.2153529077768325
1631023482575,0.4738863110542297,-0.1399694681167602,0.0772712305188179,0.2010993212461471
1631023482600,0.4874255955219269,-0.1691115200519561,0.0733677446842193,0.2007056623697281
1631023482755,0.5138722658157349,-0.1815459430217743,0.0687929913401603,0.1974608898162841
1631023482826,0.5448909401893616,-0.1712700724601745,0.0676197931170463,0.1832481771707534
1631023482981,0.5514078140258789,-0.1386139541864395,0.0781659632921218,0.1507592052221298
1631023483027,0.5441985726356506,-0.0874658301472663,0.111071228981018,0.1129489764571189
1631023483155,0.5254105925559998,-0.0121745411306619,0.1731267273426056,0.0836782976984977
1631023483223,0.5073972940444946,0.0848975926637649,0.252178817987442,0.0642088130116462
1631023483510,0.4951256215572357,0.1904744356870651,0.3258952498435974,0.0433778837323188
1631023483552,0.4911912679672241,0.2893372774124145,0.3847855031490326,0.0192023124545812
1631023483583,0.493603378534317,0.3708675801753998,0.3880289196968078,-0.0052899373695254
1631023483632,0.4988993406295776,0.4304035604000091,0.3983883559703827,-0.0135833155363798
1631023483740,0.5072104930877686,0.4689376056194305,0.4171120226383209,-0.0054330411367118
1631023483800,0.5144488215446472,0.4887009263038635,0.441419780254364,0.0195218101143836
1631023484050,0.5284824371337891,0.4964672327041626,0.4692195951938629,0.0571878775954246
1631023484106,0.5284824371337891,0.5000771284103394,0.500328540802002,0.0571878775954246
1631023484162,0.5284824371337891,0.5036258101463318,0.5369392037391663,0.0571878775954246
1631023484242,0.5284824371337891,0.5070590376853943,0.5813329219818115,0.0571878775954246
1631023484346,0.5284824371337891,0.5082473754882812,0.5792902112007141,0.0571878775954246
1631023484482,0.5284824371337891,0.5041186213493347,0.5760637521743774,0.0571878775954246
1631023484658,0.5284824371337891,0.4917575418949127,0.5611038208007812,0.0571878775954246
1631023484679,-0.4316917955875397,0.4666855037212372,0.5142717957496643,0.0571878775954246
1631023484723,-0.2077711820602417,0.4254443645477295,0.4135717451572418,0.3232515752315521
1631023484859,-0.0089337797835469,0.3662296831607818,0.2361625730991363,0.3920312821865082
1631023484953,0.1494915932416916,0.2884029448032379,-0.0834664404392242,0.4247615337371826
1631023485124,0.2466421574354171,0.195588618516922,-0.0995033979415893,0.4273655414581299
1631023485152,0.2895351946353912,0.0976312533020973,-0.1133154183626174,0.4133791923522949
1631023485312,0.2931621074676513,0.0093234414234757,-0.1306333094835281,0.3958173096179962
1631023485399,0.277945339679718,-0.0500275827944278,-0.1509095728397369,0.3755366802215576
1631023485463,0.2532395422458648,-0.077850304543972,-0.1649907082319259,0.3554200828075409
1631023485661,0.2278964668512344,-0.0858858674764633,-0.1620093882083892,0.33729949593544
1631023485699,0.2033570408821106,-0.0832309946417808,-0.1422412991523742,0.3279712796211242
1631023485752,0.1842688173055648,-0.0620928555727005,-0.1192351207137107,0.3341052532196045
1631023485819,0.195716306567192,-0.0048226430080831,-0.1043560281395912,0.3498089015483856
1631023485980,0.2159392386674881,0.1069238632917404,-0.1116801351308822,0.3810329735279083
1631023486027,0.2350082546472549,0.2530458271503448,-0.132259339094162,0.3960038423538208
1631023486152,0.2549484670162201,0.3866609036922455,-0.150527611374855,0.3914574384689331
1631023486308,0.2740837037563324,0.4790752232074737,-0.1587581634521484,0.3698798418045044
1631023486402,0.2896188199520111,0.5278264880180359,-0.1602654755115509,0.3390935659408569
1631023486449,0.2905668914318084,0.5447274446487427,-0.1616277545690536,0.3141456246376037
1631023486543,0.2784802317619324,0.5459756851196289,-0.1654044687747955,0.3062495291233063
1631023486695,0.2596988677978515,0.5431549549102783,-0.1711390167474746,0.3145800232887268
1631023486804,0.2469449341297149,0.5405741930007935,-0.1742281317710876,0.3259432911872864
1631023486866,0.2392058670520782,0.5398510694503784,-0.1698985248804092,0.3335024416446686
1631023487059,0.2383901327848434,0.5417470932006836,-0.1624023765325546,0.3332088589668274
1631023487103,0.2381584495306015,0.5444962978363037,-0.1639194935560226,0.3266745805740356
1631023487179,0.2391820102930069,0.5452728867530823,-0.1818076819181442,0.3126305937767029
1631023487313,0.2382621169090271,0.5391771793365479,-0.2088551670312881,0.2903582751750946
1631023487454,0.2373543381690979,0.5199260711669922,-0.229482039809227,0.2648099362850189
1631023487548,0.2375698387622833,0.4758033156394958,-0.236065074801445,0.24283467233181
1631023487595,0.2435314357280731,0.3922480344772339,-0.2265143543481826,0.2226625084877014
1631023487673,0.2417009323835373,0.2817253172397613,-0.1795102804899215,0.2152961045503616
1631023487814,0.2184975445270538,0.2534343004226684,-0.0564966984093189,0.2172939032316208
1631023488018,0.163823664188385,0.407890111207962,0.1152102947235107,0.2207247018814087
1631023488068,0.0783924013376236,0.4015409052371979,0.2693601548671722,0.2172108888626098
1631023488130,-0.0227054767310619,0.4183934032917022,0.3740205466747284,0.200348898768425
1631023488177,-0.1014211103320121,0.4447284042835235,0.4304396510124206,0.1647425293922424
1631023488333,-0.1450742036104202,0.4756893217563629,0.4548263847827911,0.1188534498214721
1631023488489,-0.1487662345170974,0.5102695822715759,0.4648759663105011,0.0847469344735145
1631023488536,-0.1342329829931259,0.5468801259994507,0.4696290493011474,0.0879641845822334
1631023488661,-0.0951382219791412,0.585892915725708,0.471354991197586,0.1343221664428711
1631023488692,0.0749442130327224,0.5750571489334106,0.4715364575386047,0.1343221664428711
1631023488817,0.2214598804712295,0.5658376812934875,0.4727692902088165,0.1343221664428711
1631023488926,0.3461723625659942,0.563328206539154,0.4792639911174774,0.1343221664428711
1631023489056,0.5028356313705444,0.5722606182098389,0.4949858784675598,0.1343221664428711
1631023489119,0.626442551612854,0.5908678770065308,0.5161643624305725,0.0336169302463531
1631023489244,0.7234892249107361,0.5926111936569214,0.5294710397720337,0.0669758394360542
1631023489306,0.7830241322517395,0.5020729303359985,0.5156564116477966,0.0932331010699272
1631023489494,0.8070691823959351,0.0344779230654239,0.4614403843879699,0.1106679290533065
1631023489743,0.8043393492698669,0.0155528709292411,0.3686950206756592,0.1245648488402366
1631023489790,0.7880018949508667,-0.0011336996685713,0.2602061331272125,0.1396820247173309
1631023489822,0.7654351592063904,-0.0137189179658889,0.1729879230260849,0.1515001058578491
1631023489853,0.7397550940513611,-0.0234882086515426,0.1306105852127075,0.1534467041492462
1631023489931,0.7146318554878235,-0.0298293847590684,0.1252411752939224,0.1488854587078094
1631023490025,0.6973474025726318,-0.0292125772684812,0.1406025141477584,0.1422884613275528
1631023490212,0.6908949613571167,-0.0207137893885374,0.162465900182724,0.1327661573886871
1631023490259,0.7086937427520752,0.0139870345592498,0.1778079122304916,0.1187704280018806
1631023490384,0.7240942120552063,0.0378740392625331,0.1842148303985595,0.1167079508304596
1631023490478,0.7360105514526367,0.0577095337212085,0.2010059058666229,0.1310189664363861
1631023490681,0.7525653839111328,0.0610017776489257,0.2749021351337433,0.2030715346336364
1631023490712,0.7834933996200562,0.037729725241661,0.4149410128593445,0.3284419476985931
1631023490821,0.8240005970001221,-0.0059053758159279,0.5639452338218689,0.4527892470359802
1631023490842,0.8576580882072449,-0.045312974601984,0.5761358737945557,0.5364574790000916
1631023490933,0.8767936825752258,-0.0560228042304515,0.5988749265670776,0.5790029168128967
1631023491120,0.8811681866645813,-0.0413227379322052,0.6380757093429565,0.5963753461837769
1631023491295,0.8800769448280334,-0.0208403654396533,0.647354245185852,0.6145313382148743
1631023491342,0.8824626803398132,0.0030170632526278,0.6477686762809753,0.6347711682319641
1631023491373,0.8888307213783264,0.0338832847774028,0.6460939645767212,0.6330726146697998
1631023491483,0.8999626040458679,0.1671419441699981,0.6715412139892578,0.634755551815033
1631023491530,0.91808819770813,0.4596200883388519,0.6922937631607056,0.6453076004981995
1631023491780,0.9400460124015808,0.7359274625778198,0.7345634698867798,0.666642427444458
1631023491826,0.9605244994163512,0.9249626994132996,0.7838928699493408,0.6937824487686157
1631023492076,0.972494661808014,0.9465875029563904,0.8146305680274963,0.7181281447410583
1631023492092,0.9855298399925232,0.9187582731246948,0.8419949412345886,0.7292248606681824
1631023492221,0.9901660084724426,0.8677480816841125,0.8129665851593018,0.7109543681144714
1631023492331,0.9715983867645264,0.81463223695755,0.7195828557014465,0.6500111818313599
1631023492378,0.8960534930229187,0.767051637172699,0.5358531475067139,0.5473322868347168
1631023492456,0.8100603222846985,0.7252190113067627,0.5052546858787537,0.4301018714904785
1631023492487,0.73743736743927,0.6872494220733643,0.4771346747875213,0.3374189436435699
1631023492549,0.7029070258140564,0.6517766118049622,0.4185698330402374,0.319576233625412
1631023492612,0.6989407539367676,0.6184500455856323,0.4134389162063598,0.3173663914203644
1631023492784,0.7097045183181763,0.5874292254447937,0.4345996379852295,0.3315963745117187
1631023493004,0.7307398319244385,0.5586142539978027,0.4650437235832214,0.3660166263580322
1631023493109,0.7445295453071594,0.5415409207344055,0.4670819044113159,0.3970977962017059
1631023493171,0.7282288074493408,0.4879477620124817,0.4443574547767639,0.4073472917079925
1631023493236,0.6767178177833557,0.3760847449302673,0.3620041012763977,0.39580899477005
1631023493249,0.6007826328277588,0.1976023465394973,0.2225273996591568,0.3706848621368408
1631023493330,0.5357592105865479,-0.0238432511687278,0.2085297256708145,0.3417811095714569
1631023493599,0.5352309942245483,-0.2020274698734283,0.1984329372644424,0.3183803856372833
1631023493662,0.5508038401603699,-0.265558511018753,0.1835272014141082,0.306778073310852
1631023493708,0.5715252757072449,-0.2611971199512481,0.1932596564292907,0.3059187233448028
1631023493755,0.6110137701034546,-0.2379994541406631,0.2128911316394806,0.3153985440731048
1631023493990,0.6462704539299011,-0.2109929323196411,0.2327552735805511,0.3363745510578155
1631023494052,0.6756095290184021,-0.1836348325014114,0.2488108873367309,0.3654379844665527
1631023494240,0.6945800185203552,-0.1540389060974121,0.2592286169528961,0.3954491019248962
1631023494271,0.7031480073928833,-0.1071910634636879,0.2637421190738678,0.4153383076190948
1631023494302,0.7020695805549622,-0.0270216409116983,0.2652821838855743,0.4285934865474701
1631023494460,0.6947405338287354,0.0767950639128685,0.2733663916587829,0.4425934851169586
1631023494522,0.6872809529304504,0.1696293354034423,0.2909189760684967,0.4618600308895111
1631023494709,0.68150395154953,0.2264888733625412,0.3116260468959808,0.4855021834373474
1631023494803,0.6772244572639465,0.2455340176820755,0.3280695378780365,0.5076813697814941
1631023494834,0.6753551363945007,0.241780936717987,0.3374587297439575,0.5253477096557617
1631023494865,0.6767097115516663,0.2340883463621139,0.3411812484264374,0.5373209714889526
1631023495022,0.6763133406639099,0.2305613756179809,0.337460994720459,0.5427171587944031
1631023495225,0.6648445725440979,0.2296509742736816,0.3240964710712433,0.5434750318527222
1631023495268,0.6425452828407288,0.2287914007902145,0.3048805892467499,0.5442430377006531
1631023495446,0.6099268794059753,0.2360897958278656,0.284871369600296,0.5443424582481384
1631023495540,0.5719336867332458,0.2615475952625274,0.267765074968338,0.5378258228302002
1631023495696,0.5341671705245972,0.3033255934715271,0.2526255249977112,0.5217968821525574
1631023495743,0.5020235180854797,0.3443593680858612,0.2373654991388321,0.4975109696388244
1631023495805,0.4595322906970978,0.354661762714386,0.1822980791330337,0.4337929785251617
1631023495805,0.4787754416465759,0.3654471039772033,0.2168772220611572,0.4691894352436065
1631023495899,0.4322078824043274,0.3118110299110412,0.1205175593495369,0.3906533718109131
1631023496089,0.3963831663131714,0.2512568235397339,0.0299449674785137,0.3472088575363159
1631023496120,0.3692622780799866,0.1988489627838134,-0.0662635266780853,0.3161644041538238
1631023496292,0.3564421832561493,0.1745053231716156,-0.1314176321029663,0.2953924238681793
1631023496495,0.3532879054546356,0.1745259016752243,-0.1590547412633896,0.2747461795806885
1631023496589,0.3409672081470489,0.18392314016819,-0.168668046593666,0.2513781189918518
1631023496745,0.3152973353862762,0.1958953142166137,-0.1612294912338256,0.2344110012054443
1631023496792,0.2869708836078644,0.210160031914711,-0.1314785629510879,0.2267336547374725
1631023496839,0.2725823819637298,0.2291287034749984,-0.0932401046156883,0.2206307053565979
1631023497011,0.2693732976913452,0.2651585936546325,-0.0669939070940017,0.2122352570295334
1631023497107,0.2782930135726928,0.3254899978637695,-0.057165652513504,0.2031056582927703
1631023497325,0.2967825829982757,0.3945763409137726,-0.0532930344343185,0.1960274130105972
1631023497388,0.3168359398841858,0.4494241178035736,-0.0432419925928115,0.1909779161214828
1631023497653,0.3251906633377075,0.4799818694591522,-0.0256837289780378,0.1872205436229705
1631023497685,0.319568008184433,0.492087185382843,-0.0078879678621888,0.180090069770813
1631023497716,0.3085739612579345,0.4974422752857208,0.0030951902735978,0.1630830764770507
1631023497905,0.2994028031826019,0.5013341903686523,0.0031492486596107,0.1248949691653251
1631023498077,0.2903761565685272,0.5029670000076294,-0.0085877729579806,0.0600065663456916
1631023498187,0.2893891036510467,0.5016009211540222,-0.0267446879297494,-0.0147355888038873
1631023498312,0.2933495938777923,0.4979302585124969,-0.0410083457827568,-0.0714731663465499
1631023498359,0.3051581680774688,0.4924018681049347,-0.0464769527316093,-0.0767706409096717
1631023498499,0.3210640549659729,0.4851599335670471,-0.0531228892505168,-0.0123718362301588
1631023498515,0.3316698968410492,0.9385676383972168,0.4017177522182464,-0.013231873512268
1631023498546,0.3378877937793731,0.933631956577301,0.388943463563919,-0.0136066665872931
1631023498733,0.3424780964851379,0.9223642349243164,0.3758026659488678,-0.0156246293336153
1631023498780,0.3377166390419006,0.8993119597434998,0.3668122589588165,-0.01198919583112
1631023498921,0.3212486803531647,0.8650873303413391,0.3623446524143219,0.0006218751659616
1631023498983,0.2974561750888824,0.8965927362442017,0.3588563203811645,0.0222371108829975
1631023499061,0.27500981092453,0.8744579553604126,0.3550916910171509,0.049445953220129
1631023499173,0.2611468732357025,0.8638282418251038,0.3517663776874542,0.0830480232834816
1631023499392,0.2592238783836365,0.859402060508728,0.3503161966800689,0.1216464415192604
1631023499485,0.2758951783180237,0.8856784105300903,0.3518734276294708,0.1686369478702545
1631023499517,0.3172466158866882,0.9147026538848876,0.3610537648200989,0.2252746820449829
1631023499642,0.3172466158866882,0.9467057585716248,0.390567809343338,0.2252746820449829
1631023499673,0.3172466158866882,1.0513359308242798,0.4535649418830871,0.2252746820449829
1631023499735,0.3172466158866882,1.0791064500808716,0.5401098132133484,0.2252746820449829
1631023499892,0.3172466158866882,1.1194441318511963,0.6424428224563599,0.2252746820449829
1631023499923,0.3172466158866882,0.8177688121795654,0.4566704928874969,0.2252746820449829
1631023499970,0.3172466158866882,0.8577796816825867,0.4844586551189422,0.2252746820449829
1631023500110,0.3172466158866882,0.9022427201271056,0.5151176452636719,0.2252746820449829
1631023500238,0.3172466158866882,0.9520317316055298,0.5478119850158691,0.2252746820449829
1631023500316,0.3172466158866882,1.0085415840148926,0.5828208923339844,0.2252746820449829
1631023500488,0.3172466158866882,0.9553765654563904,0.6219403743743896,0.2252746820449829
1631023500519,0.3172466158866882,0.9649972319602966,0.6666751503944397,0.2252746820449829
1631023500551,0.3172466158866882,0.9699331521987916,0.6646950244903564,0.2252746820449829
1631023500832,0.3172466158866882,0.9720599055290222,0.6624485850334167,0.2252746820449829
1631023500941,0.3172466158866882,0.90839821100235,0.6602841019630432,0.2252746820449829
1631023501050,0.3172466158866882,0.8540534377098083,0.6527464985847473,0.2252746820449829
1631023501082,0.3172466158866882,0.807640790939331,0.6226768493652344,0.2252746820449829
1631023501144,0.3172466158866882,0.5113954544067383,0.537560760974884,0.2252746820449829
1631023501241,0.1227874234318733,0.3729365468025207,0.3479784727096557,0.2252746820449829
1631023501303,0.1694097965955734,-0.0104492576792836,-0.3186859488487243,0.2252746820449829
1631023501506,0.2042777836322784,0.0372855402529239,-0.288099467754364,0.2252746820449829
1631023501538,0.2327829599380493,0.0592845119535923,-0.2611668109893799,0.2252746820449829
1631023501616,0.2499902248382568,0.0579882785677909,-0.2537115216255188,0.2252746820449829
1631023501663,0.2535460293292999,0.046042826026678,-0.2659713327884674,0.2252746820449829
1631023501788,0.2495505660772323,0.038026887923479,-0.289175420999527,0.2252746820449829
1631023501897,0.2416923940181732,0.0386978611350059,-0.3128856420516968,0.2252746820449829
1631023502069,0.229352980852127,0.0344768613576889,-0.3333969414234161,0.2252746820449829
1631023502116,0.2162862420082092,0.0443519540131092,-0.3454932272434234,0.2252746820449829
1631023502178,0.2132672816514969,0.0586320869624614,-0.3564106523990631,0.2252746820449829
1631023502259,0.2366767227649688,0.0707695707678794,-0.3735792934894562,0.2252746820449829
1631023502368,0.300178587436676,0.0796747058629989,-0.3963179588317871,0.2252746820449829
1631023502399,0.3708837330341339,0.0826706811785698,-0.4183825552463531,0.2252746820449829
1631023502493,0.4234408736228943,0.0749435499310493,-0.4302873909473419,0.2252746820449829
1631023502696,0.4478186070919037,0.0511414520442485,-0.4231279194355011,0.2252746820449829
1631023502758,0.4490558505058288,0.0135587034747004,-0.395131766796112,0.2525172829627991
1631023502790,0.4401069581508636,-0.0217608865350484,-0.3399586677551269,0.3010375499725342
1631023502962,0.4325490295886993,-0.0321200527250766,-0.254707932472229,0.3395704627037048
1631023502977,0.4279322326183319,-0.0159187223762273,-0.1610306799411773,0.3709563910961151
1631023503055,0.4266945421695709,0.0048053939826786,-0.0821891501545906,0.3875772655010223
1631023503196,0.4267008006572723,0.0111954100430011,-0.0287067219614982,0.3874813616275787
1631023503211,0.4293710887432098,0.0028507681563496,0.0023659660946577,0.3775745630264282
1631023503368,0.4344612956047058,-0.0102517930790781,0.0235801469534635,0.3693254888057709
1631023503540,0.4379512965679168,-0.0232569202780723,0.0437727719545364,0.3661839067935943
1631023503571,0.4385401010513305,-0.034005768597126,0.0675395131111145,0.3642530441284179
1631023503665,0.4321155846118927,-0.0366460345685482,0.0987846702337265,0.3609036803245544
1631023503727,0.424823522567749,-0.0012168725952506,0.150950014591217,0.3643164932727813
1631023503852,0.433799535036087,0.0930058509111404,0.232966661453247,0.3967577517032623
1631023504102,0.4734245836734772,0.2137924134731292,0.3278051316738128,0.4443471133708954
1631023504149,0.51943439245224,0.3160474896430969,0.4066611528396606,0.4857142865657806
1631023504196,0.5521360635757446,0.3814224004745483,0.452804297208786,0.50929194688797
1631023504367,0.5646445155143738,0.411426842212677,0.4663571715354919,0.5158399939537048
1631023504446,0.5639116764068604,0.4168967008590698,0.4592292010784149,0.5133771896362305
1631023504681,0.5579892992973328,0.4094654321670532,0.4459702372550964,0.5064539313316345
1631023504743,0.5520408749580383,0.3978367745876312,0.4336623251438141,0.4978339672088623
1631023504868,0.5463231801986694,0.3874469101428985,0.4246130883693695,0.4873113334178924
1631023504946,0.5399816632270813,0.3793853223323822,0.4189160764217376,0.4776374995708465
1631023504961,0.5342287421226501,0.3728649616241455,0.4160470366477966,0.4701196849346161
1631023505151,0.5330959558486938,0.369778424501419,0.4217935800552368,0.4654422104358673
1631023505432,0.5366986989974976,0.3710379600524902,0.4401918649673462,0.4638345837593078
1631023505448,0.5412087440490723,0.3729647994041443,0.4654745757579803,0.4645791947841644
1631023505651,0.5300933718681335,0.3611165881156921,0.4783377051353454,0.4576920568943023
1631023505745,0.4913963377475738,0.3181332051753998,0.4600630104541778,0.4321874976158142
1631023505792,0.4169282615184784,0.235703557729721,0.4072185456752777,0.3796987533569336
1631023505901,0.3451278209686279,0.1248938143253326,0.3395857512950897,0.3115781843662262
1631023505995,0.3200047314167022,0.0612236410379409,0.2909236252307892,0.2535066902637481
1631023506010,0.3411491215229034,0.0058892392553389,0.2772746682167053,0.2213872075080871
1631023506057,0.3649844229221344,0.0012170603731647,0.2790706753730774,0.1972449570894241
1631023506120,0.3819603323936462,0.0314559563994407,0.2746213376522064,0.1740301847457885
1631023506229,0.3907100856304168,0.0836196094751358,0.2628416121006012,0.156667098402977
1631023506245,0.3985395133495331,0.1446594297885894,0.2518588006496429,0.1605260670185089
1631023506448,0.4074428975582123,0.1993441730737686,0.2449589669704437,0.179188847541809
1631023506510,0.4190757274627685,0.2365299761295318,0.2390889078378677,0.1930567324161529
1631023506541,0.4317430853843689,0.2533622682094574,0.2227672934532165,0.1888985186815261
1631023506573,0.4496115446090698,0.2553775310516357,0.1844731569290161,0.1656596809625625
1631023506776,0.4760338068008423,0.3789166808128357,0.1206186637282371,0.1236500144004821
1631023506807,0.5120992064476013,0.3737824857234955,0.0481663905084133,0.076226145029068
1631023506979,0.5489440560340881,0.3675651252269745,6.616795872105286e-05,0.076226145029068
1631023507010,0.5807058811187744,0.3616674840450287,-0.0083992760628461,0.076226145029068
1631023507073,0.5941128730773926,0.3575357496738434,-0.0046686581335961,0.076226145029068
1631023507152,0.5931174159049988,0.3347607553005218,-0.0104217380285263,0.076226145029068
1631023507387,0.5854673981666565,0.334892213344574,-0.0100654792040586,0.2355928868055343
1631023507528,0.5865316390991211,0.3435264825820923,0.0612779855728149,0.3082229793071747
1631023507622,0.6025991439819336,0.3671082854270935,0.2057458013296127,0.4265725016593933
1631023507653,0.6336842179298401,0.3978095650672912,0.3526544272899627,0.536076545715332
1631023507684,0.6617145538330078,0.4183980822563171,0.4561403691768646,0.6037144660949707
1631023507965,0.6779870986938477,0.4205086231231689,0.5127487778663635,0.6310352087020874
1631023508059,0.6811545491218567,0.4097437560558319,0.5355652570724487,0.6286224126815796
1631023508153,0.6963728070259094,0.3995540738105774,0.5420206189155579,0.6095566749572754
1631023508218,0.70502108335495,0.3962702751159668,0.5418369174003601,0.5841098427772522
1631023508265,0.7014007568359375,0.2747235596179962,0.5393698215484619,0.5613230466842651
1631023508421,0.6756123900413513,0.2766760885715484,0.5363560914993286,0.5470214486122131
1631023508515,0.6402223110198975,0.277970552444458,0.5327994227409363,0.5423778891563416
1631023508562,0.598446786403656,0.2779347598552704,0.527366042137146,0.5554208755493164
1631023508702,0.5623875260353088,0.2768655717372894,0.5204685926437378,0.567624568939209
1631023508749,0.5325205326080322,0.2731437683105469,0.512421190738678,0.5772886276245117
1631023508780,0.5319450497627258,0.2655234634876251,0.5004282593727112,0.5937865376472473
1631023508986,0.5300365090370178,0.245184987783432,0.469681441783905,0.5991883277893066
1631023509033,0.5116109251976013,0.2069487422704696,0.4122928082942962,0.5817036032676697
1631023509267,0.4582696259021759,0.1627614349126815,0.3573030233383178,0.5357658267021179
1631023509282,0.3873218595981598,0.1398183107376098,0.359557181596756,0.472788006067276
1631023509423,0.3278116583824157,0.1521489024162292,0.4186809062957763,0.4138680100440979
1631023509486,0.3117788732051849,0.1838970780372619,0.4853090047836303,0.3824998438358307
1631023509606,0.3117788732051849,0.210441380739212,0.5317776203155518,0.3868348896503448
1631023509677,0.3117788732051849,0.2246606349945068,0.5673375725746155,0.4196194410324096
1631023509746,0.3117788732051849,0.2332926094532013,0.6028110384941101,0.4618027806282043
1631023509826,0.2222517132759094,0.2434540688991546,0.6340814232826233,0.4945003688335418
1631023509909,0.2222517132759094,0.2583588659763336,0.655137300491333,0.4945003688335418
1631023510126,0.2222517132759094,0.2744813561439514,0.6684578657150269,0.4945003688335418
1631023510175,0.2222517132759094,0.2877519130706787,0.6779391169548035,0.4945003688335418
1631023510229,0.2222517132759094,0.2972383499145508,0.684158205986023,0.4945003688335418
1631023510411,0.2222517132759094,0.3038348257541656,0.6864714026451111,0.4945003688335418
1631023510505,0.235862135887146,0.3054474890232086,0.6867555379867554,0.2243791371583938
1631023510627,0.1795403361320495,0.2940041124820709,0.6833851337432861,0.2139802277088165
1631023510678,0.1293345987796783,0.2604673504829407,0.6640464663505554,0.1939823627471923
1631023510772,0.0944085568189621,0.2038498818874359,0.6161882281303406,0.1643538475036621
1631023510991,0.0922492891550064,0.1365008801221847,0.54349684715271,0.1330184042453766
1631023511025,0.1538374722003936,0.0829417407512664,0.4680509567260742,0.1063551902770996
1631023511103,0.2669591903686523,0.0614500977098941,0.4123777747154236,0.0866034626960754
1631023511181,0.3919180631637573,0.0683355182409286,0.3708311915397644,0.0722605213522911
1631023511258,0.4845304787158966,0.0861084908246994,0.3249666690826416,0.0618421584367752
1631023511439,0.537611186504364,0.1014880165457725,0.2756161689758301,0.0597761310636997
1631023511486,0.5621477961540222,0.108719415962696,0.2347409278154373,0.0656092315912246
1631023511517,0.5743059515953064,0.107915386557579,0.2035166323184967,0.0757200270891189
1631023511689,0.5923986434936523,0.0994235649704933,0.1793945580720901,0.0652906596660614
1631023511829,0.611365795135498,0.0859932079911232,0.1655900925397873,0.0576826408505439
1631023512001,0.634263813495636,0.07114177942276,0.1630011349916458,0.0485010780394077
1631023512043,0.6621434688568115,0.0593300983309745,0.1579613089561462,0.0312288217246532
1631023512098,0.6960024237632751,0.0578531883656978,0.1349913924932479,0.0124652832746505
1631023512145,0.7288475036621094,0.0742595940828323,0.0960745811462402,0.0049882126040756
1631023512255,0.7544186115264893,0.1149118468165397,0.0683599486947059,0.0195919126272201
1631023512380,0.7697166204452515,0.1739892661571502,0.0818138644099235,0.0312708355486393
1631023512551,0.7876012921333313,0.2317806929349899,0.1279309540987014,0.0448668040335178
1631023512692,0.833962082862854,0.2712356448173523,0.1698793619871139,0.0577089935541152
1631023512723,0.9196547269821168,0.2885189652442932,0.1869903951883316,0.0698994621634483
1631023512754,1.0200350284576416,0.2920569479465484,0.1816495358943939,0.0819155499339103
1631023512911,1.1004678010940552,0.2921653389930725,0.1655549108982086,0.0869090482592582
1631023513132,1.144398808479309,0.2898712754249573,0.147634208202362,0.0804953873157501
1631023513179,1.1588852405548096,0.2833926975727081,0.1301105469465255,0.0609720759093761
1631023513210,1.157326579093933,0.276128202676773,0.1147741600871086,0.0365917794406414
1631023513351,1.1508548259735107,0.2740251421928406,0.1033823639154434,0.0114045040681958
1631023513413,1.1437196731567385,0.2789561152458191,0.0970796272158622,-0.002019757637754
1631023513445,1.1362744569778442,0.2862754464149475,0.0936692580580711,-0.002019757637754
1631023513632,1.127887487411499,0.2909407019615173,0.09389279037714,-0.002019757637754
1631023513742,1.1201355457305908,0.2906763255596161,0.0977358967065811,-0.002019757637754
1631023513851,1.114534854888916,0.2802317142486572,0.0933094024658203,-0.002019757637754
1631023513997,1.1103817224502563,0.2512875497341156,0.0622798576951026,0.5464966297149658
1631023514044,1.0990716218948364,0.2022832632064819,-0.001221657032147,0.4943602085113525
1631023514059,1.0638587474822998,0.1439568251371383,-0.080066978931427,0.4485819339752197
1631023514266,0.984743356704712,0.0941879078745842,-0.1418247818946838,0.4135326147079468
1631023514360,0.8500963449478149,0.0588840693235397,-0.1688110828399658,0.3896459639072418
1631023514407,0.6725075840950012,0.0300220977514982,-0.1636819839477539,0.3710690438747406
1631023514453,0.4991859495639801,0.0120863365009427,-0.1268251836299896,0.3710690438747406
1631023514563,0.3897338509559631,0.0292347259819507,-0.050312727689743,0.3710690438747406
1631023514703,0.3672067821025848,0.0906881168484687,0.0477625094354152,0.3710690438747406
1631023514813,0.3804266452789306,0.1719130128622055,0.139214351773262,0.3710690438747406
1631023514891,0.4007187485694885,0.2373393177986145,0.2059050500392913,0.3710690438747406
1631023515016,0.4142422080039978,0.273793488740921,0.2447302788496017,0.3710690438747406
1631023515203,0.4196623563766479,0.2996959388256073,0.2642608284950256,0.3309446275234222
1631023515329,0.4153191447257995,0.3394370377063751,0.2732162475585937,0.2665171027183532
1631023515516,0.4053495228290558,0.3953819572925567,0.2771570086479187,0.1962705254554748
1631023515595,0.4105372726917267,0.4498981535434723,0.2781358063220978,0.150544598698616
1631023515673,0.4470163881778717,0.4905737340450287,0.2770915031433105,0.1416589766740799
1631023515688,0.4470163881778717,0.5183503031730652,0.2740994095802307,0.1416589766740799
1631023515719,0.4470163881778717,0.5367518663406372,0.2690947353839874,0.1416589766740799
1631023515923,0.4470163881778717,0.5472638607025146,0.2638391554355621,0.1416589766740799
1631023515954,0.4470163881778717,0.5505394339561462,0.2586330771446228,0.1416589766740799
1631023516048,0.7448651790618896,0.5492043495178223,0.2526827156543731,0.1416589766740799
1631023516172,0.6838851571083069,0.5468012094497681,0.2500528693199157,0.7028829455375671
1631023516204,0.6436710357666016,0.5486433506011963,0.2716095745563507,0.7794415354728699
1631023516409,0.6238011717796326,0.5379559397697449,0.3313702642917633,0.8960819840431213
1631023516519,0.6217167377471924,0.5243987441062927,0.4108574390411377,0.9898778796195984
1631023516550,0.6251324415206909,0.5227836966514587,0.4790961444377899,1.0364563465118408
1631023516831,0.6207061409950256,0.5286937355995178,0.5190935134887695,1.0394598245620728
1631023516847,0.6041984558105469,0.5045449137687683,0.5340646505355835,1.0151983499526978
1631023516925,0.5799306035041809,0.4383876621723175,0.5363211631774902,0.9808472990989684
1631023517050,0.5536894798278809,0.3510002195835113,0.5363777279853821,0.9808472990989684
1631023517081,0.5305399894714355,0.2748385369777679,0.5381613373756409,0.9808472990989684
1631023517112,0.5128235816955566,0.2294333577156067,0.5417245030403137,0.9482665061950684
1631023517284,0.438616007566452,0.206083670258522,0.5464049577713013,0.9191625714302064
1631023517362,0.3869324326515198,0.1905662566423416,0.551488995552063,0.8845452666282654
1631023517503,0.3657524883747101,0.1790718734264373,0.5554884076118469,0.8690735697746277
1631023517597,0.3628521561622619,0.1682061851024627,0.5552055239677429,0.8651720285415649
1631023517659,0.3575884997844696,0.139830082654953,0.5438127517700195,0.8813180923461914
1631023517847,0.3484855592250824,0.1331524848937988,0.5081644058227539,0.8692197799682617
1631023517925,0.3351439535617828,0.141166403889656,0.4338560998439789,0.8079093098640442
1631023517925,0.319931149482727,0.1543138772249221,0.3154895007610321,0.6590833067893982
1631023518043,0.3041326403617859,0.1658730506896972,0.1703187972307205,0.478449672460556
1631023518189,0.294184923171997,0.1716322153806686,0.0429014638066291,0.3439481556415558
1631023518236,0.2881027460098266,0.1565010547637939,-0.0301718395203351,0.3074199259281158
1631023518408,0.2848500609397888,0.1530251055955886,-0.0628972351551055,0.3212115168571472
1631023518455,0.283621221780777,0.1530311554670334,-0.0816111043095588,0.3063562512397766
1631023518627,0.2969066500663757,0.1654003858566284,-0.0891407877206802,0.2838049232959747
1631023518798,0.3344023525714874,0.1924390941858291,-0.0837113484740257,0.276102751493454
1631023518814,0.3873543739318847,0.2227791249752044,-0.0740611925721168,0.2716797292232513
1631023518876,0.4421627521514892,0.2462929636240005,-0.0743700936436653,0.2771969437599182
1631023518970,0.4842400848865509,0.2601544857025146,-0.0890595167875289,0.2862107455730438
1631023519064,0.5059723854064941,0.2674100697040558,-0.1098133325576782,0.2913753092288971
1631023519267,0.5156705379486084,0.2684727907180786,-0.1306411921977996,0.2851727306842804
1631023519298,0.5150365233421326,0.260722279548645,-0.1547618955373764,0.2850625514984131
1631023519407,0.5052998065948486,0.2451745122671127,-0.18288055062294,0.2888109385967254
1631023519564,0.4890203177928924,0.2309308499097824,-0.2073110789060592,0.2824881672859192
1631023519595,0.4730168879032135,0.2269298136234283,-0.2219137102365493,0.2570375502109527
1631023519829,0.4676116704940796,0.2336238324642181,-0.2279622107744217,0.21411894261837
1631023519860,0.4771128296852112,0.2429904192686081,-0.2281199991703033,0.1714302897453308
1631023520095,0.4972181618213653,0.2481618523597717,-0.2218606770038604,0.1473497450351715
1631023520157,0.521369993686676,0.243298202753067,-0.2092340588569641,0.1467918902635574
1631023520188,0.5357401967048645,0.2211852073669433,-0.1972495317459106,0.1541511863470077
1631023520345,0.529087245464325,0.1789434403181076,-0.1865373104810714,0.1543816179037094
1631023520407,0.5090029835700989,0.1294841468334198,-0.1688037663698196,0.1461497098207473
1631023520438,0.4885730743408203,0.0910261943936348,-0.1348080784082412,0.1338449120521545
1631023520688,0.4876126945018768,0.0721398591995239,-0.0855646058917045,0.1274661868810653
1631023520719,0.5079728364944458,0.0632291734218597,-0.0334692448377609,0.1268035471439361
1631023520829,0.5317020416259766,0.0537216290831565,0.0101261576637625,0.1245517879724502
1631023520938,0.5505966544151306,0.0439231395721435,0.0403944104909896,0.1128967702388763
1631023521001,0.5631271004676819,0.0382579863071441,0.0582427494227886,0.0887880250811576
1631023521094,0.5655901432037354,0.0324832163751125,0.0680092424154281,0.0663626790046691
1631023521110,0.558287501335144,0.0184135027229785,0.0756331160664558,0.0577841587364673
1631023521254,0.5408786535263062,-0.0029760631732642,0.0843998938798904,0.0563161969184875
1631023521285,0.5196019411087036,-0.0218810811638832,0.0937163382768631,0.0704068094491958
1631023521394,0.4973052144050598,-0.0282357316464185,0.1025580540299415,0.0923192054033279
1631023521504,0.4759678244590759,-0.0237078852951526,0.108875572681427,0.11802838742733
1631023521722,0.4521007537841797,-0.0150478314608335,0.112644538283348,0.1522194445133209
1631023521816,0.4285412430763244,-0.0050843558274209,0.1139901801943779,0.1884205341339111
1631023522035,0.3948242366313934,0.0027966687921434,0.1122208088636398,0.2160550206899643
1631023522066,0.3442901968955993,0.0045325672253966,0.1049506291747093,0.2276079356670379
1631023522066,0.265674352645874,-0.0002900523541029,0.0883351936936378,0.2258045971393585
1631023522303,0.0725872293114662,-0.0109906420111656,0.0298350751399993,0.2198447585105896
1631023522303,0.1669978946447372,-0.0074661448597908,0.0610932931303978,0.2185019552707672
1631023522382,-0.0035750442184507,-0.0105712274089455,0.0240427777171134,0.2812469899654388
1631023522397,0.0110587030649185,-0.011331046000123,0.0088809924200177,0.2397661805152893
1631023522506,0.0234537199139595,-0.0051404992118477,0.0853020846843719,0.3161607682704925
1631023522585,0.0734657049179077,0.0078630037605762,0.1638555973768234,0.3462163209915161
1631023522913,0.1289544999599456,0.0238274484872818,0.2260278016328811,0.3814966976642608
1631023522913,0.1819852590560913,0.0361951179802417,0.2596214115619659,0.3989457488059997
1631023522960,0.2378029823303222,0.0458608567714691,0.2702080309391022,0.400813490152359
1631023523100,0.3228375315666199,0.0710125192999839,0.2742679417133331,0.3930199742317199
1631023523131,0.44856658577919,0.1273741424083709,0.2845605313777923,0.3826883137226105
1631023523273,0.579975426197052,0.2032755017280578,0.3022529482841491,0.3775555789470672
1631023523523,0.6867435574531555,0.2733696103096008,0.3213444948196411,0.379114419221878
1631023523539,0.7609975934028625,0.3223906457424164,0.3363679945468902,0.3849426507949829
1631023523555,0.8087643384933472,0.349620372056961,0.3466168940067291,0.3893546462059021
1631023523633,0.8385903835296631,0.3623995780944824,0.3541794419288635,0.3890603482723236
1631023523742,0.8587422966957092,0.3672743439674377,0.3594524264335632,0.3839552104473114
1631023523898,0.871351957321167,0.3673833608627319,0.3602444529533386,0.3756331205368042
1631023524055,0.8803629279136658,0.3630400598049164,0.3479092121124267,0.3649080991744995
1631023524179,0.886376678943634,0.3517350256443023,0.3123568594455719,0.3492706418037414
1631023524211,0.888290286064148,0.3328430950641632,0.2536878585815429,0.3306559920310974
1631023524242,0.8860812187194824,0.3106110692024231,0.1878859996795654,0.3162455260753631
1631023524401,0.8803735971450806,0.2912168204784393,0.1372145265340805,0.3126607537269592
1631023524417,0.8701907396316528,0.2743119597434997,0.110029712319374,0.3180351555347442
1631023524589,0.8478589653968811,0.2468575239181518,0.0909741073846817,0.3264470398426056
1631023524682,0.8048734664916992,0.189316377043724,0.0627218261361122,0.329797625541687
1631023524807,0.7416860461235046,0.0866203159093856,0.020539054647088,0.3236444890499115
1631023524854,0.6710124611854553,-0.0638438314199447,-0.0311181396245956,0.3124657571315765
1631023525058,0.6082868576049805,-0.2419733852148056,-0.0825583189725875,0.3071658909320831
1631023525107,0.5612055063247681,-0.3938708901405334,-0.1245829090476036,0.3139708042144775
1631023525138,0.5255118608474731,-0.4645482003688812,-0.1510524749755859,0.3307374119758606
1631023525341,0.5012208223342896,-0.4438300132751465,-0.1627299040555954,0.3451656699180603
1631023525450,0.4858438074588775,-0.3512914180755615,-0.1559916585683822,0.3526230752468109
1631023525466,0.4707945585250854,-0.1763704866170883,-0.10674948990345,0.3482666909694671
1631023525513,0.4564149379730224,0.056968554854393,0.0071513596922159,0.3358452618122101
1631023525622,0.4510370790958404,0.2706463038921356,0.1531821489334106,0.321101039648056
1631023525825,0.4606490731239319,0.4216097295284271,0.2770546376705169,0.3067267537117004
1631023525934,0.4833420515060425,0.5071519613265991,0.3546731770038605,0.2901398241519928
1631023525997,0.5171518325805664,0.5432209968566895,0.3896231055259704,0.272832453250885
1631023526013,0.559041440486908,0.555288553237915,0.3997443616390228,0.2595702707767486
1631023526200,0.6010491847991943,0.5690841674804688,0.4073783755302429,0.2543377876281738
1631023526341,0.6287102103233337,0.604543149471283,0.4347048997879028,0.2658152282238006
1631023526372,0.6287102103233337,0.6638920307159424,0.4894285202026367,0.2658152282238006
1631023526466,0.6287102103233337,0.7297608852386475,0.5540441274642944,0.2658152282238006
1631023526575,0.6287102103233337,0.757888674736023,0.6051735877990723,0.2658152282238006
1631023526684,0.6287102103233337,0.7870786190032959,0.6322486400604248,0.2658152282238006
1631023526794,0.942864954471588,0.8168879151344299,0.6402178406715393,0.8747814893722534
1631023526950,0.8661389946937561,0.8460026979446411,0.6389232277870178,0.796051561832428
1631023527028,0.8068605661392212,0.8673713207244873,0.6307148337364197,0.737246572971344
1631023527122,0.7612776756286621,0.8297545909881592,0.6090861558914185,0.700151264667511
1631023527249,0.726546049118042,0.7615454196929932,0.5698619484901428,0.6789258718490601
1631023527343,0.7010735273361206,0.6757052540779114,0.523160457611084,0.6659596562385559
1631023527374,0.6830794811248779,0.6060366034507751,0.4945527613162994,0.6535979509353638
1631023527468,0.6717881560325623,0.5784220099449158,0.5118383765220642,0.6367835998535156
1631023527577,0.6672806739807129,0.5771675705909729,0.575139582157135,0.6143255233764648
1631023527780,0.6650148034095764,0.5666418075561523,0.6550397872924805,0.5880410075187683
1631023527843,0.6633500456809998,0.5134180188179016,0.7179334759712219,0.5603607892990112
1631023527952,0.6593208909034729,0.3866363167762756,0.7091594934463501,0.5603607892990112
1631023528030,0.5920898914337158,0.1600550562143325,0.6860134601593018,0.4904052913188934
1631023528155,0.5735666751861572,0.2460741102695465,0.6648927927017212,0.4022320806980133
1631023528189,0.657583475112915,0.2460741102695465,0.6650179028511047,0.3364247679710388
1631023528377,0.7861015796661377,0.2460741102695465,0.6903752684593201,0.51530522108078
1631023528486,0.8916890025138855,0.2460741102695465,0.7304390072822571,0.5409688949584961
1631023528502,0.9525320529937744,0.2460741102695465,0.7762483358383179,0.5675413608551025
1631023528705,0.978319525718689,0.2606678605079651,0.8257495760917664,0.587123453617096
1631023528752,0.9875043034553528,0.2747799754142761,0.8801975846290588,0.5992224216461182
1631023528892,0.9911370873451232,0.281981498003006,0.9412273168563844,0.6075823307037354
1631023528989,0.989710807800293,0.2767605185508728,1.0088980197906494,0.6227012276649475
1631023529036,0.9825010895729064,0.2655588090419769,1.0088980197906494,0.6616004109382629
1631023529099,0.9732102155685424,0.242559015750885,1.0088980197906494,0.6616004109382629
1631023529224,0.9662090539932252,0.271143764257431,1.0088980197906494,0.6616004109382629
1631023529302,0.9633505940437316,0.3319976925849914,1.0088980197906494,0.6616004109382629
1631023529567,0.964637577533722,0.3319976925849914,1.0088980197906494,0.6616004109382629
1631023529598,0.963031768798828,0.3319976925849914,1.0088980197906494,0.6616004109382629
1631023529661,0.9423789978027344,0.3319976925849914,1.0088980197906494,0.6616004109382629
1631023529755,0.8822193145751953,0.3319976925849914,1.0088980197906494,0.6616004109382629
1631023529817,0.7728964686393738,0.2337272465229034,1.0088980197906494,0.6616004109382629
1631023529942,0.6275989413261414,0.190825417637825,1.0088980197906494,0.6616004109382629
1631023530176,0.4970473349094391,0.1529714614152908,0.1491442620754242,0.6616004109382629
1631023530223,0.4416329264640808,0.1130148097872734,0.1588195860385894,-0.2734848856925964
1631023530255,0.4474197030067444,0.0709161087870597,0.1623973548412323,-0.2695746421813965
1631023530380,0.4717272818088531,0.0308368168771266,0.1723336428403854,-0.2535313069820404
1631023530426,0.4950215220451355,-0.0043522124178707,0.2029895186424255,-0.2133942991495132
1631023530551,0.5131089091300964,-0.0347603745758533,0.2431009709835052,-0.1480268836021423
1631023530708,0.5183890461921692,-0.0782556012272834,0.272175669670105,-0.0684878155589103
1631023530786,0.5146167278289795,-0.1073292940855026,0.2829724252223968,0.023895913735032
1631023530833,0.5072106719017029,-0.1349813342094421,0.2851692736148834,0.11392742395401
1631023530942,0.4976581931114197,-0.1599591523408889,0.2883939146995544,0.1805327832698822
1631023531020,0.4942172169685364,-0.1810870170593261,0.292023092508316,0.2152776569128036
1631023531227,0.4976798295974731,-0.3200894296169281,0.2900036573410034,0.2261034101247787
1631023531273,0.5010866522789001,-0.3814589381217956,0.2800894379615783,0.2301840782165527
1631023531445,0.500512957572937,-0.3693790733814239,0.2822490632534027,0.2544433772563934
1631023531461,0.4929458796977997,-0.3312658369541168,0.2858607470989227,0.2751789391040802
1631023531617,0.4751423597335815,-0.2903266251087188,0.2872068583965301,0.285908967256546
1631023531773,0.4446757137775421,-0.2575089335441589,0.2839633822441101,0.2900026142597198
1631023531851,0.4020787179470062,-0.2343535870313644,0.2747895717620849,0.2941887080669403
1631023531898,0.3528687953948974,-0.2189486473798751,0.2552796304225921,0.3015342652797699
1631023532039,0.314495325088501,-0.2083265632390976,0.2186238169670105,0.3124058246612549
1631023532242,0.2975070774555206,-0.1921562850475311,0.1650842428207397,0.3230385184288025
1631023532320,0.304491251707077,-0.1623459011316299,0.1053824573755264,0.3286195397377014
1631023532320,0.3243219554424286,-0.124378316104412,0.0534360706806182,0.3209955990314483
1631023532367,0.3452519476413727,-0.0910408273339271,0.007331998553127,0.2999086380004883
1631023532523,0.3579563796520233,-0.0678708106279373,-0.04337690025568,0.2818529009819031
1631023532570,0.3648819029331207,-0.0484549403190612,-0.0982223749160766,0.2883468568325043
1631023532695,0.3860428035259247,-0.0273940972983837,-0.1421224325895309,0.3173357546329498
1631023532929,0.4276150465011596,-0.0143644912168383,-0.1677658557891845,0.3501962721347809
1631023533023,0.4464707970619201,-0.0187832061201334,-0.184132382273674,0.3540718555450439
1631023533101,0.4697700142860412,-0.0186379253864288,-0.1867420077323913,0.3606800734996795
1631023533132,0.4941540062427521,0.0511078312993049,-0.1147299408912658,0.3766695261001587
1631023533167,0.5143410563468933,0.2092949450016021,0.0550003163516521,0.4011129140853882
1631023533386,0.531804084777832,0.378217875957489,0.0611024126410484,0.429130882024765
1631023533646,0.548749566078186,0.5015397667884827,0.0810345560312271,0.4556715786457062
1631023533686,0.5703657865524292,0.5699732899665833,0.1110083535313606,0.477151870727539
1631023533891,0.6003959774971008,0.5976260304450989,0.1922352612018585,0.4939879179000854
1631023534026,0.6325798034667969,0.603912353515625,0.213243618607521,0.5102283954620361
1631023534071,0.6567485332489014,0.6033244132995605,0.2202172130346298,0.5341134667396545
1631023534133,0.6647524833679199,0.601714551448822,0.2292784303426742,0.5699102282524109
1631023534227,0.6647524833679199,0.6009663343429565,0.24313984811306,0.5699102282524109
1631023534253,0.6647524833679199,0.5995196104049683,0.2555941641330719,0.5699102282524109
1631023534282,0.6647524833679199,0.5958592891693115,0.2603126168251037,0.5699102282524109
1631023534381,0.6647524833679199,0.5907579660415649,0.2566942274570465,0.5699102282524109
1631023534490,0.6647524833679199,0.5857535004615784,0.2466353327035904,0.5699102282524109
1631023534591,0.6647524833679199,0.576781690120697,0.2237714678049087,0.5699102282524109
1631023534623,0.6647524833679199,0.5478970408439636,0.1518280655145645,0.5699102282524109
1631023534659,0.6647524833679199,0.4750285744667053,-0.0626176819205284,0.5699102282524109
1631023534772,0.6647524833679199,0.3404565751552582,-0.0875633582472801,0.5699102282524109
1631023534944,0.6647524833679199,0.1451522707939148,-0.1101731583476066,0.5699102282524109
1631023535116,0.5700712203979492,-0.0696587041020393,-0.1303201466798782,0.5699102282524109
1631023535183,0.5012711882591248,-0.2270242571830749,-0.2656421661376953,0.5699102282524109
1631023535241,0.4640817642211914,-0.301843523979187,-0.2984862923622131,0.5699102282524109
1631023535380,0.4708965420722961,-0.3394483029842376,-0.2927641570568084,0.4229216277599334
1631023535427,0.5078212022781372,-0.3634335696697235,-0.2914262115955353,0.3810930848121643
1631023535625,0.5444795489311218,-0.3783812522888183,-0.3042802214622497,0.3308807611465454
1631023535704,0.5657124519348145,-0.3807852864265442,-0.2995637953281402,0.2822685539722442
1631023535735,0.5680609941482544,-0.3695628046989441,-0.2393380105495453,0.2381290793418884
1631023535907,0.5593904256820679,-0.3482208847999573,-0.1414535641670227,0.1984694302082061
1631023535938,0.5468584299087524,-0.3229883313179016,-0.0515255741775035,0.1651777625083923
1631023536183,0.5358275771141052,-0.3018670976161957,0.0128951743245124,0.1381248980760574
1631023536232,0.5299797058105469,-0.2850666046142578,0.0581134296953678,0.1165451183915138
1631023536294,0.5038859844207764,-0.2690679728984833,0.0951409786939621,0.1007610857486724
1631023536326,0.4958963692188263,-0.2480523586273193,0.1281913816928863,0.0919246301054954
1631023536411,0.5046260952949524,-0.2266644239425659,0.155154675245285,0.0926916822791099
1631023536489,0.5233433246612549,-0.2089493572711944,0.1735293418169021,0.0704066827893257
1631023536728,0.5352262854576111,-0.1974401473999023,0.1834747940301895,0.0321139991283416
1631023536947,0.5381888747215271,-0.1935471594333648,0.185791939496994,-0.0153028406202793
1631023537010,0.5319921374320984,-0.1988642364740371,0.1831923574209213,-0.0630989372730255
1631023537041,0.5139421820640564,-0.2070712149143219,0.1781808584928512,-0.0856107994914054
1631023537056,0.4887581169605255,-0.1929136514663696,0.17010098695755,-0.0839991047978401
1631023537244,0.4612268209457397,-0.1174569949507713,0.1515975445508957,-0.0677965953946113
1631023537400,0.4378657639026642,0.0034775622189044,0.1134438663721084,-0.0436101220548152
1631023537478,0.4216790795326233,0.113844595849514,0.0557285919785499,-0.0156301874667406
1631023537541,0.4147034287452698,0.1839964836835861,-0.0073865558952093,0.0085508469492197
1631023537572,0.4165138006210327,0.2153925895690918,-0.0584644936025142,0.0282654836773872
1631023537634,0.4251073896884918,0.2238003313541412,-0.0947818234562873,0.0476866997778415
1631023537806,0.4390186369419098,0.2256233543157577,-0.1253854185342788,0.071703091263771
1631023537853,0.459171712398529,0.2308456748723983,-0.1438969075679779,0.1001490354537963
1631023537978,0.4977819919586181,0.2521209716796875,-0.1171198934316635,0.1274962425231933
1631023538088,0.5637120604515076,0.2949826121330261,-0.0354098416864872,0.1523289382457733
1631023538163,0.6414453983306885,0.3472175002098083,0.0631738752126693,0.1781569868326187
1631023538257,0.7014912962913513,0.3913830518722534,0.143541544675827,0.2022215127944946
1631023538462,0.7386280298233032,0.4192169606685638,0.2000746130943298,0.2181476801633834
1631023538509,0.7613297700881958,0.4329248964786529,0.2449558228254318,0.2223774641752243
1631023538620,0.7811475396156311,0.4345302283763885,0.2935957610607147,0.2229297757148742
1631023538698,0.8018485903739929,0.4170229136943817,0.3465692400932312,0.2317941635847091
1631023538745,0.8175270557403564,0.37403604388237,0.3934835195541382,0.2529460191726684
1631023538979,0.826067328453064,0.3148010969161987,0.4269844889640808,0.2790062427520752
1631023539010,0.8274810314178467,0.2627645134925842,0.4456928372383117,0.3019648790359497
1631023539232,0.8223788142204285,0.2368573099374771,0.4542222917079925,0.3159712553024292
1631023539294,0.8138821125030518,0.2331606298685073,0.4579293727874756,0.3182129859924316
1631023539341,0.806999683380127,0.2356650680303573,0.4616742134094238,0.3071211874485016
1631023539482,0.8010520935058594,0.2329485863447189,0.4701354503631592,0.283359557390213
1631023539575,0.7863186597824097,0.2140643745660781,0.4823474884033203,0.2499368786811828
1631023539716,0.7511928677558899,0.170646071434021,0.4916304647922516,0.2125089168548584
1631023539810,0.6929744482040405,0.1083666756749153,0.4910911917686462,0.1798769384622573
1631023539841,0.6277251839637756,0.0468710288405418,0.4801665842533111,0.1619782149791717
1631023539888,0.5697293281555176,0.0061602862551808,0.4614469707012176,0.1674489676952362
1631023540138,0.5318440198898315,-0.0139257553964853,0.4363752007484436,0.176856592297554
1631023540138,0.5242263674736023,-0.0260339099913835,0.4006578922271728,0.1898998320102691
1631023540226,0.5554690361022949,-0.0320087149739265,0.3526805639266968,0.1900745928287506
1631023540284,0.6191524267196655,-0.0270755067467689,0.3015019595623016,0.5102548003196716
1631023540378,0.6790346503257751,-0.0153130190446972,0.2626618146896362,0.6960563659667969
1631023540612,0.7163652777671814,-0.0080934194847941,0.2516256868839264,0.7901708483695984
1631023540628,0.7354002594947815,-0.0108336871489882,0.2659055292606354,0.8149348497390747
1631023540706,0.745698869228363,-0.0212318040430545,0.2878524661064148,0.8473618030548096
1631023540846,0.746444821357727,-0.0325384698808193,0.2991918623447418,0.8877423405647278
1631023540878,0.7394869923591614,-0.036071915179491,0.28765669465065,0.9358641505241394
1631023541065,0.7275557518005371,-0.0054912604391574,0.2491857409477234,0.9392033815383912
1631023541286,0.7186421155929565,0.0834150910377502,0.1901462078094482,0.943429470062256
1631023541349,0.7189100980758667,0.2069633156061172,0.1311742216348648,0.9453557729721068
1631023541458,0.728299081325531,0.3168639242649078,0.0963977426290512,0.9430373311042786
1631023541489,0.7427391409873962,0.388614296913147,0.0905888229608535,0.9366416335105896
1631023541536,0.7510244846343994,0.4231216013431549,0.097324438393116,0.8913041949272156
1631023541802,0.7389417290687561,0.4383760392665863,0.1034242883324623,0.8524406552314758
1631023541911,0.6982704997062683,0.452647864818573,0.1079535186290741,0.8201048970222473
1631023541974,0.633013904094696,0.471210777759552,0.1101459115743637,0.6734982132911682
1631023542036,0.5697762370109558,0.4898016154766083,0.1035946160554885,0.4390211701393127
1631023542192,0.5403771996498108,0.5044059157371521,0.0771176144480705,0.1262957751750946
1631023542430,0.5402355194091797,0.5146642327308655,0.0273973681032657,0.1221542209386825
1631023542576,0.5417001843452454,0.5219656229019165,-0.0321804918348789,0.1091780215501785
1631023542592,0.535970151424408,0.5259461402893066,-0.0740947052836418,0.097210980951786
1631023542639,0.5263201594352722,0.5251758098602295,-0.0735193863511085,0.0949741750955581
1631023542655,0.5175634622573853,0.5120711326599121,-0.0350155979394912,0.1140712946653366
1631023542670,0.5088274478912354,0.4743054807186126,0.0160413812845945,0.1325075477361679
1631023542779,0.4997053444385528,0.4023378491401672,0.0548524595797061,0.1487498581409454
1631023542967,0.4861248433589935,0.3025265038013458,0.0719546973705291,0.1641859412193298
1631023543096,0.4615890681743622,0.2029698938131332,0.0750484764575958,0.1814399063587188
1631023543143,0.4304991662502289,0.140304148197174,0.0799099057912826,0.2001226395368576
1631023543174,0.4035626947879791,0.1166525110602378,0.0932672694325447,0.2146497964859008
1631023543236,0.3842778205871582,0.1046465411782264,0.1090694814920425,0.2215158194303512
1631023543424,0.3656008243560791,0.0884601920843124,0.1199432462453842,0.2152970731258392
1631023543643,0.3333685994148254,0.0660515129566192,0.1242236793041229,0.2028098553419113
1631023543752,0.2780561447143554,0.0407616309821605,0.1237242221832275,0.1923659294843673
1631023543783,0.2150042355060577,0.0171335451304912,0.1191273406147956,0.190174400806427
1631023543814,0.1789585500955581,3.547967571648769e-05,0.1103393733501434,0.1955870985984802
1631023544208,0.1952209174633026,-0.0073970132507383,0.0979078933596611,0.2022655755281448
1631023544223,0.2387994229793548,-0.006318487226963,0.0758586674928665,0.1982399225234985
1631023544270,0.2800014317035675,0.0009164785733446,0.0362187325954437,0.1780127882957458
1631023544286,0.3066107928752899,0.0100240176543593,-0.0239307042211294,0.1465574353933334
1631023544317,0.3145596385002136,0.0142937190830707,-0.0932919159531593,0.1155094057321548
1631023544583,0.3130671679973602,0.0100540574640035,-0.1542792320251464,0.094300739467144
1631023544645,0.3105939328670501,0.0002448777959216,-0.2025148123502731,0.0814956724643707
1631023544723,0.3148568272590637,-0.0084870643913745,-0.2501407563686371,0.0707239508628845
1631023544754,0.331785649061203,-0.0195000395178794,-0.3048827946186065,0.0647305995225906
1631023544770,0.3567335605621338,-0.0461533144116401,-0.3603460192680359,0.0658109709620475
1631023544879,0.3930636942386627,-0.0984847471117973,-0.4055203795433044,0.0826782286167144
1631023545051,0.4539019167423248,-0.1681135296821594,-0.432957261800766,0.0792456939816474
1631023545131,0.5309807658195496,-0.2321523576974868,-0.4408198297023773,0.0812532380223274
1631023545241,0.6039434671401978,-0.2744194567203522,-0.4316504895687103,0.130218043923378
1631023545350,0.6501839756965637,-0.2985832989215851,-0.4124244451522827,0.1621167808771133
1631023545413,0.6611725687980652,-0.3116678893566131,-0.3965190947055816,0.1802243441343307
1631023545709,0.6412332653999329,-0.3390294909477234,-0.4144249558448791,0.2362579405307769
1631023545709,0.6515049934387207,-0.3208639323711395,-0.3964634537696838,0.203232541680336
1631023545725,0.6399577260017395,-0.3746336102485657,-0.438605397939682,0.269997090101242
1631023545803,0.6476925611495972,-0.4154584109783172,-0.4472151100635528,0.2921668887138366
1631023545944,0.658581018447876,-0.4378531277179718,-0.4283966422080993,0.3007720112800598
1631023546228,0.6698054075241089,-0.4310730695724487,-0.3924911916255951,0.2943233549594879
1631023546243,0.6756865382194519,-0.4022909998893738,-0.3615685403347015,0.2796783149242401
1631023546431,0.6761721968650818,-0.3605203628540039,-0.3437768220901489,0.2621150612831116
1631023546478,0.6737656593322754,-0.3153977394104004,-0.3345838785171509,0.2450837343931198
1631023546540,0.6646751165390015,-0.2734884917736053,-0.3270603716373443,0.2286866605281829
1631023546540,0.6412777900695801,-0.2393200844526291,-0.318758875131607,0.2232067435979843
1631023546759,0.6058069467544556,-0.2124545723199844,-0.2997641563415527,0.2232067435979843
1631023546821,0.5512581467628479,-0.1882995218038559,-0.2353470176458358,0.1971339732408523
1631023547009,0.4973861277103424,-0.1668731719255447,-0.0477325245738029,0.1766114979982376
1631023547024,0.4732328355312347,-0.1513423472642898,-0.0330427847802639,0.1642555743455886
1631023547071,0.4762515723705292,-0.1425507962703704,-0.0145857967436313,0.1477178335189819
1631023547087,0.4838748872280121,-0.1357340663671493,0.0068035842850804,0.1159513443708419
1631023547199,0.4847355484962463,-0.1156714111566543,0.0282313954085111,0.071754477918148
1631023547355,0.4793306291103363,-0.0680234506726265,0.0466670729219913,0.0314091183245182
1631023547512,0.4742293953895569,0.0009634080925025,0.1504205167293548,0.004224510397762
1631023547605,0.4845945537090301,0.1090640053153038,0.2394236922264099,0.0509360022842884
1631023547871,0.4845945537090301,0.1550813615322113,0.2590138912200928,0.0509360022842884
1631023547871,0.4845945537090301,0.1266591101884842,0.255444198846817,0.0509360022842884
1631023547918,0.4845945537090301,0.238435298204422,0.2556445598602295,0.0509360022842884
1631023547996,0.4845945537090301,0.3649733960628509,0.2486901581287384,0.0509360022842884
1631023548074,0.4845945537090301,0.4818357527256012,0.2361205369234085,0.3177384436130523
1631023548183,0.6018410325050354,0.5582014918327332,0.2019728124141693,0.2975797057151794
1631023548402,0.6118252277374268,0.5938846468925476,0.0602766461670398,0.2618784606456756
1631023548512,0.5956419706344604,0.6048077940940857,0.0836882144212722,0.2185985893011093
1631023548674,0.5651271343231201,0.6082289218902588,0.1777881383895874,0.1759218871593475
1631023548721,0.5274618268013,0.6122084856033325,0.3183222413063049,0.1423301547765731
1631023548752,0.4867846667766571,0.6164383292198181,0.444267064332962,0.1227590963244438
1631023548830,0.4470019340515136,0.6165083646774292,0.524071216583252,0.1176249459385871
1631023548986,0.4116947650909424,0.6095756888389587,0.5545850992202759,0.1210754290223121
1631023549018,0.3810822367668152,0.597605288028717,0.5598695278167725,0.1236608624458313
1631023549194,0.3564182817935943,0.585943877696991,0.5517221093177795,0.1217286437749862
1631023549224,0.3364569544792175,0.5770502686500549,0.5452759265899658,0.1129114925861358
1631023549302,0.3173836171627044,0.5613769292831421,0.54288649559021,0.0683982744812965
1631023549599,0.3020443022251129,0.5203409790992737,0.5436270236968994,0.0290349014103412
1631023549786,0.2745396792888641,0.4375010728836059,0.5460208058357239,-0.0089403400197625
1631023549818,0.2189890444278717,0.3116212785243988,0.548372209072113,-0.0360551588237285
1631023549833,0.1352065205574035,0.174287661910057,0.5504865646362305,-0.0617279447615146
1631023549849,0.0441853739321231,0.1019403934478759,0.5560650825500488,-0.0691823586821556
1631023549989,-0.0374146290123462,0.1456551402807235,0.5693981647491455,-0.0582738816738128
1631023550036,-0.0956812873482704,0.2435572296380996,0.5784863233566284,-0.0360651761293411
1631023550273,-0.1223480403423309,0.3271282017230987,0.5620193481445312,-0.0143170328810811
1631023550336,-0.1154561415314674,0.3713550865650177,0.4856375455856323,-0.0037153831217437
1631023550367,-0.0854289159178733,0.3814877867698669,0.3990393280982971,-0.0140799954533576
1631023550601,-0.0493878200650215,0.3735210001468658,0.3225849866867065,-0.0505991019308567
1631023550617,-0.010360037907958,0.3663038909435272,0.2915469110012054,-0.1061240807175636
1631023550648,0.0215280391275882,0.3694593608379364,0.2970232665538788,-0.1756731420755386
1631023550898,0.0215280391275882,0.3827320039272308,0.3119312226772308,-0.1756731420755386
1631023550945,0.0215280391275882,0.3984073400497436,0.3241976797580719,-0.1756731420755386
1631023551104,0.0215280391275882,0.4068423807621002,0.331119954586029,-0.1756731420755386
1631023551166,0.0215280391275882,0.4040348529815674,0.3343458771705627,-0.1756731420755386
1631023551338,0.2794489562511444,0.3950459659099579,0.3369931280612945,-0.1756731420755386
1631023551432,0.228200763463974,0.3844571709632873,0.3388824760913849,0.4088288247585296
1631023551479,0.1940293163061142,0.3651548027992248,0.3305537700653076,0.3505024909973144
1631023551510,0.1781226396560669,0.3209312558174133,0.2930689752101898,0.3151377737522125
1631023551541,0.1786225587129593,0.2566150426864624,0.2127684950828552,0.2998953759670257
1631023552025,0.1938752382993698,0.2074204236268997,0.0944141149520874,0.3030135631561279
1631023552076,0.2149204462766647,0.209607183933258,0.0963485538959503,0.3100486695766449
1631023552091,0.225173994898796,0.2493429183959961,0.0357780195772647,0.3113225698471069
1631023552122,0.2224369347095489,0.289749413728714,0.0061625218950212,0.3053772449493408
1631023552201,0.2120550274848938,0.3096185028553009,-0.0181928239762783,0.3053772449493408
1631023552357,0.2052584588527679,0.3102827370166778,-0.0514990203082561,0.3053772449493408
1631023552372,0.2061227560043335,0.2990366220474243,-0.0866409987211227,0.3053772449493408
1631023552435,0.189779907464981,0.2849559187889099,-0.1157447099685669,0.3057122528553009
1631023552513,0.1836303621530532,0.2766201794147491,-0.1381175369024276,0.2601790130138397
1631023552591,0.1851024478673935,0.2792160809040069,-0.1562920957803726,0.2327768802642822
1631023552654,0.1935675293207168,0.2905821800231933,-0.1693160533905029,0.2321144938468933
1631023552872,0.2336243391036987,0.3160349726676941,-0.165638118982315,0.264881432056427
1631023552872,0.2079483717679977,0.3046879470348358,-0.1715783327817917,0.248897448182106
1631023553090,0.2742328941822052,0.319008857011795,-0.166103109717369,0.270749032497406
1631023553110,0.3189602494239807,0.3053345680236816,-0.1881413608789444,0.2770120799541473
1631023553188,0.3203000426292419,0.285071462392807,-0.2332203686237335,0.2719945609569549
1631023553298,0.316321313381195,0.3258211612701416,-0.2803601920604706,0.2606577575206756
1631023553407,0.3163269460201263,0.50213223695755,-0.2860197722911834,0.2522515058517456
1631023553626,0.3453956246376037,0.9184678196907043,-0.1267796158790588,0.2538399994373321
1631023553626,0.3261038064956665,0.7329713702201843,-0.2247506827116012,0.2538399994373321
1631023553672,0.3654016852378845,1.0332876443862915,-0.0385072417557239,0.2538399994373321
1631023553860,0.3807473480701446,1.088227391242981,0.0193979535251855,0.2538399994373321
1631023554222,0.3936239778995514,1.105907320976257,0.0519434660673141,0.243851289153099
1631023554269,0.4116747975349426,1.108388066291809,0.0747879818081855,0.2379453778266906
1631023554300,0.4411614835262298,1.107292413711548,0.0966994985938072,0.2343021631240844
1631023554331,0.4877954423427582,1.105805516242981,0.1136335060000419,0.2343021631240844
1631023554394,0.4877954423427582,1.1043933629989624,0.1165563687682151,0.2343021631240844
1631023554519,0.4877954423427582,1.103063702583313,0.1045785471796989,0.2343021631240844
1631023554675,0.4877954423427582,1.101494550704956,0.0868052616715431,0.2343021631240844
1631023554784,0.4877954423427582,1.099386215209961,0.0769575983285904,0.2343021631240844
1631023554815,0.4437765479087829,1.0941758155822754,0.0814280807971954,-0.3114142119884491
1631023554831,0.3866629302501678,1.0762243270874023,0.0935389697551727,-0.252359539270401
1631023554956,0.3798701763153076,1.0240111351013184,0.0964891165494918,-0.0505521371960639
1631023555081,0.4330047965049743,0.9111562371253968,0.074924811720848,0.1777443438768386
1631023555209,0.5181734561920166,0.7152369022369385,0.0238352343440055,0.3478495180606842
1631023555256,0.5946279168128967,0.4263438582420349,-0.0459534712135791,0.4437075555324554
1631023555303,0.6441181302070618,0.0876996144652366,-0.1132195740938186,0.4813962578773498
1631023555459,0.6642178893089294,-0.1340117454528808,-0.1627487540245056,0.4786021411418915
1631023555506,0.6687978506088257,-0.164740651845932,-0.2000195384025573,0.4595844447612762
1631023555647,0.6687978506088257,-0.1341665685176849,-0.2365524768829345,0.4595844447612762
1631023555850,0.6687978506088257,-0.0994471386075019,-0.269632339477539,0.4595844447612762
1631023555944,0.6687978506088257,-0.0390607826411724,-0.2796474695205688,0.4595844447612762
1631023555959,0.6737086772918701,0.0697765722870826,-0.2462949901819229,0.4868980050086975
1631023556084,0.686691164970398,0.1971945911645889,-0.1816610991954803,0.5217610597610474
1631023556178,0.711133599281311,0.3009329438209533,-0.1231773644685745,0.563276469707489
1631023556274,0.7487686276435852,0.3634339869022369,-0.0961680337786674,0.6104276776313782
1631023556367,0.7963112592697144,0.3904508352279663,-0.1017160862684249,0.6570395827293396
1631023556461,0.8407788872718811,0.3971472084522247,-0.1250036656856537,0.6877454519271851
1631023556508,0.8692494630813599,0.3952687382698059,-0.1471521854400634,0.681878387928009
1631023556758,0.8691400289535522,0.3897039294242859,-0.1600695997476577,0.6220578551292419
1631023556867,0.8691400289535522,0.3842981159687042,-0.1602566987276077,0.6220578551292419
1631023557058,0.8691400289535522,0.3847296237945556,-0.1410495042800903,0.6220578551292419
1631023557073,0.8691400289535522,0.3931337296962738,-0.1039490327239036,0.6220578551292419
1631023557261,0.8691400289535522,0.4045617878437042,-0.0635382905602455,0.6220578551292419
1631023557323,0.5178688764572144,0.4115118384361267,-0.035364955663681,0.6220578551292419
1631023557417,0.4509349167346954,0.4097172021865845,-0.0230672899633646,0.0667994692921638
1631023557526,0.3883982598781585,0.3957161605358124,-0.020510921254754,0.0508923605084419
1631023557573,0.3359593451023102,0.3738113939762115,-0.0153991766273975,0.1422539949417114
1631023557605,0.301692932844162,0.3603842258453369,0.0024521129671484,0.2866657078266144
1631023557667,0.3054811656475067,0.3676829636096954,0.0373032204806804,0.4098424315452575
1631023557792,0.3500671982765198,0.3908809721469879,0.0823746249079704,0.4817005693912506
1631023557948,0.4130573868751526,0.4138038754463196,0.1242299675941467,0.5063163042068481
1631023558091,0.4587317109107971,0.4283474385738373,0.1552094966173172,0.4967020153999328
1631023558154,0.4797607064247131,0.4387668371200561,0.1767715513706207,0.4712745249271393
1631023558185,0.4762172102928161,0.4492896497249603,0.1930842250585556,0.4422093629837036
1631023558279,0.4620557427406311,0.4581952393054962,0.2033519297838211,0.415572851896286
1631023558357,0.4329173564910888,0.4594762027263641,0.2033358216285705,0.3953710496425628
1631023558450,0.4172315895557403,0.4503755867481231,0.192252367734909,0.4041868150234222
1631023558575,0.4128181338310241,0.4413433969020843,0.1833382993936538,0.4190483391284942
1631023558700,0.4253048896789551,0.4585188329219818,0.2274923473596573,0.4419892132282257
1631023558778,0.4500985443592071,0.5261522531509399,0.2432703375816345,0.4720080196857452
1631023558903,0.4836942255496979,0.6227361559867859,0.465555340051651,0.5004724860191345
1631023558997,0.5222851037979126,0.7022560238838196,0.6277297735214233,0.5074574947357178
1631023559094,0.5609087944030762,0.7376548051834106,0.7188863754272461,0.472286581993103
1631023559234,0.5853978395462036,0.7359510660171509,0.7579076886177063,0.3782193958759308
1631023559297,0.5786555409431458,0.7315619587898254,0.776585042476654,0.2215286046266555
1631023559453,0.5226379036903381,0.7619052529335022,0.8039911985397339,0.0164298210293054
1631023559500,0.424231082201004,0.82228022813797,0.8436554074287415,-0.1616342812776565
1631023559625,0.424231082201004,0.8791821599006653,0.8802438378334045,-0.1616342812776565
1631023559797,0.424231082201004,0.9131683707237244,0.903117299079895,-0.1616342812776565
1631023559859,0.424231082201004,0.9262031316757202,0.9126735329627992,-0.1616342812776565
1631023559890,0.424231082201004,0.95142924785614,0.9155840873718262,-0.1616342812776565
1631023560081,0.424231082201004,0.9797274470329284,0.916941463947296,-0.1616342812776565
1631023560253,0.424231082201004,0.9853290319442748,0.9162883162498474,-0.1616342812776565
1631023560284,0.424231082201004,0.9829835891723632,0.9054574370384216,-0.1616342812776565
1631023560331,0.424231082201004,0.9603654742240906,0.8804242014884949,-0.1616342812776565
1631023560377,0.424231082201004,0.912791669368744,0.8173900842666626,-0.1616342812776565
1631023560830,0.424231082201004,0.849703311920166,0.729468584060669,-0.1616342812776565
1631023560877,0.424231082201004,0.7943874001502991,0.641234815120697,0.462669163942337
1631023560940,0.424231082201004,0.7599104642868042,0.5767553448677063,0.4181653261184692
1631023560955,0.424231082201004,0.7289226651191711,0.527514636516571,0.3692502677440643
1631023560987,0.424231082201004,0.6663519740104675,0.4602653384208679,0.3692502677440643
1631023561033,0.424231082201004,0.550290048122406,0.3566136360168457,0.3692502677440643
1631023561428,0.424231082201004,0.386496365070343,0.2295583933591842,0.3692502677440643
1631023561428,0.424231082201004,0.2196678519248962,0.1188042014837265,0.3692502677440643
1631023561490,0.424231082201004,0.1074673309922218,0.0586736686527729,0.3692502677440643
1631023561537,0.424231082201004,0.0886495783925056,0.0388438217341899,0.3692502677440643
1631023561584,0.424231082201004,0.099750816822052,0.0433572642505168,0.3692502677440643
1631023561693,0.424231082201004,0.156305506825447,0.0536696389317512,0.3692502677440643
1631023561865,0.424231082201004,0.3204610347747803,0.1228216141462326,0.3692502677440643
1631023561974,0.424231082201004,0.5078916549682617,0.2168122977018356,0.3347271382808685
1631023561974,0.424231082201004,0.6489549279212952,0.2954618632793426,0.2784971892833709
1631023562006,0.424231082201004,0.7328082919120789,0.3416602313518524,0.2784971892833709
1631023562145,0.424231082201004,0.7577636241912842,0.3556665778160095,0.2784971892833709
1631023562258,0.424231082201004,0.7851719260215759,0.379428893327713,0.2784971892833709
1631023562383,0.424231082201004,0.92644464969635,0.4105686247348785,0.2784971892833709
1631023562477,0.424231082201004,1.0495816469192505,0.550650954246521,0.2784971892833709
1631023562555,0.424231082201004,1.129333734512329,0.6438006162643433,0.2784971892833709
1631023562586,0.424231082201004,1.1620497703552246,0.6880363821983337,0.2784971892833709
1631023562836,0.424231082201004,1.1985183954238892,0.6995943784713745,0.2784971892833709
1631023562976,0.424231082201004,1.2391067743301392,0.6979143619537354,0.2784971892833709
1631023563180,0.424231082201004,1.2835590839385986,0.6934877038002014,0.2784971892833709
1631023563214,0.424231082201004,1.3304134607315063,0.6532968878746033,0.2784971892833709
1631023563277,0.424231082201004,1.3165621757507324,0.616525411605835,0.2784971892833709
1631023563417,0.424231082201004,1.2824921607971191,0.5876600742340088,0.2784971892833709
1631023563496,0.424231082201004,1.225704312324524,0.5361759662628174,0.2784971892833709
1631023563683,0.424231082201004,1.157478928565979,0.4736011326313019,0.2784971892833709
1631023563730,0.4599830508232116,1.0977890491485596,0.4204273223876953,0.2244640737771988
1631023563761,0.4402234256267547,1.049489140510559,0.3919531106948852,0.2635189890861511
1631023563792,0.4375869631767273,1.0071929693222046,0.3641396462917328,0.2981547117233276
1631023563933,0.4327330887317657,0.85201495885849,0.3367458879947662,0.3172835111618042
1631023564042,0.4197023510932922,0.5411440134048462,0.1683454066514969,0.3189964294433594
1631023564136,0.4019680023193359,-0.3243603706359863,-0.0753053575754165,0.3113326728343963
1631023564265,0.3861936032772064,-0.3413527607917785,-0.3371743857860565,0.3040452897548675
1631023564328,0.378841370344162,-0.3548441529273987,-0.4857337474822998,0.2961283028125763
1631023564453,0.3795263171195984,-0.3629159331321716,-0.4900684356689453,0.2834012806415558
1631023564531,0.3823009729385376,-0.3690872192382812,-0.4416666030883789,0.264112651348114
1631023564562,0.38067427277565,-0.3766611218452453,-0.3835725486278534,0.2413012832403183
1631023564625,0.3727996945381164,-0.3791352808475494,-0.3286645710468292,0.2182567417621612
1631023564812,0.3403283655643463,-0.3800967931747436,-0.2833017706871032,0.2073085755109787
1631023564906,0.3193222880363464,-0.3847282230854034,-0.2416900992393493,0.2004433125257492
1631023565062,0.3168468177318573,-0.397169291973114,-0.1921596825122833,0.2203522771596908
1631023565078,0.3316314220428467,-0.4190927147865295,-0.1333785355091095,0.2729363143444061
1631023565203,0.3607601225376129,-0.4508093297481537,-0.076686255633831,0.3322209417819977
1631023565331,0.4004626274108886,-0.4899007678031921,-0.0311302114278078,0.3739153742790222
1631023565377,0.4510097503662109,-0.5307976007461548,0.0018073654500767,0.3900854885578155
1631023565487,0.5015955567359924,-0.5607472062110901,0.0256366990506649,0.3865764141082763
1631023565627,0.5389919877052307,-0.578346312046051,0.0409138798713684,0.3732979595661163
1631023565674,0.5640291571617126,-0.5895686149597168,0.045798722654581,0.3585898578166961
1631023565830,0.5804739594459534,-0.5949251055717468,0.0408943146467208,0.3469036221504211
1631023565893,0.5993096232414246,-0.5915969610214233,0.0319054946303367,0.3403791189193725
1631023566067,0.6259422898292542,-0.5796962976455688,0.0257704593241214,0.3392611742019653
1631023566177,0.6579387784004211,-0.5676340460777283,0.0270241275429725,0.3416785299777984
1631023566305,0.6874294281005859,-0.5596221685409546,0.036899909377098,0.3468848168849945
1631023566398,0.7117556929588318,-0.5545296669006348,0.0519817136228084,0.3529292941093445
1631023566445,0.7285740375518799,-0.5398148894309998,0.0639660358428955,0.353775680065155
1631023566492,0.73935467004776,-0.5099417567253113,0.0617892742156982,0.3388205468654632
1631023566695,0.7496644854545593,-0.4634794890880584,0.0401906557381153,0.2974728941917419
1631023566711,0.7623716592788696,-0.3914127051830292,0.0054820869117975,0.2336827665567398
1631023566820,0.7756656408309937,-0.2902477979660034,-0.0277444832026958,0.1642795950174331
1631023566914,0.7854723930358887,-0.1801105737686157,-0.0486634410917758,0.1182933449745178
1631023566992,0.7891188859939575,-0.0882129892706871,-0.0603571683168411,0.1058897823095321
1631023567039,0.788036048412323,-0.0253043435513973,-0.0704591199755668,0.1139233633875846
1631023567369,0.7832554578781128,0.011556839570403,-0.0786586329340934,0.1228970065712928
1631023567525,0.7756215929985046,0.0316335521638393,-0.081239677965641,0.1305276751518249
1631023567604,0.7617142796516418,0.0427211970090866,-0.0825208127498626,0.1424060612916946
1631023567635,0.7418293952941895,0.0521701090037822,-0.0902416184544563,0.1664620041847229
1631023567807,0.7229176163673401,0.0671567097306251,-0.1082647293806076,0.1949030607938766
1631023567869,0.7103828191757202,0.0878998786211013,-0.1312038153409958,0.2167841792106628
1631023567900,0.7012338042259216,0.1074133142828941,-0.151112288236618,0.2258167713880539
1631023567994,0.6904729604721069,0.1188462376594543,-0.1682887524366378,0.2253054678440094
1631023568072,0.6720497608184814,0.1228465288877487,-0.1887640058994293,0.2162808328866958
1631023568103,0.6417337656021118,0.1232683137059211,-0.2129260897636413,0.1964130103588104
1631023568215,0.5965235829353333,0.1156834736466407,-0.2353867590427398,0.1710428297519683
1631023568418,0.5338783860206604,0.0889295041561126,-0.2553890943527221,0.1503926962614059
1631023568559,0.4597364664077759,0.0385427512228488,-0.2777748703956604,0.1408906131982803
1631023568668,0.389607310295105,-0.0223766863346099,-0.3023287653923034,0.1424849331378936
1631023568715,0.3400908410549164,-0.0650703832507133,-0.3234678208827972,0.1542434245347976
1631023568793,0.3189301788806915,-0.0710986256599426,-0.3387627601623535,0.1762875020503997
1631023568840,0.3249914050102234,-0.0536294542253017,-0.347698301076889,0.2014154642820358
1631023568949,0.3543366193771362,-0.035758763551712,-0.3381305336952209,0.2165935188531875
1631023569218,0.3861801028251648,-0.0303884129971265,-0.2932130992412567,0.2084856927394867
1631023569234,0.3987890481948852,-0.0352225340902805,-0.216398000717163,0.1833119392395019
1631023569249,0.3888642489910126,-0.0383396558463573,-0.136418879032135,0.1556115895509719
1631023569421,0.3658881783485412,-0.0314214751124382,-0.072570689022541,0.1338422745466232
1631023569437,0.3499868810176849,-0.0174790006130933,-0.0250535570085048,0.114600084722042
1631023569515,0.3485643863677978,-0.0078424317762255,0.0133386338129639,0.0922561511397361
1631023569702,0.3547309935092926,-0.0101443855091929,0.046770516782999,0.0706070512533187
1631023569749,0.3590401113033294,-0.0209842529147863,0.0723634958267211,0.0521907918155193
1631023569827,0.3629063069820404,-0.0310642123222351,0.0878159701824188,0.0401388145983219
1631023569983,0.3688068687915802,-0.0351033695042133,0.0948966294527053,0.0299409441649913
1631023570108,0.3765599727630615,-0.0347996167838573,0.0984672904014587,0.0197464134544134
1631023570314,0.386192262172699,-0.0301388185471296,0.1047080308198928,-0.0028738242108374
1631023570376,0.3873409926891327,-0.0128491315990686,0.1170100271701812,-0.0484307296574115
1631023570407,0.3703600168228149,0.0228652078658342,0.1317892074584961,-0.108747586607933
1631023570486,0.3288863897323608,0.067955195903778,0.1397647708654403,-0.1501901447772979
1631023570595,0.2704969346523285,0.1076105162501335,0.1317629814147949,-0.1383745521306991
1631023570626,0.2133129239082336,0.1310093253850937,0.1036748886108398,-0.0883252993226051
1631023570736,0.1805208027362823,0.13894884288311,0.0611255653202533,-0.0298833437263965
1631023570876,0.1855721175670623,0.1414129585027694,0.0158153045922517,0.0196373965591192
1631023570985,0.2089444547891616,0.1478065103292465,-0.0248030982911586,0.0698113813996315
1631023571032,0.2351625263690948,0.1603723466396331,-0.059903472661972,0.1231817454099655
1631023571173,0.2606260776519775,0.1759368181228637,-0.0932144895195961,0.1752784997224807
1631023571282,0.2907452285289764,0.1887519657611847,-0.1219567731022834,0.2189544290304184
1631023571454,0.3250067830085754,0.1970394253730774,-0.1381966173648834,0.2506007850170135
1631023571501,0.3595084846019745,0.2031585127115249,-0.1352054327726364,0.2677154242992401
1631023571657,0.3845389485359192,0.208576813340187,-0.1179113909602165,0.2809690237045288
1631023571767,0.3965452015399933,0.2076397240161895,-0.1018219143152237,0.2999002933502197
1631023571892,0.401972234249115,0.1909600347280502,-0.1006239429116249,0.3241659998893738
1631023571954,0.4116436243057251,0.1545885354280471,-0.1146025732159614,0.3432914912700653
1631023572001,0.4314157664775848,0.106419488787651,-0.1289880573749542,0.3496269285678863
1631023572110,0.4576481878757477,0.0614220649003982,-0.1246324554085731,0.3459068834781647
1631023572237,0.4785692989826202,0.0312830880284309,-0.100262276828289,0.3401127159595489
1631023572300,0.4889493882656097,0.0140178641304373,-0.0757249742746353,0.3358842730522156
1631023572394,0.4853922426700592,-0.0007308740750886,-0.071251593530178,0.3330915570259094
1631023572503,0.4760036170482635,-0.0199321489781141,-0.0894965007901191,0.3308319747447967
1631023572597,0.4793164730072021,-0.0436477549374103,-0.1156156808137893,0.3495997488498688
1631023572706,0.5333558320999146,-0.0692106708884239,-0.1284279376268386,0.4308577477931976
1631023572862,0.6451573967933655,-0.0910380482673645,-0.1224454939365387,0.5666554570198059
1631023572940,0.7683167457580566,-0.1064036414027214,-0.1106521189212799,0.6998716592788696
1631023573067,0.8649022579193115,-0.1172310262918472,-0.1090633571147918,0.7943522334098816
1631023573130,0.9208229184150696,-0.1256855428218841,-0.1224552914500236,0.8425358533859253
1631023573177,0.9435021281242372,-0.1329196542501449,-0.1407162696123123,0.8577690720558167
1631023573410,0.9490439891815186,-0.1396163403987884,-0.147918090224266,0.8588038086891174
1631023573457,0.9486815929412842,-0.1452924758195877,-0.1373852342367172,0.8584901094436646
1631023573613,0.9459066390991212,-0.1470458507537841,-0.1191481202840805,0.8597958087921143
1631023573707,0.9446498155593872,-0.1441607624292373,-0.1252027153968811,0.8624300956726074
1631023573707,0.9431894421577454,-0.1448038220405578,-0.1116410717368125,0.8615512847900391
1631023573770,0.9511234164237976,-0.1539525538682937,-0.1541422307491302,0.8625347018241882
1631023573926,0.9614663124084472,-0.1745203137397766,-0.1820962578058242,0.8624944090843201
1631023574116,0.9721198678016664,-0.1942218244075775,-0.1965215653181076,0.860112726688385
1631023574147,0.97520911693573,-0.198614701628685,-0.2008561193943023,0.8480376601219177
1631023574178,0.9583889842033386,-0.1856828033924102,-0.2079810947179794,0.8096195459365845
1631023574397,0.9115040302276612,-0.1640865951776504,-0.2241835296154022,0.7274593114852905
1631023574507,0.841728925704956,-0.1411280035972595,-0.2468258291482925,0.5977117419242859
1631023574741,0.7721974849700928,-0.1205655559897422,-0.2686393857002258,0.4457780420780182
1631023574788,0.7363893985748291,-0.0974940210580825,-0.2845246791839599,0.3310859799385071
1631023574803,0.7402215600013733,-0.0563394576311111,-0.2976695001125335,0.2894323170185089
1631023574819,0.7594907879829407,0.0118646053597331,-0.3104090690612793,0.286685973405838
1631023574866,0.7786135673522949,0.0898332148790359,-0.3165937662124634,0.2874742746353149
1631023575038,0.7943013310432434,0.1503339856863021,-0.309205561876297,0.2917572259902954
1631023575147,0.8031029105186462,0.1813693344593048,-0.2914930582046509,0.2984111607074737
1631023575303,0.8030939698219299,0.188400536775589,-0.2732091546058655,0.3010559976100921
1631023575366,0.7972444295883179,0.1858062446117401,-0.2593223750591278,0.2938947677612304
1631023575444,0.7902377247810364,0.1835560500621795,-0.2500238418579101,0.2799714505672455
1631023575522,0.783875048160553,0.1819909363985061,-0.2425082325935363,0.266830712556839
1631023575709,0.7817013263702393,0.1777304708957672,-0.2345024347305297,0.2608044445514679
1631023575850,0.783251941204071,0.1691219359636306,-0.2257778197526931,0.2599554657936096
1631023575944,0.7829920053482056,0.1570820212364196,-0.2159469723701477,0.2588731944561004
1631023576022,0.7678211331367493,0.1436204612255096,-0.2058462351560592,0.249449536204338
1631023576196,0.6722613573074341,0.1125772222876548,-0.1622955501079559,0.1972612738609314
1631023576196,0.7293123602867126,0.1303564757108688,-0.1903005987405777,0.2274089902639389
1631023576290,0.6169898509979248,0.0765158757567405,-0.120830163359642,0.1643873751163482
1631023576384,0.5852757096290588,0.0047210738994181,-0.0763168856501579,0.1348151415586471
1631023576478,0.578888475894928,-0.1097880452871322,-0.0404276996850967,0.110306479036808
1631023576540,0.5913488864898682,-0.2464566528797149,-0.010449799709022,0.0862967222929
1631023576665,0.6188028454780579,-0.3483469486236572,0.0211051255464553,0.0655306279659271
1631023576712,0.6523838043212891,-0.3727070987224579,0.052651185542345,0.0525814481079578
1631023576852,0.6770945191383362,-0.3487065732479095,0.0747705176472663,0.045922927558422
1631023577009,0.6849468946456909,-0.3102049529552459,0.0853103101253509,0.042435422539711
1631023577071,0.6772636771202087,-0.2521736323833465,0.0954657346010208,0.0534973740577697
1631023577136,0.6614099144935608,-0.1731958985328674,0.1168488413095474,0.0674910470843315
1631023577277,0.6435320973396301,-0.0946999564766883,0.1459212005138397,0.0805698782205581
1631023577402,0.6291819214820862,-0.0366901196539402,0.1688076257705688,0.0896880999207496
1631023577464,0.6255151629447937,-0.0040643997490406,0.1791913360357284,0.0917936265468597
1631023577558,0.6324613690376282,0.0102301398292183,0.1764180362224578,0.0851940661668777
1631023577714,0.6437785625457764,0.0153744332492351,0.1634694784879684,0.0768575444817543
1631023577824,0.6481978893280029,0.0193003416061401,0.1412896811962127,0.1057178378105163
1631023577886,0.6396165490150452,0.029078708961606,0.1115514636039733,0.1293652802705764
1631023578011,0.6168040633201599,0.0495732091367244,0.0761059671640396,0.1403705030679702
1631023578058,0.5772558450698853,0.0770600661635398,0.02903588488698,0.1345236301422119
1631023578167,0.5237641334533691,0.1038561463356018,-0.0351890213787555,0.1052700355648994
1631023578279,0.4691158831119537,0.1287525445222854,-0.1035460010170936,0.0638383999466896
1631023578389,0.4391499757766723,0.1554979383945465,-0.1494865417480468,0.0554903075098991
1631023578467,0.4461444318294525,0.183355763554573,-0.169516459107399,0.0691664889454841
1631023578608,0.4878831505775451,0.2108724266290664,-0.182834193110466,0.0691664889454841
1631023578655,0.5586215257644653,0.24397574365139,-0.2297571152448654,0.0691664889454841
1631023578779,0.6536074876785278,0.2864294946193695,-0.3343761265277862,0.0691664889454841
1631023578967,0.7462191581726074,0.3297605514526367,-0.4822853207588196,0.0691664889454841
1631023579061,0.8195672035217285,0.3602445125579834,-0.6178634166717529,0.0691664889454841
1631023579154,0.8775803446769714,0.3751277923583984,-0.6641404032707214,0.0691664889454841
1631023579170,0.8912363648414612,0.3846012651920318,-0.6409270763397217,0.0691664889454841
1631023579297,0.9102230072021484,0.4015214443206787,-0.5979665517807007,0.0212844833731651
1631023579376,0.9347819685935974,0.4371572434902191,-0.5557125806808472,-0.0264141298830509
1631023579469,0.9641353487968444,0.4914563298225403,-0.5557125806808472,-0.0264141298830509
1631023579735,0.9982640743255616,0.5496020913124084,-0.5557125806808472,-0.0264141298830509
1631023579766,1.0356311798095703,0.5952979326248169,-0.5557125806808472,-0.0264141298830509
1631023579797,1.0737701654434204,0.6221786737442017,-0.5557125806808472,-0.0264141298830509
1631023579860,1.110825538635254,0.6347880363464355,-0.5557125806808472,-0.0264141298830509
1631023580049,1.1495717763900757,0.6399120092391968,-0.5557125806808472,-0.0264141298830509
1631023580221,1.1930259466171265,0.6369838118553162,-0.5557125806808472,-0.0264141298830509
1631023580284,1.2359365224838257,0.620734691619873,-0.5557125806808472,-0.0264141298830509
1631023580331,1.2359365224838257,0.5907696485519409,-0.5557125806808472,-0.0264141298830509
1631023580362,1.2359365224838257,0.5560358762741089,-0.5557125806808472,-0.0264141298830509
1631023580456,1.2359365224838257,0.5299093723297119,-0.2836776077747345,-0.0264141298830509
1631023580581,1.2359365224838257,0.5173304677009583,-0.3334309458732605,-0.0264141298830509
1631023580752,1.2359365224838257,0.5107427835464478,-0.3736369609832763,-0.0264141298830509
1631023580815,1.2359365224838257,0.498583048582077,-0.3949506282806396,-0.0264141298830509
1631023580909,1.2359365224838257,0.467148870229721,-0.3671415746212005,-0.0264141298830509
1631023581002,1.2359365224838257,0.4035315811634063,-0.2735130786895752,-0.0264141298830509
1631023581162,1.2359365224838257,0.3047901690006256,-0.140409842133522,-0.0264141298830509
1631023581240,1.2359365224838257,0.1841862946748733,-0.0100303534418344,-0.0264141298830509
1631023581397,1.2359365224838257,0.0660967677831649,0.0921081900596618,-0.0264141298830509
1631023581412,1.2359365224838257,-0.038954421877861,0.1592309474945068,-0.0264141298830509
1631023581553,1.2359365224838257,-0.1421260833740234,0.1964145749807357,-0.0264141298830509
1631023581631,0.6451513171195984,-0.2419625371694564,0.2128382474184036,-0.0264141298830509
1631023581740,0.5939612984657288,-0.3139623701572418,0.2287721037864685,-0.0264141298830509
1631023581990,0.5531086325645447,-0.3424662053585052,0.2476968020200729,0.452941745519638
1631023582037,0.4715953767299652,-0.3432457745075226,0.2673135697841644,0.5187495350837708
1631023582053,0.4354496002197265,-0.3375875651836395,0.2892720401287079,0.531952440738678
1631023582093,0.3768985867500305,-0.3357006907463074,0.3163586854934692,0.4613219797611236
1631023582259,0.3727079033851623,-0.3400983810424804,0.344325840473175,0.3940181136131286
1631023582431,0.3507041335105896,-0.3498730063438415,0.3651028573513031,0.3425781726837158
1631023582509,0.3507041335105896,-0.3563582599163055,0.3727702796459198,0.3425781726837158
1631023582572,0.3507041335105896,-0.360218733549118,0.3700930476188659,0.3425781726837158
1631023582697,0.3507041335105896,-0.3594912588596344,0.3767793178558349,0.3425781726837158
1631023582947,0.3507041335105896,-0.3508149981498718,0.4234614670276642,0.3425781726837158
1631023583040,0.3507041335105896,-0.3322323262691498,0.5093286633491516,0.3425781726837158
1631023583087,0.3507041335105896,-0.3067358136177063,0.5993245840072632,0.3425781726837158
1631023583212,0.3486811220645904,-0.2527357041835785,0.6969607472419739,0.3425781726837158
1631023583212,0.3507041335105896,-0.2783928513526916,0.6637961864471436,0.3425781726837158
1631023583447,0.357363224029541,-0.2362181544303894,0.715429961681366,0.2706205546855926
1631023583556,0.3747766315937042,-0.2342633306980133,0.7377598285675049,0.1480821520090103
1631023583665,0.3747198283672333,-0.2496311366558075,0.7436617016792297,-0.026500217616558
1631023583681,0.3747198283672333,-0.2807781398296356,0.7500120401382446,-0.026500217616558
1631023583712,0.3747198283672333,-0.1450795233249664,0.75359708070755,-0.026500217616558
1631023583822,0.3747198283672333,-0.0253961309790611,0.754066526889801,-0.026500217616558
1631023583993,0.3747198283672333,0.0662596672773361,0.7535903453826904,-0.026500217616558
1631023584134,0.3747198283672333,0.1203455105423927,0.7537006735801697,-0.026500217616558
1631023584181,0.5307655334472656,0.0820588916540145,0.7513763904571533,-0.026500217616558
1631023584231,0.6351874470710754,0.0458279848098754,0.7360464334487915,0.3487676680088043
1631023584309,0.7195992469787598,0.0354524068534374,0.689044177532196,0.3080156445503235
1631023584356,0.7933393120765686,0.0569899976253509,0.5932387709617615,0.2743520438671112
1631023584544,0.8564778566360474,0.0917155444622039,0.4423032104969024,0.2542522549629211
1631023584622,0.8996367454528809,0.1136193349957466,0.2540601193904876,0.243085965514183
1631023584794,0.914536714553833,0.1136867627501487,0.078721210360527,0.2338040918111801
1631023584809,0.9063788652420044,0.0999385192990303,0.0549157261848449,0.2219064086675644
1631023584981,0.8857636451721191,0.0859840810298919,0.0337063856422901,0.2071526199579239
1631023585059,0.8643060922622681,0.0773655027151107,-0.0275482684373855,0.1944443136453628
1631023585153,0.847028911113739,0.0730897039175033,-0.1033017560839653,0.1904346495866775
1631023585296,0.8339067101478577,0.0632529109716415,-0.1779130846261978,0.1966515332460403
1631023585296,0.8411989212036133,0.0505110472440719,-0.2297708839178085,0.209478348493576
1631023585358,0.8470130562782288,0.0401915907859802,-0.2420321553945541,0.1990231573581695
1631023585639,0.8449797034263611,0.0377034991979599,-0.217385709285736,0.1849696040153503
1631023585843,0.8326765298843384,0.0433030910789966,-0.1770438551902771,0.1707114428281784
1631023585890,0.813305675983429,0.0504816956818103,-0.1442428678274154,0.1577828973531723
1631023585921,0.7929112315177917,0.0489763133227825,-0.1277296841144561,0.1492889970541
