timestamp,TP9,AF7,AF8,TP10
1631023450842,0.4597847461700439,0.3426831364631653,0.2705958187580108,0.4906409084796905
1631023451081,0.4597847461700439,0.3935758173465729,0.2701508998870849,0.4906409084796905
1631023451299,0.4418129324913025,0.4912020564079284,0.273069828748703,0.4689463973045349
1631023451393,0.4339886903762817,0.5914323329925537,0.272021621465683,0.470227837562561
1631023451534,0.4194951057434082,0.6631757616996765,0.2651545703411102,0.4685164093971252
1631023451596,0.3831959068775177,0.6965344548225403,0.2371253371238708,0.4266670048236847
1631023451612,0.331307977437973,0.7034866809844971,0.1855777502059936,0.3493178784847259
1631023451768,0.262915551662445,0.6995543241500854,0.1290923058986663,0.2761205732822418
1631023451955,0.1773911714553833,0.7820586562156677,0.1041401773691177,0.2452554702758789
1631023452025,0.1773911714553833,0.7810750603675842,0.1295085400342941,0.2452554702758789
1631023452068,0.1773911714553833,0.7797350883483887,0.1900125443935394,0.2452554702758789
1631023452146,0.1773911714553833,0.7779829502105713,0.1789440810680389,0.2452554702758789
1631023452224,0.1773911714553833,0.7769015431404114,0.1893492639064788,0.2452554702758789
1631023452287,0.1773911714553833,0.7757337689399719,0.1881234943866729,0.2452554702758789
1631023452318,0.1773911714553833,0.7733384370803833,-0.094593733549118,0.2452554702758789
1631023452536,0.1773911714553833,0.763314425945282,-0.0355965718626976,0.2452554702758789
1631023452615,0.1773911714553833,0.735403299331665,-0.0063942926935851,0.2452554702758789
1631023452677,0.1773911714553833,0.6836280822753906,0.0722001865506172,0.2452554702758789
1631023452724,0.1773911714553833,0.6498931050300598,0.2137587666511535,0.2452554702758789
1631023452755,0.1773911714553833,0.592781126499176,0.3663094043731689,0.2452554702758789
1631023452786,0.1773911714553833,0.5685470700263977,0.4889394044876098,0.2452554702758789
1631023452818,0.1773911714553833,0.5745267868041992,0.5610995888710022,0.2452554702758789
1631023452943,0.1773911714553833,0.588223397731781,0.5881943702697754,0.2452554702758789
1631023453101,0.1773911714553833,0.4571858644485473,0.583756685256958,0.2452554702758789
1631023453226,0.1773911714553833,0.4650949239730835,0.5652896165847778,0.2452554702758789
1631023453336,0.1773911714553833,0.4746303558349609,0.5466301441192627,0.2452554702758789
1631023453398,0.1773911714553833,0.4875218272209167,0.5544840097427368,0.2452554702758789
1631023453554,0.1773911714553833,0.5033318996429443,0.5676409602165222,0.2452554702758789
1631023453586,0.1773911714553833,0.5210320949554443,0.5909869074821472,0.2452554702758789
1631023453664,0.1773911714553833,0.5433306097984314,0.6235396265983582,0.2452554702758789
1631023453679,0.1773911714553833,0.5756217837333679,0.6587939262390137,0.2452554702758789
1631023453882,0.1773911714553833,0.6158723831176758,0.6884817481040955,1.1776679754257202
1631023454093,0.1773911714553833,0.6522303819656372,0.7066730260848999,1.1776679754257202
1631023454120,0.1773911714553833,0.6354515552520752,0.7097574472427368,1.1776679754257202
1631023454198,0.1773911714553833,0.6511728167533875,0.742110550403595,1.1776679754257202
1631023454277,0.1773911714553833,0.7048750519752502,0.7167463302612305,1.1776679754257202
1631023454339,0.1773911714553833,0.6973430514335632,0.690280556678772,1.1776679754257202
1631023454480,0.1773911714553833,0.7017934322357178,0.6786739826202393,1.1776679754257202
1631023454558,0.1773911714553833,0.7201160788536072,0.6901817917823792,1.1776679754257202
1631023454776,0.1773911714553833,0.8250167965888977,0.7184884548187256,1.1776679754257202
1631023454808,0.1773911714553833,0.8614657521247864,0.7528300285339355,1.1776679754257202
1631023454870,0.1773911714553833,0.8651348948478699,0.7926804423332214,1.1776679754257202
1631023454933,0.1773911714553833,0.8560875654220581,0.8300157189369202,1.1776679754257202
1631023455217,0.1773911714553833,0.8443673253059387,0.8583461046218872,1.1776679754257202
1631023455280,0.1773911714553833,0.831009030342102,0.8060773611068726,1.1776679754257202
1631023455342,0.1773911714553833,0.8196064829826355,0.7383761405944824,1.1776679754257202
1631023455358,0.1773911714553833,0.8211751580238342,0.677442729473114,1.1776679754257202
1631023455530,0.1773911714553833,0.8194542527198792,0.6412221789360046,1.1776679754257202
1631023455561,0.1773911714553833,0.8227918744087219,0.6961545944213867,1.1776679754257202
1631023455876,0.1773911714553833,0.8122812509536743,0.7727816700935364,1.1776679754257202
1631023456012,0.1773911714553833,0.7162826061248779,0.9751659631729126,1.1776679754257202
1631023456062,0.1773911714553833,0.7162826061248779,1.0989224910736084,1.1776679754257202
1631023456089,0.1773911714553833,0.7162826061248779,1.1509065628051758,1.1776679754257202
1631023456152,0.1773911714553833,0.7162826061248779,1.1523189544677734,1.1776679754257202
1631023456206,0.1773911714553833,0.4707163274288177,1.1316689252853394,1.1776679754257202
1631023456330,0.1773911714553833,0.4864577949047088,1.1103030443191528,1.1776679754257202
1631023456542,0.1773911714553833,0.557986855506897,1.0934429168701172,1.1776679754257202
1631023456586,0.1773911714553833,0.6071549654006958,1.0800210237503052,1.1776679754257202
1631023456614,0.1773911714553833,0.6157614588737488,1.065632462501526,1.1776679754257202
1631023456642,0.1773911714553833,0.6079440712928772,1.073991060256958,1.1776679754257202
1631023456861,0.1773911714553833,0.5726184248924255,1.0780484676361084,1.1776679754257202
1631023456995,0.1773911714553833,0.5695343613624573,1.07866370677948,0.4586213529109955
1631023457088,0.8345931768417358,0.6340079307556152,1.073891282081604,0.5568196773529053
1631023457120,0.8842300772666931,0.7615790367126465,1.054494023323059,0.6284055113792419
1631023457185,0.9003056287765503,0.9003511071205139,1.0052093267440796,0.6284055113792419
1631023457404,0.8922471404075623,0.9003511071205139,0.9125390648841858,0.6284055113792419
1631023457435,0.8664215803146362,0.9003511071205139,0.7752950191497803,0.6000539064407349
1631023457622,0.835075318813324,0.9003511071205139,0.6250142455101013,0.5582910180091858
1631023457685,0.8058692812919617,0.9003511071205139,0.5169500112533569,0.5174956917762756
1631023457763,0.7849067449569702,0.8811943531036377,0.4629163444042206,0.4863792061805725
1631023457903,0.7769142389297485,0.8439299464225769,0.4296373426914215,0.4705237448215484
1631023458013,0.7804928421974182,0.8158097863197327,0.4136555194854736,0.4778028726577759
1631023458142,0.7872175574302673,0.802486777305603,0.4930260181427002,0.5126598477363586
1631023458228,0.800775945186615,0.8077537417411804,0.4616755545139313,0.5960396528244019
1631023458260,0.8437667489051819,0.8265400528907776,0.4452941119670868,0.6148555874824524
1631023458302,0.8981691598892212,0.8522500395774841,0.4445110261440277,0.6264299154281616
1631023458490,0.8979642391204834,0.8713111281394958,0.4541288316249847,0.6224361062049866
1631023458561,0.8864242434501648,0.8773989081382751,0.4780208468437195,0.5947551727294922
1631023458608,0.870771586894989,0.815642774105072,0.5069996118545532,0.5428257584571838
1631023458783,0.8601870536804199,0.6242930889129639,0.538385272026062,0.5428257584571838
1631023458846,0.8621096014976501,0.6242930889129639,0.5741089582443237,0.5428257584571838
1631023458909,0.8820648789405823,0.6242930889129639,0.6220275163650513,0.5622934103012085
1631023459065,0.9154843091964722,0.6242930889129639,0.6875849366188049,0.6108167171478271
1631023459081,0.9574109315872192,0.6242930889129639,0.7721685767173767,0.6774344444274902
1631023459231,1.0027481317520142,0.624729335308075,0.7721685767173767,0.755391001701355
1631023459372,1.0462634563446045,0.6544070839881897,0.7721685767173767,0.755391001701355
1631023459435,1.0880814790725708,0.7059434056282043,0.7721685767173767,0.755391001701355
1631023459622,1.0880814790725708,0.7658739686012268,0.7721685767173767,0.755391001701355
1631023459638,1.0880814790725708,0.8254945278167725,0.7721685767173767,0.755391001701355
1631023459731,1.0880814790725708,0.8254945278167725,0.7721685767173767,0.755391001701355
1631023459872,1.0880814790725708,0.8254945278167725,0.7721685767173767,0.755391001701355
1631023459981,1.0880814790725708,0.8254945278167725,0.7721685767173767,0.755391001701355
1631023460078,1.0880814790725708,0.8254945278167725,0.7721685767173767,0.755391001701355
1631023460171,1.0880814790725708,0.8254945278167725,0.7721685767173767,0.755391001701355
1631023460422,1.0880814790725708,0.8254945278167725,0.7721685767173767,0.755391001701355
1631023460437,1.0880814790725708,0.8254945278167725,0.7721685767173767,0.755391001701355
1631023460468,1.0880814790725708,0.3802379369735718,0.2406663447618484,0.755391001701355
1631023460640,0.4618228077888489,0.3701028227806091,0.2776016592979431,0.755391001701355
1631023460781,0.4618228077888489,0.337490439414978,0.2668847739696502,0.755391001701355
1631023460968,0.4618228077888489,0.4064437747001648,0.2383754402399063,0.755391001701355
1631023461015,0.4618228077888489,0.599296510219574,0.2655921280384063,0.755391001701355
1631023461031,0.4618228077888489,0.599296510219574,0.3732592463493347,0.755391001701355
1631023461062,0.4618228077888489,0.599296510219574,0.4886735677719116,0.755391001701355
1631023461171,0.4618228077888489,0.599296510219574,0.564798891544342,0.755391001701355
1631023461326,0.4618228077888489,0.599296510219574,0.5957514643669128,0.755391001701355
1631023461378,0.4618228077888489,0.599296510219574,0.5970088243484497,0.755391001701355
1631023461507,0.4618228077888489,0.599296510219574,0.5848998427391052,0.755391001701355
1631023461588,0.4618228077888489,0.599296510219574,0.57095867395401,0.755391001701355
1631023461667,0.4618228077888489,0.6396397352218628,0.5796518325805664,0.755391001701355
1631023462071,0.4618228077888489,0.6736063361167908,0.5884022116661072,0.755391001701355
1631023462108,0.4618228077888489,0.7027992010116577,0.593312680721283,0.755391001701355
1631023462138,0.4618228077888489,0.7436959743499756,0.5946231484413147,0.755391001701355
1631023462169,0.4618228077888489,0.7698305249214172,0.5919334292411804,0.755391001701355
1631023462194,1.3148232698440552,0.7856350541114807,0.5900467038154602,0.755391001701355
1631023462300,1.2838586568832395,0.7311006188392639,0.5887643098831177,0.755391001701355
1631023462410,1.2423244714736938,0.4361721575260162,0.5743802785873413,0.755391001701355
1631023462592,1.199513554573059,0.3749182820320129,0.5362132787704468,0.755391001701355
1631023462665,1.170846700668335,0.3289907872676849,0.5204305648803711,0.755391001701355
1631023462695,1.170846700668335,0.3142259120941162,0.4575067162513733,0.755391001701355
1631023462829,1.170846700668335,0.3424754738807678,0.4074544608592987,0.755391001701355
1631023462876,1.170846700668335,0.3912273049354553,0.3851435780525207,0.755391001701355
1631023463032,1.170846700668335,0.4363924860954284,0.3850733637809753,0.755391001701355
1631023463196,1.170846700668335,0.4712680280208587,0.392243355512619,0.755391001701355
1631023463211,1.170846700668335,0.5021045207977295,0.3975482285022735,0.755391001701355
1631023463289,1.170846700668335,0.5237643122673035,0.4000797271728515,0.755391001701355
1631023463343,1.162307858467102,0.5332427024841309,0.3947887122631073,0.755391001701355
1631023463455,1.1206752061843872,0.5070255994796753,0.3857392966747284,0.755391001701355
1631023463763,1.0512079000473022,0.4859916865825653,0.3956992328166961,0.755391001701355
1631023463778,0.9539770483970642,0.4865781366825104,0.4421636462211609,0.755391001701355
1631023463794,0.9539770483970642,0.523624062538147,0.4421636462211609,0.755391001701355
1631023464025,0.9539770483970642,0.5892430543899536,0.4421636462211609,0.755391001701355
1631023464150,0.9539770483970642,0.7016432285308838,0.4421636462211609,0.755391001701355
1631023464252,0.9539770483970642,0.8525394201278687,0.4421636462211609,0.755391001701355
1631023464296,0.9539770483970642,0.8761022686958313,0.4421636462211609,0.755391001701355
1631023464327,0.9539770483970642,0.8944149017333984,0.4421636462211609,0.755391001701355
1631023464450,0.9539770483970642,0.9081678986549376,0.4421636462211609,0.755391001701355
1631023464588,0.9539770483970642,0.9209752678871156,0.4421636462211609,0.755391001701355
1631023464778,0.9539770483970642,0.9356459975242616,0.4421636462211609,0.755391001701355
1631023464893,0.9539770483970642,0.9939192533493042,0.4421636462211609,0.755391001701355
1631023464939,0.9539770483970642,1.0474752187728882,0.4421636462211609,0.755391001701355
1631023464963,0.9539770483970642,1.0795295238494873,0.4421636462211609,0.755391001701355
1631023465029,0.9539770483970642,1.0934923887252808,0.4421636462211609,0.755391001701355
1631023465226,0.9539770483970642,1.0971300601959229,0.4421636462211609,0.755391001701355
1631023465322,0.9539770483970642,1.0951074361801147,0.4421636462211609,0.755391001701355
1631023465442,0.9539770483970642,1.0843801498413086,0.4421636462211609,0.755391001701355
1631023465677,0.9539770483970642,1.0651609897613523,0.4421636462211609,0.755391001701355
1631023465723,0.9539770483970642,1.0118223428726196,0.4421636462211609,0.755391001701355
1631023465754,0.9539770483970642,0.872265100479126,0.4421636462211609,0.755391001701355
1631023465833,0.9539770483970642,0.872265100479126,0.4421636462211609,0.755391001701355
1631023465955,0.9539770483970642,0.872265100479126,0.4421636462211609,0.755391001701355
1631023465987,0.9539770483970642,0.872265100479126,0.4421636462211609,0.755391001701355
1631023466046,0.9539770483970642,0.872265100479126,0.4421636462211609,0.755391001701355
1631023466180,0.9539770483970642,0.872265100479126,0.4421636462211609,0.755391001701355
1631023466211,0.9539770483970642,0.7966156005859375,0.4421636462211609,0.755391001701355
1631023466443,0.9539770483970642,0.6761320233345032,0.4421636462211609,0.755391001701355
1631023466572,0.9539770483970642,0.5521543622016907,0.4421636462211609,0.755391001701355
1631023466608,0.9539770483970642,0.4895109832286834,0.4421636462211609,0.755391001701355
1631023466795,0.9539770483970642,0.5028297901153564,0.4421636462211609,0.755391001701355
1631023466889,0.9539770483970642,0.5445654392242432,0.4421636462211609,0.755391001701355
1631023467045,0.9539770483970642,0.5445654392242432,0.4421636462211609,0.755391001701355
1631023467092,0.9539770483970642,0.5445654392242432,0.4421636462211609,0.755391001701355
1631023467170,0.9539770483970642,0.5445654392242432,0.4421636462211609,0.755391001701355
1631023467397,0.9539770483970642,0.5445654392242432,0.4421636462211609,0.755391001701355
1631023467486,0.9539770483970642,0.5445654392242432,0.4421636462211609,0.755391001701355
1631023467712,0.9539770483970642,-0.1302223205566406,0.4421636462211609,0.755391001701355
1631023467756,0.9539770483970642,-0.1603280752897262,0.4421636462211609,0.755391001701355
1631023467809,0.9539770483970642,-0.1572841107845306,0.4421636462211609,0.755391001701355
1631023467921,0.9539770483970642,-0.1427008658647537,0.4421636462211609,0.755391001701355
1631023468012,-0.1236027404665947,-0.1164691299200058,0.0615754835307598,0.4412159919738769
1631023468175,-0.1421272754669189,-0.0800253450870513,0.0809645354747772,0.4209968149662018
1631023468210,-0.1296173632144928,-0.0513430200517177,0.0940905734896659,0.3819671869277954
1631023468254,-0.1022348403930664,-0.0287612397223711,0.1254703253507614,0.3370733559131622
1631023468289,-0.072072647511959,-0.0157276056706905,0.2103127688169479,0.2915587127208709
1631023468327,-0.0382736958563327,-0.0101803420111536,0.3371345102787018,0.2534693479537964
1631023468413,0.0455253571271896,-0.0032349082175642,0.457942932844162,0.2344981729984283
1631023468554,0.1566880047321319,0.0040435260161757,0.5461918115615845,0.2431514710187912
1631023468579,0.2787904143333435,-0.010632419027388,0.58939528465271,0.2859930396080017
1631023468821,0.359485000371933,-0.0161109492182731,0.594843327999115,0.3426592051982879
1631023468883,0.399511307477951,-0.0154862701892852,0.5767892599105835,0.3889820277690887
1631023468899,0.406913697719574,-0.0148103842511773,0.5509978532791138,0.4105255305767059
1631023468996,0.4206853806972503,-0.0202498920261859,0.5386755466461182,0.4168032109737396
1631023469324,0.4259185791015625,-0.0294293724000453,0.5385749340057373,0.4086860716342926
1631023469355,0.4294984936714172,-0.0430996157228946,0.5386457443237305,0.3987268507480621
1631023469371,0.4290104210376739,-0.0633376240730285,0.5359832048416138,0.404499888420105
1631023469402,0.4269587695598602,-0.0924486815929412,0.5302209258079529,0.4312223792076111
1631023469605,0.4202574789524078,-0.1216170862317085,0.5218752026557922,0.4647027254104614
1631023469652,0.4117645621299743,-0.1478088796138763,0.5084912180900574,0.4904527962207794
1631023469846,0.4079370200634002,-0.1558268964290619,0.4799644947052002,0.5056601762771606
1631023469924,0.4109047651290893,-0.147545576095581,0.4207996726036072,0.5117963552474976
1631023470083,0.4183058738708496,-0.1404490768909454,0.3194643259048462,0.5124207735061646
1631023470192,0.419715404510498,-0.1461504995822906,0.1681635081768036,0.5026316046714783
1631023470224,0.3980575501918793,-0.1600448340177536,-0.0079104863107204,0.4778195917606354
1631023470333,0.3638619482517242,-0.1698264628648758,-0.1490321159362793,0.4424245059490204
1631023470442,0.3205776214599609,-0.1555153280496597,-0.1903178244829177,0.4086617529392242
1631023470489,0.3032463192939758,-0.0820816680788993,-0.1273854970932006,0.3851616084575653
1631023470552,0.3074471652507782,0.1031180620193481,0.1008291319012641,0.3791051506996155
1631023470755,0.3222348988056183,0.3527535200119018,0.4163082242012024,0.3851023614406585
1631023470864,0.3403157293796539,0.576055109500885,0.6851576566696167,0.3886383473873138
1631023470880,0.3705656826496124,0.7359442114830017,0.8734793663024902,0.3688396215438843
1631023471005,0.4133031964302063,0.8464575409889221,0.900580883026123,0.3141811490058899
1631023471056,0.4663746953010559,0.9240217208862304,0.930972158908844,0.2330139279365539
1631023471103,0.5265819430351257,0.9866136908531188,0.964245855808258,0.1536130756139755
1631023471259,0.5858221650123596,1.0133315324783323,0.9998127222061156,0.1105241253972053
1631023471353,0.6419398784637451,1.0415047407150269,1.0380033254623413,0.1211643293499946
1631023471524,0.6419398784637451,1.0720772743225098,1.0800936222076416,0.1211643293499946
1631023471571,0.6419398784637451,1.1064722537994385,1.128117322921753,0.1211643293499946
1631023471649,0.6419398784637451,1.1458040475845337,1.1517550945281982,0.1211643293499946
1631023471837,0.6419398784637451,1.1902573108673096,1.1601585149765017,0.1211643293499946
1631023471915,0.9659256935119628,1.239113450050354,1.161280870437622,0.7740747928619385
1631023472043,0.9419696927070618,1.290153741836548,1.155423641204834,0.6943672299385071
1631023472153,0.924150049686432,1.2838283777236938,1.124550700187683,0.6647610068321228
1631023472231,0.928966224193573,1.240242838859558,1.031588435173035,0.7050619721412659
1631023472309,0.96535325050354,1.151761770248413,0.8134490251541138,0.787148654460907
1631023472512,1.008178949356079,1.0246628522872925,0.1872279793024063,0.8624343872070312
1631023472731,1.0378082990646362,0.8559946417808533,0.1634476333856582,0.9064379930496216
1631023472777,1.0426456928253174,0.6230489611625671,0.1467812359333038,0.9129012823104858
1631023472809,1.0260133743286133,0.1419516950845718,0.1261844336986541,0.8954336047172546
1631023472918,1.002937912940979,0.1324540227651596,0.0977755635976791,0.8954336047172546
1631023472965,0.9794034361839294,0.1480789184570312,0.0673905983567237,0.8954336047172546
1631023473117,0.957889974117279,0.1714159995317459,0.0393873825669288,0.8703314661979675
1631023473257,0.9279106855392456,0.1897752285003662,0.0189472623169422,0.8240655064582825
1631023473542,0.9093156456947328,0.1999121457338333,-0.1835079491138458,0.804625391960144
1631023473573,0.893599271774292,0.1972496807575225,-0.2158311158418655,0.8065469264984131
1631023473807,0.892959713935852,0.23210409283638,-0.0848827809095382,0.8311265707015991
1631023473854,0.9277318120002748,0.3675979375839233,0.155589759349823,0.884476900100708
1631023473916,1.0025780200958252,0.5580024123191833,0.4362301826477051,0.968065619468689
1631023474010,1.092969536781311,0.7645326256752014,0.6771687269210815,1.0672351121902466
1631023474373,1.163295030593872,0.7909359335899353,0.8524554371833801,1.1530046463012695
1631023474420,1.1562505960464478,0.8209920525550842,0.9573474526405334,1.205652356147766
1631023474638,1.1537727117538452,0.8900204300880432,1.0284028053283691,1.2426302433013916
1631023474654,1.149070143699646,0.8540061116218567,1.0093908309936523,1.2268861532211304
1631023474732,1.1758954524993896,0.96853107213974,1.0763500928878784,1.2714004516601562
1631023474748,1.20803964138031,1.0050289630889893,1.1055327653884888,1.2714004516601562
1631023474748,1.246656060218811,1.0429726839065552,1.137346863746643,1.2714004516601562
1631023474795,1.2905755043029783,1.0844786167144775,1.1717511415481567,1.308286190032959
1631023474904,1.3399587869644165,1.0993541479110718,1.1832226514816284,1.3482171297073364
1631023474951,1.395941972732544,1.1000274419784546,1.1851729154586792,1.3921606540679932
1631023474982,1.4632915258407593,1.3445357084274292,1.3338371515274048,1.442391276359558
1631023475091,1.5381906032562256,1.343263864517212,1.329776406288147,1.4958187341690063
1631023475174,1.5381906032562256,1.3246405124664309,1.319315791130066,1.545159101486206
1631023475221,1.5381906032562256,1.272322416305542,1.2962318658828735,1.5777848958969116
1631023475533,1.5381906032562256,1.2133642435073853,1.8313525915145876,1.5777848958969116
1631023475580,1.5381906032562256,1.2133642435073853,1.8212679624557493,1.5777848958969116
1631023475611,1.5381906032562256,1.2133642435073853,1.8148541450500488,1.5777848958969116
1631023475689,1.5381906032562256,1.1963088512420654,1.8129584789276123,1.5777848958969116
1631023475752,1.5381906032562256,1.2403647899627686,1.8238502740859983,1.5777848958969116
1631023475767,1.5381906032562256,1.2064876556396484,1.8168460130691528,1.5777848958969116
1631023475861,1.5381906032562256,1.170112371444702,1.784087300300598,1.5777848958969116
1631023475970,1.5381906032562256,1.1334497928619385,1.7530219554901123,1.5777848958969116
1631023476017,1.5381906032562256,1.101239562034607,1.724239945411682,1.5777848958969116
1631023476111,1.5381906032562256,1.0925794839859009,1.722841501235962,1.5777848958969116
1631023476301,0.3981442451477051,1.0940768718719482,1.7235782146453855,0.7108698487281799
1631023476426,0.3864569962024688,0.7900329828262329,1.681077480316162,0.6884742379188538
1631023476473,0.3831296861171722,0.7886224985122681,1.6814154386520386,0.6644030809402466
1631023476536,0.3716241121292114,0.7813190817832947,1.680145263671875,0.655987560749054
1631023476629,0.3459943532943725,0.7654176354408264,1.6765522956848145,0.7036964893341064
1631023476817,0.3143673539161682,0.7476441264152527,0.8503759503364563,0.8089209198951721
1631023476942,0.2863564193248749,0.7329769730567932,0.780318558216095,0.922464907169342
1631023476973,0.2617509961128235,0.7172348499298096,0.6910147666931152,0.922464907169342
1631023477195,0.239998921751976,0.6617162227630615,0.6012534499168396,0.922464907169342
1631023477226,0.2235680371522903,0.4199631810188293,0.3501214981079101,0.922464907169342
1631023477327,0.2061191648244857,0.3637794256210327,0.2969197332859039,0.922464907169342
1631023477593,0.1868804097175598,0.3315755724906921,0.3113110661506653,0.922464907169342
1631023477655,0.1125254184007644,0.3169592022895813,0.3591049313545227,0.9231136441230774
1631023477702,0.0635260343551635,0.2954597175121307,0.3935937285423279,0.9062976837158204
1631023477780,0.0432682074606418,0.2611226737499237,0.4041818380355835,0.904147207736969
1631023477921,0.0343195721507072,0.2221947908401489,0.3939472436904907,0.9051499366760254
1631023477983,0.0202904753386974,0.182994082570076,0.3748295605182647,0.9030263423919678
1631023478014,0.0122471144422888,0.1454490721225738,0.3646547794342041,0.9002679586410522
1631023478046,0.0172346346080303,0.1163175404071807,0.3711984157562256,0.8875397443771362
1631023478205,0.0328846797347068,0.0871778428554534,0.3853759765625,0.8385797142982483
1631023478252,0.0548764243721962,0.038519162684679,0.3925785720348358,0.7055631279945374
1631023478455,0.0736933276057243,-0.0292136538773775,0.3910838067531585,0.3787256777286529
1631023478518,0.1222369521856308,-0.087737500667572,0.3860794603824615,0.3727915287017822
1631023478533,0.1878509521484375,-0.1233052983880043,0.3856387138366699,0.3790777623653412
1631023478799,0.2366382479667663,-0.1348566859960556,0.388549268245697,0.3941548764705658
1631023478846,0.2694187462329864,-0.093940868973732,0.4008722901344299,0.4384598433971405
1631023479083,0.3099335432052612,0.0449424125254154,0.4397546947002411,0.5285088419914246
1631023479114,0.3758670687675476,0.2446530908346176,0.5011221766471863,0.6458097696304321
1631023479114,0.470135360956192,0.4325608909130096,0.5598597526550293,0.7648715376853943
1631023479364,0.5561584830284119,0.5731140971183777,0.5981940627098083,0.8508343696594238
1631023479395,0.6146705150604248,0.6554114818572998,0.6146655082702637,0.8949064016342163
1631023479426,0.6534637212753296,0.6943355202674866,0.6168983578681946,0.9111312031745912
1631023479567,0.6887531280517578,0.7091541290283203,0.6149585247039795,0.9163817763328552
1631023479615,0.7200317978858948,0.7131921052932739,0.6135218143463135,0.916060507297516
1631023479678,0.7446702122688293,0.7123072743415833,0.6103864908218384,0.9143213033676147
1631023479725,0.7641727328300476,0.7102744579315186,0.6056742072105408,0.912318468093872
1631023479974,0.7781393527984619,0.7100305557250977,0.6013020873069763,0.909411370754242
1631023480053,0.7814716696739197,0.7104423642158508,0.597304105758667,0.9064732193946838
1631023480146,0.7764778733253479,0.7132725119590759,0.591883659362793,0.9034081697463988
1631023480193,0.7712722420692444,0.7186588644981384,0.5820875763893127,0.8977921605110168
1631023480318,0.7671428918838501,0.7182893753051758,0.5577062368392944,0.8812257051467896
1631023480412,0.7597949504852295,0.6966623663902283,0.5048426985740662,0.8421677350997925
1631023480474,0.744274914264679,0.6422671675682068,0.4305605292320251,0.772943377494812
1631023480742,0.7169736623764038,0.553714394569397,0.3734519183635711,0.6824536919593811
1631023480925,0.6886501312255859,0.442509263753891,0.3677350580692291,0.5940077900886536
1631023480972,0.6719659566879272,0.3522200286388397,0.3990313410758972,0.5500849485397339
1631023480987,0.6600207686424255,0.3092231750488281,0.4305767714977264,0.5455222725868225
1631023481084,0.6383952498435974,0.2947559356689453,0.4433200061321258,0.5490676164627075
1631023481309,0.612718939781189,0.2885375320911407,0.4404644966125488,0.5557467341423035
1631023481337,0.5917083024978638,0.2863878905773163,0.4341027438640594,0.5615282654762268
1631023481372,0.5739721059799194,0.2886238098144531,0.4351406395435333,0.5663462281227112
1631023481407,0.5568959712982178,0.2882727384567261,0.4480318427085876,0.5685895681381226
1631023481526,0.5427170395851135,0.285475492477417,0.4687044024467468,0.5657163262367249
1631023481573,0.5342569351196289,0.2789334058761596,0.4965361356735229,0.5558134913444519
1631023481804,0.5316625237464905,0.2673245966434479,0.5337915420532227,0.5452976226806641
1631023481830,0.5299719572067261,0.2550994157791137,0.5771345496177673,0.5384126305580139
1631023481928,0.5230947136878967,0.2441769391298294,0.6108585000038147,0.5307431221008301
1631023482125,0.5040092468261719,0.2256118655204773,0.6187900900840759,0.5071207284927368
1631023482148,0.4683117270469665,0.1853954792022705,0.5983121395111084,0.4553576409816742
1631023482263,0.4128346741199493,0.1171343103051185,0.5575098395347595,0.3684262633323669
1631023482495,0.345092236995697,0.0251114908605813,0.5133931040763855,0.2522248327732086
1631023482542,0.2777318656444549,-0.0676836296916008,0.4783011674880981,0.1313779503107071
1631023482574,0.2183455526828766,-0.1336750835180282,0.457853227853775,0.0314056426286697
1631023482600,0.162925437092781,-0.1706205904483795,0.447177529335022,-0.032419417053461
1631023482755,0.1089222207665443,-0.1925690472126007,0.4417997896671295,-0.070229023694992
1631023482826,0.0854515358805656,-0.2148448079824447,0.4388076364994049,-0.0942658558487892
1631023482981,0.0594608709216117,-0.2198885679244995,0.4337854087352752,-0.1015157476067543
1631023483027,0.0393801592290401,-0.1802283674478531,0.4374452829360962,-0.1052622124552726
1631023483154,0.0101163387298583,-0.0672140046954155,0.4650624096393585,-0.0987802818417549
1631023483223,-0.0409919954836368,0.0787207707762718,0.5060068964958191,-0.0879444107413292
1631023483508,-0.0826476290822029,0.2112512588500976,0.5431824922561646,-0.0804044678807258
1631023483550,-0.0940462723374366,0.3147860169410705,0.5865396857261658,-0.0830231010913848
1631023483581,-0.06690064817667,0.3879052102565765,0.573410153388977,-0.0960676595568656
1631023483632,-0.0303812157362699,0.4410599172115326,0.5708787441253662,-0.131256952881813
1631023483740,0.0099732996895909,0.4740403592586517,0.580739438533783,-0.1771609783172607
1631023483800,0.0450986362993717,0.4899158179759979,0.6020159125328064,-0.2417790293693542
1631023484046,0.0796561315655708,0.4919382631778717,0.6360987424850464,-0.3104685246944427
1631023484106,0.0796561315655708,0.4904133081436157,0.6776493787765503,-0.3104685246944427
1631023484161,0.0796561315655708,0.4894663691520691,0.7248324751853943,-0.3104685246944427
1631023484242,0.0796561315655708,0.4894830882549286,0.7774691581726074,-0.3104685246944427
1631023484346,0.0796561315655708,0.4911094009876251,0.7719811201095581,-0.3104685246944427
1631023484482,0.0796561315655708,0.4898831844329834,0.7584583759307861,-0.3104685246944427
1631023484658,0.0796561315655708,0.4784272313117981,0.7306497693061829,-0.3104685246944427
1631023484677,-0.1669000834226608,0.4415482878684997,0.6624832153320312,-0.3104685246944427
1631023484722,-0.1954849511384964,0.3718290030956268,0.5318111181259155,-0.0734818354249
1631023484846,-0.128199964761734,0.2723719775676727,0.2968442738056183,0.0148496348410844
1631023484953,-0.0368344523012638,0.1498868763446808,-0.4998369216918945,0.0806439146399498
1631023485124,0.0282873976975679,0.0163368955254554,-0.4601687490940094,0.1093166023492813
1631023485151,0.0502623058855533,-0.1366650313138961,-0.4059301912784576,0.1031323075294494
1631023485312,0.0385337024927139,-0.2882756888866424,-0.3594145178794861,0.075107991695404
1631023485398,0.0125254122540354,-0.4036841988563537,-0.3276975452899933,0.0557843931019306
1631023485462,-0.005128257907927,-0.4374514520168304,-0.2977831959724426,0.0452637039124965
1631023485661,-0.0186648573726415,-0.4002646803855896,-0.2558012008666992,0.0563545785844326
1631023485696,-0.0278978869318962,-0.3174132406711578,-0.2114114314317703,0.0834681317210197
1631023485751,-0.0345759689807891,-0.1616740673780441,-0.1832193434238433,0.1107934340834617
1631023485817,-0.0533269457519054,0.0056482157669961,-0.1617632061243057,0.1408709287643432
1631023485980,-0.0376030802726745,0.1661616414785385,-0.142892837524414,0.1839905530214309
1631023486027,-0.0112237688153982,0.3083108067512512,-0.1374334841966629,0.223820224404335
1631023486152,0.0178955104202032,0.4291034936904907,-0.1372809708118438,0.2448879927396774
1631023486308,0.0385138131678104,0.5287116765975952,-0.1431740820407867,0.2433566004037857
1631023486402,0.0404666028916835,0.5990230441093445,-0.1478988975286483,0.2262673825025558
1631023486449,0.0248619616031646,0.6397570371627808,-0.1515995562076568,0.2096057385206222
1631023486527,0.0017526494339108,0.6570507287979126,-0.1593086272478103,0.2024506479501724
1631023486695,-0.0031819161958992,0.6659103631973267,-0.175067663192749,0.2080307304859161
1631023486804,0.0179714430123567,0.6700621247291565,-0.195260003209114,0.2219080477952957
1631023486866,0.0641662999987602,0.6737107634544373,-0.2053796052932739,0.235224187374115
1631023487054,0.1116106584668159,0.6773954629898071,-0.1998509466648101,0.2517329454421997
1631023487103,0.1552296876907348,0.6781635880470276,-0.1896744966506958,0.2601163387298584
1631023487178,0.1826927214860916,0.6752544641494751,-0.1858815997838974,0.2560952007770538
1631023487313,0.2001506239175796,0.6622278094291687,-0.1832065880298614,0.2398929148912429
1631023487454,0.2120047360658645,0.6378173828125,-0.1761071383953094,0.207934558391571
1631023487548,0.2206954210996627,0.5970023274421692,-0.1561440080404281,0.1682207882404327
1631023487595,0.2274812906980514,0.5485016107559204,-0.1268488764762878,0.1389788687229156
1631023487688,0.2344819605350494,0.5126520991325378,-0.0735993683338165,0.1217986345291137
1631023487814,0.2447336316108703,0.5597416162490845,0.0461383052170276,0.1247719824314117
1631023488018,0.2537278532981872,0.7223490476608276,0.2206613570451736,0.1407625377178192
1631023488068,0.2635497748851776,0.7163885235786438,0.3867118656635284,0.1495614498853683
1631023488130,0.2777827382087707,0.7296141386032104,0.5036509037017822,0.1505514681339264
1631023488177,0.2918714880943298,0.7525557279586792,0.5718275904655457,0.1491840183734893
1631023488333,0.3041005134582519,0.7833107709884644,0.6068171858787537,0.1521962136030197
1631023488489,0.2992422580718994,0.8186590075492859,0.6265466809272766,0.1506504267454147
1631023488536,0.2744448482990265,0.858387291431427,0.6396217942237854,0.1239372789859771
1631023488661,0.2280802428722381,0.9029080271720886,0.6500260829925537,0.0677199810743331
1631023488692,0.3914776444435119,0.897094190120697,0.6549102663993835,0.0677199810743331
1631023488817,0.4815307855606079,0.8926124572753906,0.6546185612678528,0.0677199810743331
1631023488926,0.5340467095375061,0.8959447145462036,0.6561415195465088,0.0677199810743331
1631023489056,0.5939496159553528,0.9160845279693604,0.6656542420387268,0.0677199810743331
1631023489119,0.6111985445022583,0.9457932114601136,0.6835920214653015,0.4777670204639435
1631023489244,0.6308428645133972,0.9648860692977904,0.7003498673439026,0.484702467918396
1631023489306,0.6420264840126038,0.91650128364563,0.6988476514816284,0.4632410109043121
1631023489494,0.6348279118537903,0.6761850118637085,0.6621009111404419,0.4275183379650116
1631023489743,0.6210250854492188,0.6596329808235168,0.5877669453620911,0.389966070652008
1631023489790,0.6055527925491333,0.6266493797302246,0.4967565536499023,0.3593975901603699
1631023489822,0.5860268473625183,0.589686393737793,0.4209765791893005,0.3439373970031738
1631023489853,0.5711496472358704,0.5560504198074341,0.3801079392433166,0.3413276970386505
1631023489931,0.5662236213684082,0.5300713181495667,0.3655200004577636,0.3460585474967956
1631023490025,0.5642789006233215,0.5195417404174805,0.3606296479701996,0.351442813873291
1631023490212,0.5642312169075012,0.5261651873588562,0.3504241406917572,0.3513452708721161
1631023490259,0.5522945523262024,0.5711232423782349,0.341269314289093,0.3480060696601867
1631023490384,0.5450021624565125,0.5956118702888489,0.3416162431240082,0.3447887003421783
1631023490478,0.5667478442192078,0.6125761866569519,0.3753452003002167,0.3647609949111938
1631023490681,0.6416354775428772,0.611128032207489,0.4771032333374023,0.4438470602035522
1631023490712,0.7587515711784363,0.579771876335144,0.6356297731399536,0.59256911277771
1631023490821,0.8852338194847107,0.515164852142334,0.7968238592147827,0.7661631107330322
1631023490841,0.983269989490509,0.4298219084739685,0.8078374862670898,0.9090548753738404
1631023490933,1.0428286790847778,0.3576580286026001,0.828199028968811,0.999163806438446
1631023491120,1.0693591833114624,0.3333238959312439,0.8797776103019714,1.0265003442764282
1631023491295,1.0774590969085691,0.363417387008667,0.894314706325531,1.0558944940567017
1631023491342,1.0815579891204834,0.4287768006324768,0.8980454802513123,1.0862648487091064
1631023491373,1.083087682723999,0.5121829509735107,0.8992719650268555,1.0860724449157717
1631023491483,1.0901585817337036,0.6580508947372437,0.9246163964271544,1.0916942358016968
1631023491530,1.1145821809768677,0.8794766664505005,0.9730094075202942,1.118012309074402
1631023491780,1.1592398881912231,1.0966455936431885,1.0524308681488037,1.1730464696884155
1631023491826,1.2082138061523438,1.254130721092224,1.1353154182434082,1.2444709539413452
1631023492076,1.249463438987732,1.2800003290176392,1.169714093208313,1.3111056089401243
1631023492092,1.2700135707855225,1.2604320049285889,1.2003686428070068,1.3524950742721558
1631023492221,1.2782126665115356,1.2175981998443604,1.1907193660736084,1.3616951704025269
1631023492331,1.2664421796798706,1.1722344160079956,1.1300033330917358,1.3390570878982544
1631023492378,1.204689383506775,1.132778525352478,1.011589288711548,1.287590265274048
1631023492456,1.1292763948440552,1.0979348421096802,0.975106716156006,1.2201941013336182
1631023492487,1.0628316402435305,1.0651028156280518,0.9413533806800842,1.160938382148743
1631023492549,1.0221651792526243,1.0327786207199097,0.8930535912513733,1.1375185251235962
1631023492612,1.0039006471633911,1.0013989210128784,0.8828076720237732,1.1178306341171265
1631023492784,0.9949321746826172,0.9718649983406068,0.8907780051231384,1.1033194065093994
1631023493004,0.9901794195175172,0.944521427154541,0.908828854560852,1.1164942979812622
1631023493109,0.9758238196372986,0.9274675846099854,0.9049735069274902,1.1229583024978638
1631023493171,0.932290494441986,0.8812721371650696,0.8748676180839539,1.1119781732559204
1631023493236,0.8320341110229492,0.7899046540260315,0.7844430804252625,1.0713424682617188
1631023493251,0.6641324758529663,0.6490030884742737,0.617983877658844,0.9954395294189452
1631023493330,0.4195821285247803,0.4757579267024994,0.6143176555633545,0.8892678022384644
1631023493599,0.4328484833240509,0.3276518583297729,0.6192640662193298,0.7808933854103088
1631023493662,0.4513479769229889,0.2517912983894348,0.6178225874900818,0.7068885564804077
1631023493708,0.4791234731674194,0.2213444709777832,0.6703343391418457,0.6776486039161682
1631023493755,0.4934213161468506,0.2043896466493606,0.7369661927223206,0.678178608417511
1631023493990,0.5113052129745483,0.2021942287683487,0.7899020314216614,0.6831082701683044
1631023494052,0.5240201950073242,0.2117066979408264,0.8217850923538208,0.6817826628684998
1631023494240,0.5279702544212341,0.2253261059522628,0.8359971046447754,0.6704279184341431
1631023494271,0.5296548008918762,0.2388030290603637,0.8397465348243713,0.6497325301170349
1631023494302,0.5350547432899475,0.2598126232624054,0.840193510055542,0.619468092918396
1631023494475,0.547396183013916,0.2909620404243469,0.8354983925819397,0.5826044082641602
1631023494522,0.5658513307571411,0.3268056213855743,0.8238914012908936,0.5491148829460144
1631023494709,0.5816590785980225,0.3568326830863952,0.8079249262809753,0.5170099139213562
1631023494803,0.5961853265762329,0.3717459440231323,0.7908646464347839,0.4841895997524261
1631023494834,0.6126054525375366,0.3769721984863281,0.7795071005821228,0.449668675661087
1631023494865,0.6242172718048096,0.380295991897583,0.7756057977676392,0.4230118095874786
1631023495022,0.6218860149383545,0.3787611126899719,0.765668511390686,0.408141165971756
1631023495225,0.6053056120872498,0.3710887134075165,0.7368411421775818,0.4074987173080444
1631023495267,0.5725260972976685,0.3634847998619079,0.6835587620735168,0.412363737821579
1631023495446,0.5332794785499573,0.3648454844951629,0.6140617728233337,0.4167834222316742
1631023495524,0.509088397026062,0.3850740194320678,0.5495129227638245,0.4237324893474579
1631023495696,0.5098749995231628,0.4298174977302551,0.5098013877868652,0.4272732138633728
1631023495743,0.5295968651771545,0.487530767917633,0.4919902384281158,0.4278611838817596
1631023495790,0.5496436953544617,0.535853385925293,0.4787375926971435,0.4281418621540069
1631023495805,0.5574657320976257,0.5590469837188721,0.4483374655246734,0.4302108287811279
1631023495899,0.5518803596496582,0.5621650218963623,0.4007118940353393,0.4314244985580444
1631023496089,0.5294485092163086,0.5549376606941223,0.3500767052173614,0.4326280355453491
1631023496120,0.5007529854774475,0.5374343991279602,0.303996741771698,0.4271988272666931
1631023496292,0.4713416993618011,0.5182271003723145,0.2714259326457977,0.4164064526557922
1631023496495,0.4335999488830566,0.5020540356636047,0.2457147538661956,0.4046712815761566
1631023496573,0.3959840834140777,0.4891179203987121,0.2139370441436767,0.3913232982158661
1631023496745,0.3718070387840271,0.4822104573249817,0.1830296963453292,0.3807516694068908
1631023496792,0.3608607947826385,0.481869101524353,0.1522745341062545,0.3696754574775696
1631023496839,0.3594690561294555,0.4951948821544647,0.1260856389999389,0.3557721376419067
1631023497011,0.3565477430820465,0.5386055111885071,0.0836499333381652,0.3253613114356994
1631023497107,0.3391410112380981,0.6265676021575928,0.0135636609047651,0.2770324945449829
1631023497325,0.3073595464229584,0.7329171895980835,-0.0740608945488929,0.2247281670570373
1631023497388,0.2668209075927734,0.822030246257782,-0.1405961364507675,0.1887947916984558
1631023497653,0.2284315526485443,0.8776889443397522,-0.1619745343923568,0.1676579564809799
1631023497685,0.2002103179693222,0.9024008512496948,-0.148543119430542,0.1463688015937805
1631023497716,0.1806708574295044,0.90713769197464,-0.1243818998336792,0.1328563094139099
1631023497905,0.1692023575305938,0.9035375714302064,-0.1092166900634765,0.1263371109962463
1631023498077,0.1575042158365249,0.9003591537475586,-0.1002165228128433,0.1364407986402511
1631023498187,0.1512670069932937,0.901749849319458,-0.0907904505729675,0.162721961736679
1631023498312,0.165287047624588,0.9075633883476256,-0.0781753286719322,0.1911273747682571
1631023498359,0.1805162131786346,0.9155306220054626,-0.0618905089795589,0.2384148836135864
1631023498499,0.1881293654441833,0.9224105477333068,-0.0425296835601329,0.3154797255992889
1631023498515,0.1963717192411422,1.5451902151107788,0.7278738021850586,0.3300584852695465
1631023498546,0.2058044672012329,1.543990969657898,0.7356151342391968,0.3443041145801544
1631023498733,0.2108447551727295,1.538356900215149,0.7447707653045654,0.3636793792247772
1631023498780,0.2156967371702194,1.5247306823730469,0.7516484260559082,0.3865077495574951
1631023498921,0.2241439968347549,1.503052830696106,0.7547048926353455,0.4143233001232147
1631023498983,0.2395573556423187,1.5170025825500488,0.7560036182403564,0.4465715885162353
1631023499061,0.2596650421619415,1.499445557594299,0.7667195200920105,0.4825153350830078
1631023499173,0.2765878438949585,1.492031216621399,0.7969474196434021,0.5170018672943115
1631023499392,0.2953862249851227,1.4941269159317017,0.8491422533988953,0.5393763184547424
1631023499485,0.3216421008110046,1.522593379020691,0.9140543937683104,0.553709864616394
1631023499501,0.3506195247173309,1.55400812625885,0.97053062915802,0.569462239742279
1631023499642,0.3506195247173309,1.587444305419922,1.007563829421997,0.569462239742279
1631023499673,0.3506195247173309,1.6586143970489502,1.0318082571029663,0.569462239742279
1631023499735,0.3506195247173309,1.6704673767089844,1.0579081773757937,0.569462239742279
1631023499892,0.3506195247173309,1.7010232210159302,1.1237119436264038,0.569462239742279
1631023499923,0.3506195247173309,1.2628401517868042,0.9738031029701232,0.569462239742279
1631023499970,0.3506195247173309,1.302181363105774,0.9982230067253112,0.569462239742279
1631023500126,0.3506195247173309,1.346712589263916,1.0249024629592896,0.569462239742279
1631023500238,0.3506195247173309,1.39725661277771,1.0562182664871216,0.569462239742279
1631023500316,0.3506195247173309,1.4549448490142822,1.0936442613601685,0.569462239742279
1631023500488,0.3506195247173309,1.4187179803848269,1.136252999305725,0.569462239742279
1631023500535,0.3506195247173309,1.433314323425293,1.1768306493759155,0.569462239742279
1631023500551,0.3506195247173309,1.4324969053268433,1.1630021333694458,0.569462239742279
1631023500832,0.3506195247173309,1.4169727563858032,1.1170440912246704,0.569462239742279
1631023500941,0.3506195247173309,1.351207613945007,1.0377620458602903,0.569462239742279
1631023501050,0.3506195247173309,1.294252634048462,0.939298689365387,0.569462239742279
1631023501082,0.3506195247173309,1.244738221168518,0.8476181626319885,0.569462239742279
1631023501160,0.3506195247173309,0.916942298412323,0.7656128406524658,0.569462239742279
1631023501241,-0.0229969676584005,0.8118622303009033,0.6493002772331238,0.569462239742279
1631023501303,0.0138442125171422,0.2824567854404449,-0.0783243626356124,0.569462239742279
1631023501506,0.0308069419115781,0.2813577950000763,-0.0814221426844596,0.569462239742279
1631023501538,0.0247715022414922,0.2709798812866211,-0.0919866561889648,0.569462239742279
1631023501616,0.0188199244439601,0.2547243237495422,-0.1102274730801582,0.569462239742279
1631023501663,0.020488990470767,0.2371956557035446,-0.1305712312459945,0.569462239742279
1631023501803,0.026391677558422,0.2240892946720123,-0.1508140414953231,0.569462239742279
1631023501897,0.0306528229266405,0.215627059340477,-0.170309692621231,0.569462239742279
1631023502084,0.0323913842439651,0.1066614165902137,-0.1879869103431701,0.569462239742279
1631023502116,0.0272917188704013,0.049158938229084,-0.3637206256389618,0.569462239742279
1631023502178,0.0105327228084206,0.0325700417160987,-0.4368742704391479,0.569462239742279
1631023502259,-0.0061852852813899,0.0303294621407985,-0.4503662586212158,0.569462239742279
1631023502368,-0.0096884993836283,0.0323520042002201,-0.443846046924591,0.569462239742279
1631023502399,-0.0127446893602609,0.0321117155253887,-0.437082976102829,0.569462239742279
1631023502493,-0.0185575690120458,0.0192143507301807,-0.4418148398399353,0.569462239742279
1631023502696,-0.0229039248079061,-0.0038693472743034,-0.4599761366844177,0.569462239742279
1631023502758,0.017382301390171,-0.0023385758977383,-0.4505892395973205,0.3690487146377563
1631023502790,0.1228983998298645,0.0624465234577655,-0.3521991670131683,0.417762815952301
1631023502962,0.256223201751709,0.1897866129875183,-0.18015718460083,0.4762734770774841
1631023502977,0.3659907281398773,0.3275175988674164,-0.0104224467650055,0.5264649391174316
1631023503055,0.4347369074821472,0.4373175203800201,0.1104649901390075,0.5545786619186401
1631023503196,0.4698851108551025,0.5088769793510437,0.1805621832609176,0.5555141568183899
1631023503211,0.481767863035202,0.5466426014900208,0.2134807705879211,0.5424337983131409
1631023503368,0.4829528331756592,0.5630515217781067,0.2299883067607879,0.5284891128540039
1631023503540,0.4851155579090118,0.5706678628921509,0.2378550320863723,0.516033411026001
1631023503571,0.4967699944972992,0.5755166411399841,0.2438561469316482,0.504820704460144
1631023503665,0.5214970111846924,0.5847525596618652,0.2552301585674286,0.4936332106590271
1631023503727,0.5705525279045105,0.6082589030265808,0.2955657243728637,0.4934738576412201
1631023503852,0.6513530611991882,0.6536964178085327,0.3868079781532287,0.5367984771728516
1631023504102,0.7446040511131287,0.7177420854568481,0.5105486512184143,0.61870276927948
1631023504149,0.8264995217323303,0.7808501720428467,0.6239969730377197,0.7036501169204712
1631023504196,0.8735587000846863,0.8219406008720398,0.7013164758682251,0.7655197381973267
1631023504367,0.8817688822746277,0.8330751657485962,0.7350929975509644,0.7927680015563965
1631023504446,0.861977219581604,0.815648078918457,0.7350771427154541,0.7930426597595215
1631023504681,0.8344712853431702,0.7774321436882019,0.7163604497909546,0.7826108336448669
1631023504743,0.8093829154968262,0.7291149497032166,0.6929326057434082,0.7717748880386353
1631023504868,0.7932937741279602,0.6863660216331482,0.6744808554649353,0.7679711580276489
1631023504946,0.78614342212677,0.6593663692474365,0.665637195110321,0.7668450474739075
1631023504961,0.7833573222160339,0.6511570811271667,0.672423243522644,0.763369083404541
1631023505151,0.7808147668838501,0.6582380533218384,0.7098871469497681,0.7575132846832275
1631023505432,0.7761842012405396,0.6734321713447571,0.7778769135475159,0.7511362433433533
1631023505448,0.765270471572876,0.683800220489502,0.8566485047340393,0.7445593476295471
1631023505667,0.7395592927932739,0.6774164438247681,0.9232261776924132,0.7312137484550476
1631023505745,0.6803382039070129,0.6426447629928589,0.9581091403961182,0.6931911110877991
1631023505792,0.5771209597587585,0.5707880854606628,0.960556983947754,0.612204372882843
1631023505901,0.4252254068851471,0.4637533724308014,0.9417679905891418,0.48701211810112
1631023505979,0.265223354101181,0.3909763693809509,0.91923326253891,0.3317164182662964
1631023505995,0.1620428562164306,0.3196613192558288,0.901365339756012,0.2119684070348739
1631023506057,0.1341203898191452,0.3012289702892303,0.892284095287323,0.13814377784729
1631023506104,0.1212565451860427,0.3180679678916931,0.8892145752906799,0.0826993510127067
1631023506229,0.1189977973699569,0.3556230366230011,0.8885167241096497,0.0230164993554353
1631023506245,0.1153505966067314,0.3988317549228668,0.88852858543396,-0.0596459470689296
1631023506448,0.1116698831319809,0.4416825175285339,0.8876355886459351,-0.1469040513038635
1631023506510,0.1127598658204078,0.4716350734233856,0.880109429359436,-0.2181319892406463
1631023506541,0.1204608231782913,0.4795519113540649,0.8537355661392212,-0.2681548297405243
1631023506573,0.127108946442604,0.4645655453205108,0.7969018816947937,-0.3260240852832794
1631023506776,0.1527621299028396,0.6578927040100098,0.7044621706008911,-0.3884463906288147
1631023506807,0.2142712175846099,0.6523149609565735,0.5749374032020569,-0.4359399974346161
1631023506979,0.3062299489974975,0.6545578837394714,0.4277676343917846,-0.4359399974346161
1631023507010,0.3856696188449859,0.6607556939125061,0.2817797660827636,-0.4359399974346161
1631023507073,0.4415039718151092,0.6671745181083679,0.150985300540924,-0.4359399974346161
1631023507152,0.4704340100288391,0.6523723006248474,0.0475713536143302,-0.4359399974346161
1631023507403,0.4956142604351043,0.6602813005447388,0.0781726464629173,0.3776283264160156
1631023507528,0.5419052839279175,0.6711072325706482,0.2293709963560104,0.4250006675720215
1631023507622,0.6193087100982666,0.6941156983375549,0.4261103868484497,0.5271596312522888
1631023507653,0.7146063446998596,0.7268166542053223,0.6050961017608643,0.6328629851341248
1631023507684,0.7996309995651245,0.7544110417366028,0.7328962683677673,0.708608865737915
1631023507965,0.8572000861167908,0.7680873870849609,0.8075299263000488,0.7438905239105225
1631023508059,0.8897919058799744,0.7673568725585938,0.8424882292747498,0.7477143406867981
1631023508153,0.9161660671234132,0.7608025074005127,0.8554269671440125,0.7350922226905823
1631023508218,0.9442217350006104,0.757972240447998,0.8620609641075134,0.7162827849388123
1631023508265,0.9705365300178528,0.594510018825531,0.8641238212585449,0.691836953163147
1631023508421,0.9674055576324464,0.586999237537384,0.8637585639953613,0.6648653745651245
1631023508515,0.952649474143982,0.5759509801864624,0.8613060116767883,0.6369004845619202
1631023508546,0.9364538192749025,0.5643801689147949,0.8584646582603455,0.6243572235107422
1631023508702,0.9265012741088868,0.5562196373939514,0.855618417263031,0.6121126413345337
1631023508749,0.9292895793914796,0.5499183535575867,0.8514620065689087,0.6082814335823059
1631023508780,0.947407066822052,0.5432314276695251,0.8391058444976807,0.6183153986930847
1631023508986,0.9566290974617004,0.5283825993537903,0.8112743496894836,0.6214575171470642
1631023509033,0.9426975846290588,0.4959331452846527,0.7614828944206238,0.5973361134529114
1631023509267,0.8917799592018127,0.4658252894878387,0.7081944346427917,0.5340350866317749
1631023509282,0.8041483759880066,0.4793637990951538,0.7023258209228516,0.42782923579216
1631023509423,0.7056989073753357,0.5396047234535217,0.7659947276115417,0.2955698668956756
1631023509486,0.6302777528762817,0.6134943962097168,0.8448298573493958,0.1665742248296737
1631023509606,0.6302777528762817,0.6707983613014221,0.9023417234420776,0.0530024953186512
1631023509677,0.6302777528762817,0.7035059332847595,0.9376978278160096,-0.0589289553463459
1631023509741,0.6302777528762817,0.721409261226654,0.968994438648224,-0.1263638287782669
1631023509826,0.6409415006637573,0.7313076853752136,0.9977943897247314,-0.1299521923065185
1631023509907,0.6409415006637573,0.7359451055526733,1.0221489667892456,-0.1299521923065185
1631023510113,0.6409415006637573,0.7378455996513367,1.036632061004639,-0.1299521923065185
1631023510174,0.6409415006637573,0.7399987578392029,1.043183207511902,-0.1299521923065185
1631023510226,0.6409415006637573,0.7415575981140137,1.0481915473937988,-0.1299521923065185
1631023510411,0.6409415006637573,0.7394086122512817,1.052722454071045,-0.1299521923065185
1631023510505,-0.1077947169542312,0.7337701916694641,1.0615808963775637,0.1065685749053955
1631023510628,-0.1332935243844986,0.7221693396568298,1.075160026550293,0.1071582213044166
1631023510678,-0.0986634418368339,0.6906772255897522,1.0827382802963257,0.0858973488211631
1631023510772,-0.0156914796680212,0.6246973872184753,1.0697280168533323,0.0491807907819747
1631023510991,0.0868341848254203,0.5202922224998474,1.0288307666778564,0.0075441179797053
1631023511025,0.1895378530025482,0.3907160460948944,0.9746302366256714,-0.0304128341376781
1631023511103,0.2709731161594391,0.2635420262813568,0.926061511039734,-0.0665398761630058
1631023511181,0.3207773864269256,0.1718201488256454,0.8917840719223022,-0.102382592856884
1631023511258,0.3450912237167358,0.1181991472840309,0.8594747185707092,-0.1187418699264526
1631023511439,0.3530471622943878,0.086211547255516,0.8284470438957214,-0.0965911522507667
1631023511486,0.3464850485324859,0.0718836411833763,0.8017404079437256,-0.0296850632876157
1631023511533,0.3329916894435882,0.064639501273632,0.786825954914093,0.0459131337702274
1631023511689,0.3320820331573486,0.0446858815848827,0.7816596627235413,0.0941986590623855
1631023511829,0.3420265316963196,0.0162689108401536,0.7755581736564636,0.1296444088220596
1631023512001,0.3580730855464935,-0.0075156665407121,0.7670952677726746,0.1379939317703247
1631023512038,0.3794505596160888,-0.0072133420035243,0.7435550093650818,0.1276823431253433
1631023512098,0.3967514634132385,0.0165923610329628,0.6920298933982849,0.1237348914146423
1631023512145,0.4091858863830566,0.0940897092223167,0.6107852458953857,0.1385325193405151
1631023512255,0.4214397072792053,0.2169489413499832,0.520504355430603,0.1725111454725265
1631023512380,0.4412964582443237,0.3356836438179016,0.4730072915554046,0.1965793967247009
1631023512551,0.4968232810497284,0.4191861152648926,0.5019646883010864,0.2237814515829086
1631023512692,0.6173044443130493,0.463538110256195,0.5683224201202393,0.2547725141048431
1631023512723,0.7587041258811951,0.4763135612010956,0.6210963726043701,0.2903342545032501
1631023512754,0.875177264213562,0.4740942418575287,0.6483103036880493,0.3227415978908539
1631023512911,0.946721374988556,0.4750911593437195,0.655936062335968,0.3412580192089081
1631023513132,0.9825948476791382,0.486454576253891,0.6521067023277283,0.3293870091438293
1631023513163,0.994844615459442,0.5040496587753296,0.6459029316902161,0.2846553325653076
1631023513210,0.998558759689331,0.5272210836410522,0.6463610529899597,0.2203463166952133
1631023513351,0.9977945685386658,0.5519000887870789,0.6521050333976746,0.1672669202089309
1631023513413,0.9948363900184632,0.5698933601379395,0.6552646160125732,0.1619343310594558
1631023513445,0.9913706183433532,0.5796753764152527,0.6588614583015442,0.1619343310594558
1631023513632,0.991609752178192,0.5856185555458069,0.6714958548545837,0.1619343310594558
1631023513742,0.9951991438865662,0.5820485949516296,0.6932759284973145,0.1619343310594558
1631023513851,0.999259352684021,0.5678719282150269,0.716015100479126,0.1619343310594558
1631023513997,1.0013567209243774,0.5479433536529541,0.723534882068634,0.6371088027954102
1631023514044,0.99065500497818,0.5293639302253723,0.7029293775558472,0.656298041343689
1631023514059,0.948981761932373,0.5287807583808899,0.6629416942596436,0.6403945088386536
1631023514266,0.8706039786338806,0.5540909171104431,0.6211123466491699,0.611046314239502
1631023514360,0.7629922032356262,0.589680552482605,0.5916208028793335,0.5806170105934143
1631023514407,0.67091965675354,0.6171901226043701,0.5735877156257629,0.5556212067604065
1631023514453,0.6105284690856934,0.6311688423156738,0.5695940852165222,0.5556212067604065
1631023514578,0.6002057194709778,0.644240140914917,0.5840809345245361,0.5556212067604065
1631023514703,0.6143365502357483,0.6657926440238953,0.6099296808242798,0.5556212067604065
1631023514813,0.6412045955657959,0.7097107768058777,0.6425425410270691,0.5556212067604065
1631023514891,0.6742227673530579,0.7800766825675964,0.6783154010772705,0.5556212067604065
1631023515000,0.7103313207626343,0.8529544472694397,0.7069748640060425,0.5556212067604065
1631023515203,0.7412846088409424,0.9088358879089355,0.717115581035614,0.5661947727203369
1631023515329,0.7643269300460815,0.9448908567428588,0.70488440990448,0.5709444880485535
1631023515516,0.7807785272598267,0.9661972522735596,0.6735138893127441,0.5448012351989746
1631023515595,0.7870711088180542,0.9762746691703796,0.6340652704238892,0.4772496521472931
1631023515688,0.7867454290390015,0.981287121772766,0.6016637086868286,0.3842095136642456
1631023515688,0.7867454290390015,0.9870874285697936,0.5772903561592102,0.3842095136642456
1631023515719,0.7867454290390015,0.9932140111923218,0.5583561062812805,0.3842095136642456
1631023515923,0.7867454290390015,0.9997735619544984,0.5470255613327026,0.3842095136642456
1631023515954,0.7867454290390015,1.001487135887146,0.5426034331321716,0.3842095136642456
1631023516048,0.7257993817329407,1.0075045824050903,0.5317554473876953,0.3842095136642456
1631023516172,0.7210763096809387,1.022979736328125,0.506560742855072,0.7973527908325195
1631023516204,0.7311779260635376,1.0344319343566897,0.4634793996810913,0.7441056966781616
1631023516409,0.7397608160972595,1.0345144271850586,0.4052615463733673,0.7325718402862549
1631023516519,0.7577963471412659,1.0160521268844604,0.3390877544879913,0.7580323219299316
1631023516550,0.7834128141403198,0.9831574559211732,0.2721182405948639,0.795368492603302
1631023516831,0.799614667892456,0.9486433267593384,0.2147922068834304,0.8162133097648621
1631023516847,0.7988607883453369,0.9407832026481628,0.1762458533048629,0.814825177192688
1631023516925,0.7813500761985779,0.9088825583457948,0.1561702340841293,0.7958006858825684
1631023517034,0.7575662732124329,0.8696136474609375,0.1463680267333984,0.7958006858825684
1631023517081,0.7350747585296631,0.8282476663589478,0.1339665949344635,0.7958006858825684
1631023517112,0.7143105864524841,0.7823807001113892,0.1233739033341407,0.7659465074539185
1631023517284,0.6762160658836365,0.7295035719871521,0.1096593588590622,0.7440187931060791
1631023517362,0.6605381369590759,0.6703016757965088,0.0905605033040046,0.6848638653755188
1631023517503,0.6629621386528015,0.6257402896881104,0.0628547221422195,0.6808458566665649
1631023517597,0.6792173385620117,0.5676236748695374,0.0464603155851364,0.7211025953292847
1631023517659,0.7013508081436157,0.4453438520431518,0.0423288792371749,0.7420334815979004
1631023517847,0.7153295874595642,0.4313936829566955,0.0602726973593235,0.7620732188224792
1631023517925,0.7218582034111023,0.4237650036811828,0.1081079393625259,0.770307183265686
1631023517925,0.7176533341407776,0.4200633466243744,0.1785146296024322,0.7504580616950989
1631023518042,0.7056869864463806,0.4199565052986145,0.2499923706054687,0.6924394369125366
1631023518189,0.7020760178565979,0.4261577129364013,0.3056282103061676,0.6252616047859192
1631023518236,0.7190372347831726,0.3247621953487396,0.3345792591571808,0.5903137922286987
1631023518408,0.7462939023971558,0.3059630393981933,0.3463731408119201,0.5970582962036133
1631023518455,0.7669475674629211,0.3252294659614563,0.3601222336292267,0.6031394004821777
1631023518627,0.7846771478652954,0.37454554438591,0.3852463960647583,0.6051982045173645
1631023518783,0.8102558255195618,0.4434817135334015,0.4132017195224762,0.6220631003379822
1631023518814,0.8345713019371033,0.5132449865341187,0.4400176405906677,0.6221238374710083
1631023518876,0.8536940217018127,0.5754767060279846,0.4595640301704407,0.6056362986564636
1631023518970,0.8617550730705261,0.6238318085670471,0.4724510908126831,0.5623602271080017
1631023519064,0.8559445738792419,0.6524945497512817,0.4803642630577087,0.4724932909011841
1631023519267,0.8369789719581604,0.6638176441192627,0.481239378452301,0.449703961610794
1631023519298,0.8167471885681152,0.6640735864639282,0.4677347838878631,0.4301569759845733
1631023519407,0.7961760759353638,0.660509467124939,0.4327240884304046,0.4221551120281219
1631023519564,0.7739953994750977,0.6533331871032715,0.3759176135063171,0.400195300579071
1631023519595,0.749758243560791,0.6437116265296936,0.3078608810901642,0.4127706885337829
1631023519829,0.7188446521759033,0.6302923560142517,0.2450702488422393,0.4287021160125732
1631023519860,0.6751278042793274,0.6110779047012329,0.2085252851247787,0.4203663468360901
1631023520095,0.6359766125679016,0.5883303880691528,0.187251791357994,0.3922143876552582
1631023520157,0.6219738125801086,0.5656759738922119,0.1549460887908935,0.355090469121933
1631023520188,0.6209971308708191,0.5334118604660034,0.1031090393662452,0.3174487054347992
1631023520345,0.6089114546775818,0.4782269299030304,0.0437505319714546,0.2924575507640838
1631023520407,0.5794957280158997,0.4004578590393066,-0.020688708871603,0.2797594964504242
1631023520438,0.5362223386764526,0.2985032498836517,-0.0745674446225166,0.2725308239459991
1631023520688,0.494393527507782,0.18244369328022,-0.1049286127090454,0.270532488822937
1631023520719,0.4589804708957672,0.0845676064491272,-0.1008853539824485,0.2765538096427917
1631023520829,0.42838916182518,0.0200273897498846,-0.0572241656482219,0.283686488866806
1631023520938,0.4052352011203766,-0.0216134022921323,0.0158762913197278,0.2882951200008392
1631023521001,0.3997940123081207,-0.0521337315440177,0.0906458646059036,0.2971403896808624
1631023521094,0.4085929095745086,-0.0598618648946285,0.1422845423221588,0.2793197333812713
1631023521110,0.41608726978302,-0.0523124821484088,0.1670720279216766,0.2425512820482254
1631023521254,0.4189470112323761,-0.0464518778026104,0.1780122071504593,0.2669143378734588
1631023521285,0.4200032353401184,-0.0352378636598587,0.1831897944211959,0.2805743217468261
1631023521394,0.4166933596134186,-0.0110234962776303,0.1872277557849884,0.2875181138515472
1631023521504,0.4043783247470855,0.0319254472851753,0.1996078491210937,0.3007284998893738
1631023521722,0.3842907249927521,0.0917279422283172,0.2235786765813827,0.3325792253017425
1631023521816,0.3592265546321869,0.1534450799226761,0.2564842700958252,0.3731201589107513
1631023522035,0.348808616399765,0.2098524719476699,0.2919583618640899,0.4132141470909118
1631023522066,0.3553788065910339,0.2533864080905914,0.318635880947113,0.4454084634780884
1631023522066,0.3669226169586181,0.2762809693813324,0.3307113647460937,0.4732537865638733
1631023522288,0.3806098997592926,0.2833561301231384,0.3265202045440674,0.5000922083854675
1631023522303,0.3947756290435791,0.284915417432785,0.3152650594711303,0.5262881517410278
1631023522382,0.3951199054718017,0.290765643119812,0.3159689605236053,0.5469815731048584
1631023522397,0.4024744033813476,0.2862907648086548,0.3062566816806793,0.5455260872840881
1631023522506,0.3784935474395752,0.2997298538684845,0.3678867816925049,0.5375436544418335
1631023522585,0.3603102266788482,0.3085987269878387,0.4551457464694977,0.5251860618591309
1631023522913,0.3471741080284118,0.3137319087982178,0.5411990284919739,0.496160089969635
1631023522913,0.3446121513843536,0.3143687844276428,0.6018434166908264,0.4759640395641327
1631023522960,0.3545238971710205,0.3067680597305298,0.6345398426055908,0.4657662808895111
1631023523100,0.3653284609317779,0.2938636243343353,0.6426740884780884,0.4554442167282104
1631023523131,0.3766856491565704,0.2806943356990814,0.6373539566993713,0.4372800290584564
1631023523273,0.4211259186267853,0.2699474394321441,0.62298583984375,0.4121613204479217
1631023523523,0.5096620917320251,0.2576215863227844,0.6081557273864746,0.3898656666278839
1631023523539,0.6240201592445374,0.238690435886383,0.5985316634178162,0.3753093481063843
1631023523555,0.7313344478607178,0.2225405275821685,0.5947167873382568,0.3538565933704376
1631023523633,0.8134439587593079,0.2141878008842468,0.5932726263999939,0.3193312883377075
1631023523742,0.8585084080696106,0.2155808359384536,0.5872824192047119,0.2738642692565918
1631023523883,0.8773427605628967,0.2155268192291259,0.5725429654121399,0.2297131419181823
1631023524055,0.8828226327896118,0.2083430737257003,0.5429700613021851,0.1948011219501495
1631023524179,0.882959246635437,0.1893418729305267,0.4850500822067261,0.1653704643249511
1631023524211,0.8820368051528931,0.166721761226654,0.3844901025295257,0.1477358341217041
1631023524242,0.8817929029464722,0.1526914983987808,0.2384151071310043,0.1446103155612945
1631023524401,0.8805938363075256,0.1473277360200882,0.0662549585103988,0.1528622657060623
1631023524417,0.8747061491012573,0.1416054517030716,-0.0782789066433906,0.1581024080514907
1631023524589,0.8641387224197388,0.118332915008068,-0.1304642707109451,0.1516484916210174
1631023524682,0.8492931127548218,0.0655264928936958,-0.1174882054328918,0.1350904107093811
1631023524807,0.8213290572166443,-0.0161979459226131,-0.0706101134419441,0.1073216125369072
1631023524854,0.7720411419868469,-0.1149462386965751,-0.03656592592597,0.0720349475741386
1631023525058,0.6933376789093018,-0.193803384900093,-0.0286379363387823,0.038966991007328
1631023525107,0.5802437663078308,-0.2277316004037857,-0.0355771481990814,0.0336381457746028
1631023525138,0.4345406591892242,-0.2230515778064727,-0.0432590506970882,0.0552671737968921
1631023525341,0.2961419820785522,-0.2096142321825027,-0.0499287135899066,0.061351291835308
1631023525450,0.1984329670667648,-0.1601967811584472,-0.0484426133334636,0.0758719369769096
1631023525481,0.1623211503028869,-0.0445141643285751,-0.0298723131418228,0.0893171951174736
1631023525513,0.1656510680913925,0.1599644422531128,0.011831565760076,0.0989914536476135
1631023525622,0.1836419850587844,0.3931813836097717,0.0815745368599891,0.103549875319004
1631023525825,0.1960495263338089,0.5843690037727356,0.1731784045696258,0.1021297946572303
1631023525934,0.2067079097032547,0.7084429860115051,0.2633867859840393,0.0986452475190162
1631023525997,0.2219073325395584,0.7744535803794861,0.3318944871425628,0.1014219969511032
1631023526013,0.2527835071086883,0.8053516149520874,0.3715495467185974,0.1181334555149078
1631023526200,0.3023772239685058,0.8216208219528198,0.3998280465602875,0.1479819118976593
1631023526341,0.3702301681041717,0.8533147573471069,0.4620579779148102,0.2061536163091659
1631023526372,0.3702301681041717,0.9163751006126404,0.5678090453147888,0.2061536163091659
1631023526466,0.3702301681041717,0.9996778964996338,0.6776161789894104,0.2061536163091659
1631023526575,0.3702301681041717,1.0281223058700562,0.7602241635322571,0.2061536163091659
1631023526684,0.3702301681041717,1.0580185651779177,0.805552065372467,0.2061536163091659
1631023526794,1.0972506999969482,1.090004801750183,0.8222131729125977,1.0234397649765017
1631023526950,1.0256420373916626,1.1229788064956665,0.8256464600563049,0.9469740390777588
1631023527028,0.9609849452972412,1.153334140777588,0.8250393271446228,0.8868762850761414
1631023527122,0.9040327072143556,1.1324968338012695,0.8210316896438599,0.8386021256446838
1631023527249,0.8569042682647705,1.0823354721069336,0.8113702535629272,0.797653317451477
1631023527343,0.8192077875137329,1.004786252975464,0.7929560542106628,0.7616607546806335
1631023527390,0.7895299792289734,0.9194396734237672,0.773160994052887,0.7316244840621948
1631023527468,0.7637555003166199,0.8560835123062134,0.7658014297485352,0.7099909782409668
1631023527577,0.7379783987998962,0.8244962096214294,0.7747979164123535,0.6951282620429993
1631023527780,0.7121906876564026,0.8099522590637207,0.7884145379066467,0.6797074675559998
1631023527843,0.6843565106391907,0.7631291747093201,0.7826236486434937,0.6634483337402344
1631023527952,0.6569374203681946,0.6219491958618164,0.7407280206680298,0.6634483337402344
1631023528030,0.5462923645973206,0.2445884495973587,0.6628873348236084,0.5922359228134155
1631023528155,0.4442690312862396,0.3240542709827423,0.5650990009307861,0.482905626296997
1631023528189,0.4861351549625397,0.3240542709827423,0.4909186065196991,0.3849652707576751
1631023528377,0.691211998462677,0.3240542709827423,0.4761438965797424,0.6911221742630005
1631023528486,0.9112629294395448,0.3240542709827423,0.5033146739006042,0.715837299823761
1631023528502,1.0741472244262695,0.3240542709827423,0.5422316193580627,0.744659960269928
1631023528705,1.1739540100097656,0.3253217339515686,0.5865264534950256,0.7777957320213318
1631023528752,1.225122094154358,0.3408228158950805,0.6373956799507141,0.8179305195808411
1631023528892,1.246998906135559,0.3509373366832733,0.702497661113739,0.8677152991294861
1631023528989,1.2532069683074951,0.3557464182376861,0.7702739834785461,0.9276662468910216
1631023529036,1.2581429481506348,0.3584730327129364,0.7702739834785461,0.9980377554893494
1631023529099,1.2752981185913086,0.5588791370391846,0.7702739834785461,0.9980377554893494
1631023529224,1.311382293701172,0.601576030254364,0.7702739834785461,0.9980377554893494
1631023529302,1.3619940280914309,0.672528088092804,0.7702739834785461,0.9980377554893494
1631023529567,1.4118388891220093,0.672528088092804,0.7702739834785461,0.9980377554893494
1631023529598,1.4485697746276855,0.672528088092804,0.7702739834785461,0.9980377554893494
1631023529645,1.4663124084472656,0.672528088092804,0.7702739834785461,0.9980377554893494
1631023529755,1.461241602897644,0.672528088092804,0.7702739834785461,0.9980377554893494
1631023529817,1.4300258159637451,0.9002646803855896,0.7702739834785461,0.9980377554893494
1631023529942,1.371654391288757,0.8232694268226624,0.7702739834785461,0.9980377554893494
1631023530192,1.2954484224319458,0.7675703763961792,0.6081337332725525,0.9980377554893494
1631023530223,1.2209680080413818,0.7311078310012817,0.6875665187835693,0.037312489002943
1631023530255,1.1689599752426147,0.7100014090538025,0.7214616537094116,0.0456542372703552
1631023530380,1.14374840259552,0.6944032311439514,0.7229441404342651,0.0535786040127277
1631023530426,1.1387405395507812,0.6746174097061157,0.717052698135376,0.0562327653169631
1631023530551,1.1375147104263306,0.6480465531349182,0.7159351706504822,0.0633678063750267
1631023530708,1.120149850845337,0.5565384030342102,0.7203724384307861,0.0698339194059372
1631023530786,1.0721039772033691,0.5239722728729248,0.7209108471870422,0.0780973881483078
1631023530833,0.9888220429420472,0.4939287006855011,0.7092787623405457,0.0909232422709465
1631023530942,0.8871870040893555,0.4670155644416809,0.6901522874832153,0.1243958622217178
1631023531020,0.7907329797744751,0.4417837262153625,0.6668961644172668,0.1607332378625869
1631023531227,0.7329649329185486,0.2795278131961822,0.6415902972221375,0.1882518082857132
1631023531273,0.7302284240722656,0.2219356745481491,0.6160434484481812,0.2031436562538147
1631023531445,0.7597559690475464,0.2646562457084656,0.6084241271018982,0.2099638134241104
1631023531461,0.7936393022537231,0.330706238746643,0.5905316472053528,0.2241246253252029
1631023531617,0.8158167004585266,0.3785234987735748,0.556657075881958,0.2287774384021759
1631023531773,0.8291939496994019,0.3902061879634857,0.5116820931434631,0.2230202704668045
1631023531851,0.8326504230499268,0.3708842098712921,0.4680635631084442,0.2078934460878372
1631023531898,0.8265160322189331,0.3395947515964508,0.4301694929599762,0.1924684643745422
1631023532039,0.8133339881896973,0.3154813945293426,0.3874490559101105,0.1817869544029235
1631023532242,0.7945613265037537,0.3029683530330658,0.3311186730861664,0.1720853298902511
1631023532320,0.7764933109283447,0.3033657073974609,0.2538577020168304,0.1623959243297577
1631023532320,0.7590134739875793,0.3108969032764435,0.1658311784267425,0.1545468121767044
1631023532367,0.7275182604789734,0.322401762008667,0.1017228215932846,0.1481808423995971
1631023532523,0.6676865816116333,0.337142676115036,0.0706080570816993,0.1559596955776214
1631023532570,0.5905529260635376,0.3531901240348816,0.0812954530119896,0.1981391459703445
1631023532695,0.5058655738830566,0.3647381961345672,0.12654609978199,0.2559627592563629
1631023532929,0.4238295257091522,0.3591586351394653,0.1794840991497039,0.2985917329788208
1631023533023,0.3421071767807007,0.322829395532608,0.230264201760292,0.3002624213695526
1631023533101,0.2467660456895828,0.2588952779769897,0.2615840435028076,0.3061976134777069
1631023533132,0.161795511841774,0.2204121798276901,0.3224670886993408,0.3202050328254699
1631023533167,0.0977191776037216,0.3018069565296173,0.450255274772644,0.345137745141983
1631023533401,0.0684557929635047,0.474990576505661,0.4528191387653351,0.3804731369018554
1631023533646,0.0790612176060676,0.6352556943893433,0.4658966362476349,0.4191414713859558
1631023533685,0.1032266542315483,0.7471330165863037,0.4898939728736877,0.4588919878005981
1631023533889,0.1340030580759048,0.8154515624046326,0.582821786403656,0.501802384853363
1631023534026,0.1597116738557815,0.8540610671043396,0.6184963583946228,0.5523959398269653
1631023534071,0.1494643688201904,0.8795647621154785,0.632112443447113,0.6105964183807373
1631023534133,0.1247563362121582,0.8987833857536316,0.6400645971298218,0.6793574094772339
1631023534227,0.1247563362121582,0.9063053131103516,0.641704797744751,0.6793574094772339
1631023534250,0.1247563362121582,0.9068530201911926,0.6351119875907898,0.6793574094772339
1631023534280,0.1247563362121582,0.9038031697273254,0.619377851486206,0.6793574094772339
1631023534381,0.1247563362121582,0.8995000720024109,0.5986209511756897,0.6793574094772339
1631023534490,0.1247563362121582,0.8968029618263245,0.5740819573402405,0.6793574094772339
1631023534589,0.1247563362121582,0.8963291645050049,0.5540771484375,0.6793574094772339
1631023534622,0.1247563362121582,0.8917481899261475,0.5005278587341309,0.6793574094772339
1631023534659,0.1247563362121582,0.8688417077064514,0.3334870934486389,0.6793574094772339
1631023534770,0.1247563362121582,0.8126752972602844,0.3213511407375335,0.6793574094772339
1631023534943,0.1247563362121582,0.7226446866989136,0.3063222467899322,0.6793574094772339
1631023535121,0.962687373161316,0.6140733361244202,0.2875576019287109,0.6793574094772339
1631023535184,0.8909670114517212,0.5145196318626404,0.1273847967386245,0.6793574094772339
1631023535239,0.8357563018798828,0.4392899572849273,0.033053945749998,0.6793574094772339
1631023535364,0.792680025100708,0.3703660666942596,-0.0036967904306948,0.7451061010360718
1631023535411,0.7595281004905701,0.2960682213306427,-0.0114591820165514,0.7094639539718628
1631023535625,0.7312942743301392,0.2503385841846466,0.0123503189533948,0.66953444480896
1631023535704,0.7012224197387695,0.2335235774517059,0.0576009564101696,0.6301280856132507
1631023535735,0.6704161763191223,0.2312693446874618,0.1190303787589073,0.5951926708221436
1631023535907,0.639794111251831,0.232709065079689,0.1873420476913452,0.5693910717964172
1631023535938,0.6111981868743896,0.2331297993659973,0.2515188455581665,0.5570477247238159
1631023536176,0.5865460634231567,0.232648491859436,0.2939970195293426,0.5490620732307434
1631023536232,0.5666611194610596,0.2270518690347671,0.3113299012184143,0.5410863757133484
1631023536310,0.4353407323360443,0.2088272273540496,0.3079918026924133,0.5326369404792786
1631023536341,0.3721984326839447,0.1774520874023437,0.2988618016242981,0.526743471622467
1631023536410,0.3967277407646179,0.1434898823499679,0.2963792383670807,0.5271231532096863
1631023536481,0.4477880001068115,0.1092388108372688,0.302117109298706,0.5036455392837524
1631023536728,0.4952322840690613,0.0714821591973304,0.3128620386123657,0.4804949164390564
1631023536947,0.5196249485015869,0.030277069658041,0.3236892521381378,0.4542723000049591
1631023537010,0.5236299633979797,-0.0002823446411639,0.3299527466297149,0.429165631532669
1631023537025,0.5155733823776245,-0.0015815669903531,0.3251914083957672,0.4087139666080475
1631023537056,0.5014170408248901,0.0388106703758239,0.306743174791336,0.3940299451351166
1631023537244,0.49069744348526,0.1502277702093124,0.2726556062698364,0.3803456127643585
1631023537400,0.4851149916648865,0.3136294782161712,0.2189286798238754,0.3654291331768036
1631023537478,0.4850547611713409,0.4717192351818084,0.1422142535448074,0.3460696041584015
1631023537541,0.4882602989673614,0.5840350389480591,0.0378002934157848,0.3170524835586548
1631023537572,0.4920252859592438,0.6499100923538208,-0.0753126367926597,0.2847253382205963
1631023537634,0.493953138589859,0.6843710541725159,-0.1687293499708175,0.2550686299800873
1631023537806,0.4813252687454223,0.6974923610687256,-0.2163963168859481,0.231529951095581
1631023537853,0.4444690644741058,0.7032538056373596,-0.2332809120416641,0.2127691805362701
1631023537978,0.3939951360225677,0.7110364437103271,-0.2251538187265396,0.1888369470834732
1631023538088,0.3539543151855469,0.7207157611846924,-0.1825618892908096,0.1788085252046585
1631023538163,0.3374969065189361,0.7289296984672546,-0.1127380952239036,0.2175065279006958
1631023538257,0.3432601988315582,0.7349643707275391,-0.0362813360989093,0.2911786735057831
1631023538462,0.3713451325893402,0.7386254072189331,0.0517989881336689,0.3735359609127044
1631023538509,0.4265256524085998,0.7373285293579102,0.135317176580429,0.4477573037147522
1631023538619,0.5019970536231995,0.7281706929206848,0.2183912098407745,0.502125084400177
1631023538698,0.5696927905082703,0.6987266540527344,0.2955567240715027,0.5394179224967957
1631023538745,0.617991030216217,0.6347357630729675,0.3504539430141449,0.5683119893074036
1631023538979,0.6410624980926514,0.5274482369422913,0.3896132707595825,0.5911739468574524
1631023539010,0.6484044790267944,0.3891592621803283,0.4131507575511932,0.6130537390708923
1631023539232,0.652243435382843,0.2483377009630203,0.427991509437561,0.6394733786582947
1631023539294,0.6550498604774475,0.1433030068874359,0.444218099117279,0.6684372425079346
1631023539341,0.6574229001998901,0.1187092065811157,0.4658933877944946,0.6880835294723511
1631023539466,0.6565542221069336,0.1639721393585205,0.4970521032810211,0.697283148765564
1631023539575,0.6459776163101196,0.2259091287851333,0.544869065284729,0.6996777653694153
1631023539732,0.6221123337745667,0.2726560831069946,0.6045769453048706,0.6939879059791565
1631023539810,0.5947455763816833,0.2968768179416656,0.658379852771759,0.6712296605110168
1631023539841,0.5690903663635254,0.3053544759750366,0.6943260431289673,0.6324060559272766
1631023539888,0.5484852194786072,0.3079409003257751,0.704409658908844,0.5888160467147827
1631023540138,0.5121589303016663,0.319702535867691,0.694736659526825,0.553489089012146
1631023540138,0.4652993679046631,0.3509140312671661,0.6718072891235352,0.5227566361427307
1631023540203,0.4498709738254547,0.4005729556083679,0.6402206420898438,0.5047488212585449
1631023540284,0.4788208305835724,0.4568894207477569,0.6135727167129517,0.6501980423927307
1631023540378,0.5366447567939758,0.5028031468391418,0.5932618379592896,0.7655203938484192
1631023540612,0.5874326825141907,0.5309513211250305,0.5825313925743103,0.832204282283783
1631023540628,0.6121126413345337,0.541292667388916,0.5790844559669495,0.8452808260917664
1631023540706,0.6157437562942505,0.5373139977455139,0.5764105319976807,0.8552893996238708
1631023540846,0.6178768277168274,0.5204047560691833,0.5684415698051453,0.8734200596809387
1631023540878,0.6235653162002563,0.5001559257507324,0.5475481748580933,0.903052568435669
1631023541065,0.6300804018974304,0.4944499135017395,0.4968261122703552,0.8982828259468079
1631023541286,0.6343319416046143,0.5420246720314026,0.4046566188335418,0.8888339400291443
1631023541349,0.6338932514190674,0.6376243829727173,0.2806898057460785,0.8798090219497681
1631023541443,0.6339688897132874,0.7335484027862549,0.1592167168855667,0.8747482299804688
1631023541489,0.6289305090904236,0.7989827990531921,0.0970194786787033,0.8651946783065796
1631023541536,0.6240172386169434,0.8273230195045471,0.1053051427006721,0.8197380900382996
1631023541802,0.6094396710395813,0.8274886012077332,0.1404915004968643,0.7793535590171814
1631023541911,0.5642337203025818,0.8125041723251343,0.1739354729652404,0.7416397929191589
1631023541974,0.4846106469631195,0.7906895279884338,0.1917164623737335,0.5799465179443359
1631023542036,0.3770879507064819,0.7701314091682434,0.1991446912288665,0.3094285130500793
1631023542192,0.2628513276576996,0.7573606967926025,0.1982280761003494,-0.1645967066287994
1631023542430,0.1772373467683792,0.7547302842140198,0.188713788986206,-0.1895873695611953
1631023542576,0.1366571635007858,0.7582806348800659,0.1759576797485351,-0.2004148662090301
1631023542592,0.1017732918262481,0.7626541256904602,0.1812680065631866,-0.1875824928283691
1631023542639,0.0662457942962646,0.757602334022522,0.2320334762334823,-0.1516011953353881
1631023542655,0.0359461866319179,0.7352830171585083,0.3237999379634857,-0.150424987077713
1631023542670,0.0101104499772191,0.6775050759315491,0.4203536212444305,-0.1153137236833572
1631023542779,-0.0119564710184931,0.5688580870628357,0.4879769384860992,-0.0839140713214874
1631023542967,-0.03132189437747,0.4078330993652344,0.5172634124755859,-0.0542184971272945
1631023543096,-0.0172937177121639,0.2227628380060196,0.5153469443321228,-0.0026801021303981
1631023543143,0.0535692945122718,0.0879715755581855,0.4980383515357971,0.0714209675788879
1631023543158,0.1521919965744018,0.0467484481632709,0.4779215455055237,0.1485080868005752
1631023543221,0.2482300102710724,0.0684190243482589,0.4651021063327789,0.2338874638080597
1631023543424,0.3084617257118225,0.1248338520526886,0.4626312553882599,0.3125774562358856
1631023543643,0.3369594514369964,0.1851836442947387,0.4663524627685547,0.3700230121612549
1631023543752,0.3475810587406158,0.2278991490602493,0.4715097546577453,0.4069910049438476
1631023543783,0.3525378108024597,0.2478393167257309,0.4748620986938476,0.4294494092464447
1631023543830,0.3618258535861969,0.2499339431524276,0.4736615121364593,0.4440832734107971
1631023544208,0.3760296702384949,0.2588585317134857,0.4628418385982513,0.4554519951343536
1631023544223,0.3929266035556793,0.2870551645755768,0.4287948608398437,0.466105967760086
1631023544270,0.4094960689544678,0.3266797065734863,0.3596056997776031,0.471855878829956
1631023544286,0.4228505194187164,0.3646118342876434,0.2529877424240112,0.4718774855136871
1631023544317,0.4326514899730682,0.389325886964798,0.1265225410461425,0.4748768508434295
1631023544583,0.4330044686794281,0.3973007202148437,0.0173169672489166,0.4861924946308136
1631023544645,0.4217163920402527,0.3961843252182007,-0.0440513975918293,0.5043742656707764
1631023544723,0.3890174031257629,0.3933123648166656,-0.0670252814888954,0.5247772336006165
1631023544754,0.3326744735240936,0.3934593498706817,-0.0696039870381355,0.5421203374862671
1631023544770,0.2777357995510101,0.3847219049930572,-0.0688613280653953,0.5511472225189209
1631023544879,0.2892284393310547,0.3571471869945526,-0.0736642852425575,0.5600154399871826
1631023545036,0.3930758237838745,0.3143752515316009,-0.0875038653612136,0.5511553287506104
1631023545131,0.5342761874198914,0.2677995860576629,-0.1015437170863151,0.5528693199157715
1631023545241,0.6491357684135437,0.2264874279499054,-0.1070863753557205,0.6628230214118958
1631023545350,0.7180295586585999,0.1970632970333099,-0.10487662255764,0.7446629405021667
1631023545413,0.7492532730102539,0.1670754253864288,-0.1035940870642662,0.789928674697876
1631023545709,0.7575994729995728,0.1307570785284042,-0.1114508062601089,0.8037686347961426
1631023545709,0.7570271492004395,0.0933038294315338,-0.1262226849794387,0.7999822497367859
1631023545725,0.7546772956848145,0.0623725093901157,-0.1544275432825088,0.7933144569396973
1631023545803,0.7531242966651917,0.0413367636501789,-0.1916578263044357,0.7889771461486816
1631023545944,0.7547433376312256,0.0329855717718601,-0.2244147658348083,0.7809293270111084
1631023546213,0.7553836107254028,0.0302418693900108,-0.2395890802145004,0.7636778950691223
1631023546243,0.7543132305145264,0.0240015238523483,-0.2360738664865493,0.7359774708747864
1631023546431,0.7514308094978333,0.0099971955642104,-0.2270997762680053,0.7018275260925293
1631023546478,0.7422521710395813,-0.0025051904376596,-0.2224393337965011,0.6634359955787659
1631023546540,0.6616585850715637,-0.0024185692891478,-0.2416321337223053,0.5947970151901245
1631023546540,0.7165741920471191,-0.0076933484524488,-0.2311442792415619,0.6189935803413391
1631023546759,0.5816443562507629,0.0091329310089349,-0.2246509492397308,0.5947970151901245
1631023546821,0.4554907083511352,0.0231387671083211,-0.0983456820249557,0.4819543361663818
1631023547009,0.309346854686737,0.034201730042696,0.1816079765558242,0.3224382400512695
1631023547024,0.1901594251394271,0.0401768013834953,0.2021550983190536,0.1426991969347
1631023547071,0.1252183616161346,0.040831234306097,0.2268133014440536,0.0056128907017409
1631023547087,0.0896013379096984,0.0428658723831176,0.2526153028011322,-0.0286112260073423
1631023547199,0.0616851150989532,0.0674611553549766,0.2802638411521911,-0.0089330188930034
1631023547355,0.0296692233532667,0.1249013245105743,0.3113473057746887,-0.0046334299258887
1631023547512,-0.0147043159231543,0.1999332904815673,0.6252779364585876,-0.0179234873503446
1631023547527,-0.0371640920639038,0.2625985741615295,0.778213381767273,-0.0468032099306583
1631023547605,-0.0365134552121162,0.3021038770675659,0.8587983846664429,-0.0837595239281654
1631023547871,-0.0365134552121162,0.3277589976787567,0.9120603799819946,-0.0837595239281654
1631023547886,-0.0365134552121162,0.3683246672153473,0.9394052624702454,-0.0837595239281654
1631023547918,-0.0365134552121162,0.4644588828086853,0.9505817890167236,-0.0837595239281654
1631023547996,-0.0365134552121162,0.5977483987808228,0.953555703163147,-0.0837595239281654
1631023548074,-0.0365134552121162,0.7228441834449768,0.9524419903755188,0.6032978296279907
1631023548183,0.3124288916587829,0.8119051456451416,0.9394716620445251,0.599435031414032
1631023548402,0.291398823261261,0.8623421788215637,0.8898801803588867,0.5798899531364441
1631023548512,0.2540819346904754,0.8844515681266785,0.8664878606796265,0.5537940263748169
1631023548674,0.2193472534418106,0.8914988040924072,0.8641329407691956,0.5262435078620911
1631023548721,0.1904834657907486,0.8887358903884888,0.8895123600959778,0.4966975152492523
1631023548752,0.1683902293443679,0.8817505836486816,0.9303957223892212,0.4627700448036194
1631023548830,0.1536144316196441,0.8725557923316956,0.9624962210655212,0.4281213283538818
1631023548986,0.1491571068763733,0.8653081655502319,0.934192717075348,0.3963002860546112
1631023549018,0.155392125248909,0.8667503595352173,0.895383894443512,0.3718210160732269
1631023549197,0.1708806306123733,0.8756736516952515,0.857064962387085,0.3551791906356811
1631023549224,0.1911872178316116,0.8841699361801147,0.8200551867485046,0.3423584103584289
1631023549302,0.213891789317131,0.8817269206047058,0.7968297004699707,0.3191404044628143
1631023549599,0.233007401227951,0.8524649739265442,0.7877160310745239,0.2870622873306274
1631023549771,0.2463629394769668,0.7859799265861511,0.7861201167106628,0.2465583831071853
1631023549818,0.2346081584692001,0.6838021278381348,0.7860786318778992,0.1931678801774978
1631023549833,0.2265731245279312,0.5722359418869019,0.7898010611534119,0.1415309309959411
1631023549849,0.2290785163640976,0.5156807899475098,0.8057397603988647,0.099285252392292
1631023549989,0.2451978325843811,0.5674023032188416,0.8479834198951721,0.0669348090887069
1631023550036,0.267564594745636,0.6920110583305359,0.9092174768447876,0.0419361665844917
1631023550273,0.2940268218517303,0.8185558319091797,0.9615463018417358,0.0299672968685627
1631023550336,0.3236047625541687,0.905818521976471,0.9287633299827576,0.0444903261959552
1631023550367,0.3555604219436645,0.9466696977615356,0.9210190176963806,0.0796339139342308
1631023550601,0.3864578902721405,0.9557273983955384,0.8966401815414429,0.1249876022338867
1631023550617,0.4134401977062225,0.952678084373474,0.8770769834518433,0.1634488701820373
1631023550648,0.4333283603191376,0.9542742371559144,0.8695166110992432,0.1882069408893585
1631023550898,0.4333283603191376,0.9608439207077026,0.8676093816757202,0.1882069408893585
1631023550945,0.4333283603191376,0.9713088274002076,0.8695480823516846,0.1882069408893585
1631023551104,0.4333283603191376,0.9812034368515016,0.8727083802223206,0.1882069408893585
1631023551166,0.4333283603191376,0.988158106803894,0.8780457377433777,0.1882069408893585
1631023551338,0.2400825768709182,0.9918777346611024,0.8852434158325195,0.1882069408893585
1631023551432,0.3004173338413238,0.9913138151168824,0.888425350189209,0.4910157322883606
1631023551479,0.3397335708141327,0.9801477789878844,0.8729207515716553,0.4319085478782654
1631023551510,0.3541716039180755,0.948371648788452,0.8195567727088928,0.3797570765018463
1631023551541,0.3743481040000915,0.8883384466171265,0.7018231153488159,0.3646061718463897
1631023552025,0.413471907377243,0.8128771185874939,0.4916209280490875,0.4058887958526611
1631023552076,0.4617294669151306,0.7531214356422424,0.4912531077861786,0.4847022891044616
1631023552091,0.5092683434486389,0.7366997003555298,0.3650138676166534,0.5623524785041809
1631023552122,0.5473326444625854,0.7462064623832703,0.3344526290893554,0.6145460605621338
1631023552201,0.5728461742401123,0.7460683584213257,0.3514978587627411,0.6145460605621338
1631023552357,0.5848426818847656,0.7213941216468811,0.364655077457428,0.6145460605621338
1631023552372,0.5882028341293335,0.6863873600959778,0.3689731061458587,0.6145460605621338
1631023552435,0.6077167391777039,0.6467843651771545,0.3629642426967621,0.6075628399848938
1631023552513,0.6202687621116638,0.6127139925956726,0.3526329398155212,0.6044673919677734
1631023552591,0.6252996921539307,0.5888707637786865,0.3411859571933746,0.6183253526687622
1631023552654,0.620048999786377,0.5730412006378174,0.327274352312088,0.6383182406425476
1631023552872,0.5899775624275208,0.5513755679130554,0.3081680536270141,0.6789481043815613
1631023552872,0.6067920923233032,0.561576247215271,0.3119096159934997,0.6597759127616882
1631023553090,0.5729832053184509,0.5365998148918152,0.3129055202007293,0.6947246789932251
1631023553110,0.5576705932617188,0.5057085752487183,0.3173551261425018,0.7189863324165344
1631023553188,0.5510460734367371,0.4468156993389129,0.3117267191410064,0.7278003692626953
1631023553298,0.5310612916946411,0.3789328634738922,0.2878104150295257,0.7115808725357056
1631023553407,0.495746910572052,0.4175825417041778,0.2660346329212188,0.6685755848884583
1631023553626,0.3890908360481262,0.7822197079658508,0.3714115917682647,0.610019862651825
1631023553626,0.4471017122268677,0.5930987596511841,0.2916303277015686,0.610019862651825
1631023553672,0.3310798406600952,0.9123796224594116,0.4642830491065979,0.610019862651825
1631023553860,0.2729180455207824,0.9779329299926758,0.5307232737541199,0.610019862651825
1631023554222,0.2090893387794494,1.000636100769043,0.5653418898582458,0.6230636239051819
1631023554269,0.1367124021053314,1.0055097341537476,0.5783022046089172,0.6244977116584778
1631023554300,0.0443625003099441,1.006689190864563,0.5798789858818054,0.5986173748970032
1631023554331,-0.0430014468729496,1.007321000099182,0.572683572769165,0.5986173748970032
1631023554394,-0.0430014468729496,1.0073760747909546,0.5640078783035278,0.5986173748970032
1631023554519,-0.0430014468729496,1.0068073272705078,0.556847095489502,0.5986173748970032
1631023554675,-0.0430014468729496,1.005817413330078,0.5511350035667419,0.5986173748970032
1631023554784,-0.0430014468729496,1.0047075748443604,0.5474226474761963,0.5986173748970032
1631023554815,0.3970074653625488,1.0010240077972412,0.5451855659484863,0.1064007729291915
1631023554831,0.3926675319671631,0.987751841545105,0.5402324199676514,0.1823253184556961
1631023554940,0.4038904011249542,0.9440526366233826,0.522398054599762,0.2832349836826324
1631023555081,0.4391225278377533,0.846118688583374,0.4763781130313873,0.3809580504894256
1631023555209,0.4841820299625397,0.6756951808929443,0.3933960497379303,0.4684464335441589
1631023555256,0.5271307826042175,0.4352818429470062,0.2783227562904358,0.559156060218811
1631023555303,0.5540592074394226,0.1963298171758651,0.1554587185382843,0.6396119594573975
1631023555459,0.5794665217399597,0.1007492616772651,0.0614548176527023,0.6956875920295715
1631023555506,0.5983151197433472,0.113149456679821,0.0110904425382614,0.7317391037940979
1631023555647,0.5983151197433472,0.1355721950531005,-0.0049664783291518,0.7317391037940979
1631023555850,0.5983151197433472,0.1506154537200927,0.0075161433778703,0.7317391037940979
1631023555944,0.5983151197433472,0.2073843479156494,0.0537192821502685,0.7317391037940979
1631023555959,0.6122528910636902,0.3393745124340057,0.1704782843589782,0.7591285109519958
1631023556084,0.6281756162643433,0.5057897567749023,0.3418745994567871,0.7928649187088013
1631023556178,0.6477563977241516,0.6544346213340759,0.5068345069885254,0.8305621147155762
1631023556274,0.6722056269645691,0.7566790580749512,0.6258738040924072,0.8720974326133728
1631023556367,0.7019220590591431,0.8136248588562012,0.69327312707901,0.911492109298706
1631023556461,0.7321382761001587,0.8383654952049255,0.721014142036438,0.9476310014724731
1631023556508,0.7535400986671448,0.8444180488586426,0.7259203195571899,0.981124997138977
1631023556758,0.763325035572052,0.8428239226341248,0.720352053642273,1.0125950574874878
1631023556867,0.763325035572052,0.838017463684082,0.7139646410942078,1.0125950574874878
1631023557058,0.763325035572052,0.8354178667068481,0.7144055962562561,1.0125950574874878
1631023557073,0.763325035572052,0.8400005102157593,0.7222199440002441,1.0125950574874878
1631023557261,0.763325035572052,0.8519937992095947,0.7314194440841675,1.0125950574874878
1631023557323,0.3463234603404999,0.8653450012207031,0.73501056432724,1.0125950574874878
1631023557417,0.3516367673873901,0.8757718801498413,0.7359768748283386,0.04727678373456
1631023557526,0.365763247013092,0.8733232617378235,0.7327538132667542,0.0434278361499309
1631023557573,0.3829404711723327,0.8578885793685913,0.719931960105896,0.0969078093767166
1631023557605,0.3919340372085571,0.8360347747802734,0.6905535459518433,0.168339118361473
1631023557667,0.3998200893402099,0.8150891661643982,0.6382313966751099,0.2170804440975189
1631023557792,0.4078804850578308,0.8046227097511292,0.5710066556930542,0.2402142733335495
1631023557948,0.4140441715717315,0.804559051990509,0.5102180242538452,0.2395036816596985
1631023558091,0.418007493019104,0.8093075752258301,0.473456472158432,0.2256479263305664
1631023558154,0.4202406108379364,0.8165556788444519,0.4575701355934143,0.2039699405431747
1631023558185,0.4397594332695007,0.8228142857551575,0.4514442980289459,0.1828650087118148
1631023558279,0.4851128756999969,0.8239332437515259,0.4463446736335754,0.1668125987052917
1631023558357,0.5592137575149536,0.8230125904083252,0.4370957016944885,0.1527281403541565
1631023558450,0.5710254311561584,0.81520676612854,0.4270695745944977,0.1482068002223968
1631023558575,0.5874664187431335,0.8075650334358215,0.4349698424339294,0.1530773341655731
1631023558700,0.6038826107978821,0.8110775351524353,0.5156403183937073,0.166801780462265
1631023558778,0.619903028011322,0.8416333198547363,0.5339574813842773,0.1855051070451736
1631023558903,0.6350053548812866,0.910047173500061,0.8100749850273132,0.1985401660203933
1631023558997,0.6497172117233276,0.9880982637405396,0.9994757175445556,0.1863164007663726
1631023559094,0.6692697405815125,1.0478984117507937,1.109369874000549,0.1385924965143203
1631023559234,0.6925151944160461,1.0722522735595703,1.1636734008789062,0.0651975348591804
1631023559297,0.7201930284500122,1.0820415019989014,1.1896965503692627,-0.0242883060127496
1631023559453,0.7565203309059143,1.104929804801941,1.2151144742965698,-0.100899800658226
1631023559500,0.8072394132614136,1.150232434272766,1.2502803802490234,-0.1507087498903274
1631023559625,0.8072394132614136,1.197864294052124,1.2854084968566897,-0.1507087498903274
1631023559797,0.8072394132614136,1.234158277511597,1.3115110397338867,-0.1507087498903274
1631023559859,0.8072394132614136,1.25499165058136,1.3273576498031616,-0.1507087498903274
1631023559890,0.8072394132614136,1.2808959484100342,1.3353077173233032,-0.1507087498903274
1631023560081,0.8072394132614136,1.3090503215789795,1.338409662246704,-0.1507087498903274
1631023560253,0.8072394132614136,1.3106712102890017,1.3380787372589111,-0.1507087498903274
1631023560284,0.8072394132614136,1.3084386587142944,1.3310707807540894,-0.1507087498903274
1631023560331,0.8072394132614136,1.296376347541809,1.3155691623687744,-0.1507087498903274
1631023560377,0.8072394132614136,1.2642053365707395,1.275997281074524,-0.1507087498903274
1631023560830,0.8072394132614136,1.210255146026611,1.2261087894439695,-0.1507087498903274
1631023560877,0.8072394132614136,1.141300082206726,1.179618239402771,0.8738703727722168
1631023560940,0.8072394132614136,1.080285906791687,1.1443220376968384,0.792927086353302
1631023560955,0.8072394132614136,1.0264620780944824,1.116381049156189,0.7254190444946289
1631023560987,0.8072394132614136,0.9615217447280884,1.0830599069595337,0.7254190444946289
1631023561033,0.8072394132614136,0.8679009079933167,1.036016583442688,0.7254190444946289
1631023561428,0.8072394132614136,0.7600042223930359,0.9923284649848938,0.7254190444946289
1631023561428,0.8072394132614136,0.6633111238479614,0.9802895188331604,0.7254190444946289
1631023561490,0.8072394132614136,0.6145064830780029,1.0078355073928833,0.7254190444946289
1631023561537,0.8072394132614136,0.6363168954849243,1.0594269037246704,0.7254190444946289
1631023561584,0.8072394132614136,0.6594799757003784,1.0803651809692385,0.7254190444946289
1631023561693,0.8072394132614136,0.7249367833137512,1.1050779819488523,0.7254190444946289
1631023561849,0.8072394132614136,0.844157338142395,1.1478114128112793,0.7254190444946289
1631023561974,0.8072394132614136,1.0749205350875854,1.2218916416168213,0.4259913265705108
1631023561974,0.8072394132614136,0.9724693894386292,1.1880874633789062,0.6097098588943481
1631023562006,0.8072394132614136,1.144045352935791,1.236994743347168,0.4259913265705108
1631023562145,0.8072394132614136,1.171823024749756,1.2293751239776611,0.4259913265705108
1631023562258,0.8072394132614136,1.2012652158737185,1.2362923622131348,0.4259913265705108
1631023562383,0.8072394132614136,1.274091362953186,1.2629408836364746,0.4259913265705108
1631023562477,0.8072394132614136,1.353964924812317,1.3048094511032104,0.4259913265705108
1631023562555,0.8072394132614136,1.4127018451690674,1.3283727169036863,0.4259913265705108
1631023562586,0.8072394132614136,1.437638521194458,1.3323285579681396,0.4259913265705108
1631023562836,0.8072394132614136,1.46386456489563,1.313871145248413,0.4259913265705108
1631023562976,0.8072394132614136,1.4938201904296875,1.272796869277954,0.4259913265705108
1631023563180,0.8072394132614136,1.5295950174331665,1.212262749671936,0.4259913265705108
1631023563214,0.8072394132614136,1.5693600177764893,1.1727224588394165,0.4259913265705108
1631023563277,0.8072394132614136,1.5479650497436523,1.1360619068145752,0.4259913265705108
1631023563417,0.8072394132614136,1.5029611587524414,1.0736888647079468,0.4259913265705108
1631023563496,0.8072394132614136,1.4327839612960815,0.9793511629104614,0.4259913265705108
1631023563683,0.8072394132614136,1.3482840061187744,0.8307043313980103,0.4259913265705108
1631023563730,0.3146177232265472,1.266256332397461,0.6335821747779846,0.1286410391330719
1631023563761,0.3253273665904999,1.220568299293518,0.5993643403053284,0.1703351140022277
1631023563792,0.3216771781444549,1.1818654537200928,0.5678191184997559,0.2009889930486679
1631023563917,0.3055468201637268,1.0622135400772097,0.5386800169944763,0.209362655878067
1631023564042,0.2763876914978027,0.8201364874839783,0.310935914516449,0.2066128253936767
1631023564136,0.2403523474931717,0.315884917974472,0.0529562272131443,0.1989734470844268
1631023564265,0.2042779922485351,0.304392546415329,-0.2130292207002639,0.1946605443954467
1631023564328,0.1704863756895065,0.281050443649292,-0.4015482664108276,0.1917687952518463
1631023564453,0.1448871940374374,0.2539365589618683,-0.4207391142845154,0.2057304233312606
1631023564531,0.1286387890577316,0.2288120836019516,-0.3382565975189209,0.2314779907464981
1631023564562,0.1306711137294769,0.2059116661548614,-0.2361226379871368,0.25152188539505
1631023564625,0.1446760445833206,0.1862387210130691,-0.1601837128400802,0.257501482963562
1631023564796,0.1569357365369796,0.1574895083904266,-0.1183631494641304,0.2709686756134033
1631023564906,0.2075452506542205,0.1226679012179374,-0.0940961986780166,0.2943390607833862
1631023565062,0.276385486125946,0.0944265276193618,-0.0707675889134407,0.3349480628967285
1631023565078,0.3506401777267456,0.0714084357023239,-0.0467628426849842,0.3959122002124786
1631023565203,0.4032478332519531,0.0429728627204895,-0.0223349314182996,0.4658620655536651
1631023565331,0.4364962875843048,0.0064423950389027,0.0005659667658619,0.5238834023475647
1631023565377,0.4625167548656463,-0.0449639372527599,0.0193711128085851,0.5625051856040955
1631023565487,0.4922624230384826,-0.1119510605931282,0.0359567701816558,0.581195592880249
1631023565612,0.5211126208305359,-0.1752173155546188,0.0543062277138233,0.5879786610603333
1631023565674,0.5428996086120605,-0.2053775042295456,0.071865364909172,0.5887051224708557
1631023565830,0.5611613392829895,-0.1761078089475631,0.0806891545653343,0.5936079621315002
1631023565893,0.5743508338928223,-0.1138917952775955,0.0666685104370117,0.5972866415977478
1631023566067,0.5862101316452026,-0.0480329170823097,0.0260507185012102,0.5982012152671814
1631023566177,0.5921803712844849,0.0067359451204538,-0.0267731808125972,0.5984793901443481
1631023566305,0.5952675938606262,0.047916904091835,-0.0578875057399272,0.599166750907898
1631023566398,0.5896106958389282,0.0753708109259605,-0.0455513894557952,0.5989838242530823
1631023566461,0.5643190741539001,0.0925705730915069,-0.0051956204697489,0.5921443104743958
1631023566492,0.5190635323524475,0.1038305759429931,0.0297451894730329,0.5717031359672546
1631023566695,0.4553550779819488,0.1070753335952758,0.0458601117134094,0.5285688042640686
1631023566711,0.3902457952499389,0.1064565479755401,0.0467268675565719,0.460944801568985
1631023566820,0.3367131948471069,0.1049772053956985,0.0450258590281009,0.3819073140621185
1631023566914,0.2889958620071411,0.104895606637001,0.0532287508249282,0.3089618384838104
1631023566992,0.2331139743328094,0.1097785159945488,0.0708775743842125,0.2577449083328247
1631023567039,0.1787190437316894,0.1193428114056587,0.0895714610815048,0.2246221005916595
1631023567354,0.1374556422233581,0.1225150376558303,0.1005471870303154,0.2051574885845184
1631023567525,0.1042378768324852,0.113610178232193,0.1054301112890243,0.1835681051015854
1631023567604,0.0765910670161247,0.0962097272276878,0.115383081138134,0.163493663072586
1631023567619,0.0475887544453144,0.0725027024745941,0.1314214468002319,0.1386152803897857
1631023567807,0.0103426817804574,0.0485930256545543,0.1424372047185897,0.1093135550618171
1631023567869,-0.0329492539167404,0.0253743026405572,0.1428424417972564,0.080432191491127
1631023567900,-0.0561084300279617,0.0053667617030441,0.1320094764232635,0.0548555292189121
1631023567994,-0.0556962713599205,-0.0087907966226339,0.1092422902584075,0.0330719351768493
1631023568072,-0.0440820753574371,-0.0227283015847206,0.0901941955089569,0.0164978168904781
1631023568088,-0.0362367182970047,-0.0339327678084373,0.08806062489748,0.0105828186497092
1631023568215,-0.034429520368576,-0.0491897538304328,0.1007724404335022,0.0073381625115871
1631023568418,-0.0391342267394065,-0.075916439294815,0.11319450289011,0.0012271950254216
1631023568559,-0.0427220538258552,-0.1138837486505508,0.1111221015453338,-0.0030882561113685
1631023568684,-0.0357546620070934,-0.1539483219385147,0.0904633402824401,-0.0003531708498485
1631023568715,-0.0240340270102024,-0.184706225991249,0.0591306500136852,0.0119384648278355
1631023568793,-0.0045200050808489,-0.20008584856987,0.0301763042807579,0.0314609669148922
1631023568840,0.0242964252829551,-0.2144160270690918,0.0155537026003003,0.049147143959999
1631023568949,0.0517587885260582,-0.2452951222658157,0.033189557492733,0.051310122013092
1631023569218,0.0623024888336658,-0.2944346070289612,0.0907449051737785,0.0418548621237278
1631023569234,0.0717318877577781,-0.3461709916591644,0.1907302290201187,0.0250692125409841
1631023569249,0.0874575600028038,-0.3651178479194641,0.2951717376708984,0.0103632640093564
1631023569421,0.1234468668699264,-0.3377728164196014,0.3787077367305755,-0.0034342664293944
1631023569437,0.1633778810501098,-0.2973012030124664,0.4359481632709503,-0.0144907319918274
1631023569515,0.1994690746068954,-0.2633214592933655,0.4644514918327331,-0.0217748060822486
1631023569702,0.2218008488416671,-0.2410977631807327,0.4734180867671966,-0.028047053143382
1631023569749,0.232041597366333,-0.2276856899261474,0.4748848378658294,-0.0332232341170311
1631023569827,0.2367847263813018,-0.2166539281606674,0.4741311967372894,-0.0400700308382511
1631023569999,0.2402112334966659,-0.1910305172204971,0.4727763533592224,-0.043582659214735
1631023570108,0.2517171204090118,-0.1366913616657257,0.4737787246704101,-0.0397230572998523
1631023570314,0.2681624889373779,-0.0728016346693039,0.4761338531970978,-0.0263536609709262
1631023570376,0.2870226800441742,-0.0020491713657975,0.4780361950397491,-0.0178375896066427
1631023570407,0.2992910742759704,0.071277841925621,0.4754486083984375,-0.0248413998633623
1631023570486,0.3044159114360809,0.1387163996696472,0.4601157903671264,-0.0397188663482666
1631023570595,0.3066295981407165,0.1861342936754226,0.4253153502941131,-0.0546227172017097
1631023570626,0.306694895029068,0.2110965698957443,0.3593636751174927,-0.0520039349794387
1631023570736,0.3009033203125,0.2145631164312362,0.2602139413356781,-0.0347628593444824
1631023570876,0.2818362116813659,0.2093979269266128,0.1332558095455169,-0.0041550793685019
1631023570985,0.2633816003799438,0.2118085920810699,-0.0031935628503561,0.0254731029272079
1631023571032,0.245177537202835,0.224696859717369,-0.1052453741431236,0.0496585182845592
1631023571173,0.2293030619621276,0.2412963509559631,-0.1543405205011367,0.0679374188184738
1631023571282,0.2197190970182418,0.2543799877166748,-0.1835702210664749,0.0843706727027893
1631023571454,0.2206108570098877,0.2621791958808899,-0.2059515863656997,0.098664291203022
1631023571501,0.226032093167305,0.2609420418739319,-0.2149218618869781,0.1141498088836669
1631023571657,0.2213803678750991,0.2440013140439987,-0.2150826454162597,0.1219429895281791
1631023571767,0.2083673626184463,0.2167732864618301,-0.2085871994495391,0.1166962534189224
1631023571892,0.1899415850639343,0.1783905923366546,-0.187632218003273,0.0974012911319732
1631023571954,0.1761877983808517,0.1316059678792953,-0.158310979604721,0.0714802742004394
1631023572001,0.1765089184045791,0.0832052379846572,-0.1269168555736541,0.050194151699543
1631023572110,0.1885173916816711,0.0438122414052486,-0.1026982814073562,0.0435062386095523
1631023572253,0.2097213268280029,0.01723163574934,-0.0854228064417839,0.0666734650731086
1631023572300,0.2366438806056976,0.0009198172483593,-0.0700392127037048,0.119274690747261
1631023572394,0.2626128792762756,-0.0135068548843264,-0.0550968125462532,0.1734728366136551
1631023572519,0.2746912837028503,-0.0301918257027864,-0.0443059727549552,0.2021358162164688
1631023572597,0.3168094158172607,-0.0450378321111202,-0.0455248467624187,0.2138917446136474
1631023572691,0.4359068274497986,-0.0499050356447696,-0.0583536438643932,0.2247558087110519
1631023572862,0.611436665058136,-0.044139202684164,-0.0739843398332595,0.2667117118835449
1631023572940,0.7839993834495544,-0.0282601602375507,-0.0851859599351883,0.3513989150524139
1631023573052,0.9088444709777832,-0.0100055923685431,-0.0859527662396431,0.4407607614994049
1631023573130,0.9785491228103638,0.0076875542290508,-0.0759308636188507,0.5083341598510742
1631023573161,1.0088189840316772,0.0220692008733749,-0.0637421905994415,0.5467609763145447
1631023573410,1.0188438892364502,0.026709895581007,-0.0608164891600608,0.563793420791626
1631023573457,1.021284818649292,0.02075264044106,-0.0639752820134162,0.5731081366539001
1631023573613,1.0218080282211304,0.0118317520245909,-0.0656036064028739,0.5815391540527344
1631023573707,1.0215693712234497,0.0137197701260447,-0.0619192607700824,0.586234450340271
1631023573707,1.019576907157898,0.02444439381361,-0.0593837648630142,0.5814895629882812
1631023573770,1.016063213348389,0.0366259664297103,-0.0666304230690002,0.5636770129203796
1631023573926,1.01216721534729,0.0464820675551891,-0.0838061347603797,0.5387056469917297
1631023574116,1.008653998374939,0.053968995809555,-0.1041624099016189,0.5225265622138977
1631023574147,0.998052179813385,0.0581538118422031,-0.116757795214653,0.519268810749054
1631023574178,0.9664908051490784,0.0586701929569244,-0.1213651672005653,0.5238972902297974
1631023574397,0.8972362279891968,0.0546732023358345,-0.1151145845651626,0.5152244567871094
1631023574507,0.7726969718933105,0.0375473611056804,-0.1020902395248413,0.4697473049163818
1631023574741,0.5972774624824524,0.0168047528713941,-0.0896004065871238,0.3917277455329895
1631023574788,0.4180989265441894,0.0213521011173725,-0.0814756378531456,0.3042495548725128
1631023574803,0.2925911247730255,0.0763951316475868,-0.0771879851818084,0.2474870681762695
1631023574819,0.2271082997322082,0.1750949174165725,-0.0783612728118896,0.2426010221242904
1631023574866,0.185591772198677,0.2786790132522583,-0.0875958800315857,0.2686086297035217
1631023575038,0.1434494853019714,0.3523816764354706,-0.1072639375925064,0.3012584149837494
1631023575147,0.1030633598566055,0.3894152641296386,-0.1273048818111419,0.3385968506336212
1631023575303,0.0812452360987663,0.4007889330387115,-0.1284933686256408,0.373216450214386
1631023575350,0.0693520084023475,0.402445375919342,-0.0829908102750778,0.399547278881073
1631023575444,0.0544536486268043,0.3988154828548431,0.0050241039134562,0.4108803570270538
1631023575522,0.0388983376324176,0.3911112248897552,0.1319682449102401,0.4072518050670624
1631023575709,0.0257474593818187,0.3808566927909851,0.2742784023284912,0.3879111111164093
1631023575850,0.0205253586173057,0.369031697511673,0.3910890817642212,0.3549877107143402
1631023575944,0.0181000512093305,0.3584722876548767,0.4719894230365753,0.3186418414115906
1631023576022,0.0106876483187079,0.3540899157524109,0.5149293541908264,0.3033356368541717
1631023576196,-0.0401229746639728,0.3525598645210266,0.5415722131729126,0.357473611831665
1631023576196,-0.0086944559589028,0.3551276922225952,0.5335519313812256,0.3197125196456909
1631023576290,-0.0671351552009582,0.3304510116577148,0.5525060892105103,0.3924881517887115
1631023576384,-0.080803096294403,0.2753475308418274,0.5675410032272339,0.406671941280365
1631023576478,-0.0726664960384368,0.181250125169754,0.5785483121871948,0.3951054513454437
1631023576524,-0.0391300767660141,0.068174235522747,0.5958060622215271,0.3630057871341705
1631023576665,0.0093821650370955,-0.0239854007959365,0.6364279389381409,0.3174957633018493
1631023576712,0.0445876941084861,-0.0704329088330268,0.6984801888465881,0.2680405974388122
1631023576868,0.0647936537861824,-0.0807660818099975,0.755529522895813,0.2280585765838623
1631023577009,0.0664375945925712,-0.0658213049173355,0.7922735810279846,0.2270682752132415
1631023577071,0.0634372159838676,-0.0291609447449445,0.8026906251907349,0.2420068383216858
1631023577136,0.0647673904895782,0.0313739441335201,0.7875210642814636,0.2680872082710266
1631023577277,0.0792851448059082,0.1093432530760765,0.7613332867622375,0.2994388043880462
1631023577402,0.1016847789287567,0.1754136681556701,0.7350881099700928,0.3285935819149017
1631023577464,0.1177432239055633,0.2165795117616653,0.7170916199684143,0.3439319431781769
1631023577558,0.1242929250001907,0.2304040193557739,0.7048805952072144,0.3289083242416382
1631023577714,0.1176409497857093,0.2233301401138305,0.6949678659439087,0.2732621431350708
1631023577824,0.1068795844912529,0.2020727396011352,0.6808940172195435,0.2055800259113311
1631023577886,0.0960490480065345,0.1765959560871124,0.6632180213928223,0.1100027859210968
1631023578011,0.0822523012757301,0.1556703150272369,0.64935302734375,0.0453476049005985
1631023578058,0.0590542666614055,0.1415152996778488,0.6307387948036194,0.0162784531712532
1631023578167,0.0249918010085821,0.1329678148031234,0.5869499444961548,0.001032642670907
1631023578279,-0.0056345509365201,0.1309645920991897,0.5071660876274109,0.0053356867283582
1631023578389,-0.0272736903280019,0.1311873495578766,0.4076243638992309,0.0217525772750377
1631023578467,0.0266855601221323,0.1290098279714584,0.2840349376201629,-0.0359570048749446
1631023578608,0.1501749157905578,0.1108007058501243,0.1559504121541977,-0.0359570048749446
1631023578655,0.3808944523334503,0.0736425593495369,0.0419613681733608,-0.0359570048749446
1631023578779,0.6432641744613647,0.0305359754711389,-0.0785277038812637,-0.0359570048749446
1631023578951,0.8553145527839661,0.022432280704379,-0.2320679873228073,-0.0359570048749446
1631023579061,1.0029666423797607,0.0590149238705635,-0.4016258418560028,-0.0359570048749446
1631023579154,1.095704197883606,0.1192250028252601,-0.5010261535644531,-0.0359570048749446
1631023579170,1.1234248876571655,0.1640848219394683,-0.5188465118408203,-0.0359570048749446
1631023579297,1.15436851978302,0.19712495803833,-0.4827416241168976,-0.1982237547636032
1631023579376,1.1883600950241089,0.23771932721138,-0.4105350375175476,-0.2790078222751617
1631023579469,1.2252838611602783,0.2925053238868713,-0.4105350375175476,-0.2790078222751617
1631023579735,1.265459418296814,0.3594761788845062,-0.4105350375175476,-0.2790078222751617
1631023579766,1.3095239400863647,0.4208953976631164,-0.4105350375175476,-0.2790078222751617
1631023579797,1.3583983182907104,0.4617244303226471,-0.4105350375175476,-0.2790078222751617
1631023579860,1.4137667417526243,0.4821215569972992,-0.4105350375175476,-0.2790078222751617
1631023580049,1.4734266996383667,0.4918605983257293,-0.4105350375175476,-0.2790078222751617
1631023580221,1.5375609397888184,0.498695433139801,-0.4105350375175476,-0.2790078222751617
1631023580299,1.5934964418411257,0.4998369812965393,-0.4105350375175476,-0.2790078222751617
1631023580331,1.5934964418411257,0.4912829995155334,-0.4105350375175476,-0.2790078222751617
1631023580362,1.5934964418411257,0.4729727804660797,-0.4105350375175476,-0.2790078222751617
1631023580456,1.5934964418411257,0.4489272832870483,0.7024434804916382,-0.2790078222751617
1631023580581,1.5934964418411257,0.422004222869873,0.6539998650550842,-0.2790078222751617
1631023580752,1.5934964418411257,0.4010811448097229,0.6139443516731262,-0.2790078222751617
1631023580815,1.5934964418411257,0.382385641336441,0.5878393650054932,-0.2790078222751617
1631023580909,1.5934964418411257,0.3542963862419128,0.5966607928276062,-0.2790078222751617
1631023581002,1.5934964418411257,0.3128604292869568,0.6344063878059387,-0.2790078222751617
1631023581162,1.5934964418411257,0.2521484792232513,0.6798945665359497,-0.2790078222751617
1631023581240,1.5934964418411257,0.1817613840103149,0.7158730030059814,-0.2790078222751617
1631023581397,1.5934964418411257,0.1278257369995117,0.7300044894218445,-0.2790078222751617
1631023581412,1.5934964418411257,0.106859765946865,0.732084333896637,-0.2790078222751617
1631023581553,1.5934964418411257,0.1003519892692565,0.7393936514854431,-0.2790078222751617
1631023581631,0.9023788571357728,0.091574378311634,0.7535725831985474,-0.2790078222751617
1631023581740,1.050220012664795,0.0826583579182624,0.7361500859260559,-0.2790078222751617
1631023581990,1.127372980117798,0.068354457616806,0.7328864336013794,0.6613595485687256
1631023582037,1.2049471139907837,0.0410358607769012,0.7330688834190369,0.7571452856063843
1631023582053,1.2380415201187134,0.0040305601432919,0.7325881123542786,0.7804915308952332
1631023582092,1.236107587814331,-0.0293192770332098,0.7354778051376343,0.7230731248855591
1631023582259,1.182322978973389,-0.0496604144573211,0.7444753050804138,0.668422520160675
1631023582431,1.1327683925628662,-0.0555078163743019,0.7491698265075684,0.6168839335441589
1631023582525,1.1327683925628662,-0.0277345739305019,0.7347615361213684,0.6168839335441589
1631023582572,1.1327683925628662,-0.0228049214929342,0.6998072266578674,0.6168839335441589
1631023582697,1.1327683925628662,-0.0355921499431133,0.6577579379081726,0.6168839335441589
1631023582947,1.1327683925628662,-0.0667617097496986,0.6430838704109192,0.6168839335441589
1631023583040,1.1327683925628662,-0.1140435561537742,0.6969835162162781,0.6168839335441589
1631023583087,1.1327683925628662,-0.1771473735570907,0.7870320081710815,0.6168839335441589
1631023583212,1.1327683925628662,-0.2408454716205597,0.8586291074752808,0.6168839335441589
1631023583212,1.108792066574097,-0.2881805598735809,0.8935843110084534,0.6168839335441589
1631023583447,1.0397133827209473,-0.3191318213939667,0.8964183926582336,0.577361524105072
1631023583572,0.918292224407196,-0.3246882259845733,0.910275399684906,0.4860478341579437
1631023583665,0.7513763308525085,-0.3069323599338531,0.9122623801231384,0.3515082895755768
1631023583681,0.7513763308525085,-0.2750208973884582,0.914371371269226,0.3515082895755768
1631023583712,0.7513763308525085,-0.0495515465736389,0.9111674427986144,0.3515082895755768
1631023583822,0.7513763308525085,0.0832393988966941,0.9027057886123656,0.3515082895755768
1631023583993,0.7513763308525085,0.1825372278690338,0.894396960735321,0.3515082895755768
1631023584134,0.7513763308525085,0.16337251663208,0.8906245827674866,0.3515082895755768
1631023584181,0.0872746631503105,0.1359571814537048,0.8899118900299072,0.3515082895755768
1631023584231,0.2600697875022888,0.1748274713754654,0.8843280076980591,0.1510542780160904
1631023584309,0.4606346189975738,0.2872323989868164,0.857033908367157,0.1374806463718414
1631023584356,0.611988365650177,0.4151745736598968,0.7805101871490479,0.1287397146224975
1631023584544,0.692818820476532,0.5095634460449219,0.6365966200828552,0.1223835423588752
1631023584622,0.7171031832695007,0.5557715892791748,0.4200407862663269,0.1261825114488601
1631023584794,0.7036609649658203,0.560152530670166,0.1531997472047805,0.125874787569046
1631023584809,0.6735590100288391,0.5477681756019592,0.1651127934455871,0.1177484169602394
1631023584981,0.6455347537994385,0.5370591878890991,0.1802912503480911,0.1148451492190361
1631023585059,0.6228839159011841,0.5350955724716187,0.1677044183015823,0.127569243311882
1631023585153,0.6025484204292297,0.5376882553100586,0.1717786788940429,0.1447981894016266
1631023585296,0.5935579538345337,0.5692613124847412,0.2254588603973388,0.1612398326396942
1631023585296,0.5856010913848877,0.5540630221366882,0.1930154711008072,0.1576340496540069
1631023585358,0.6071736812591553,0.5824431777000427,0.2565849423408508,0.15748992562294
1631023585639,0.622047483921051,0.5982613563537598,0.2766473591327667,0.1579128950834274
1631023585843,0.6273931264877319,0.6096161603927612,0.2859432697296142,0.1621973663568496
1631023585874,0.610527515411377,0.6098726391792297,0.2862878739833832,0.1661643981933593
1631023585921,0.5585309267044067,0.5861682295799255,0.2800913751125335,0.1708623319864273
1631023585936,0.4764694273471832,0.5398178696632385,0.2779080867767334,0.185088112950325
1631023586030,0.3814176023006439,0.4869053959846496,0.2862009406089782,0.2163901627063751
1631023586143,0.3159963488578796,0.4509201347827911,0.3024471700191498,0.2595488429069519
1631023586314,0.3019559681415558,0.4582275152206421,0.3163138031959533,0.3131231963634491
1631023586392,0.3157764971256256,0.4947995245456695,0.3231239318847656,0.3620602786540985
