timestamp,TP9,AF7,AF8,TP10
1631023450842,0.8091945052146912,-0.1623193770647049,-0.3928278088569641,0.7541614770889282
1631023451096,0.8091945052146912,-0.1411566734313964,-0.3925164639949798,0.7541614770889282
1631023451299,0.8104714155197144,-0.1191069111227989,-0.3970707654953003,0.7590668201446533
1631023451393,0.8085339069366455,-0.0945577695965766,-0.4101898074150085,0.7560065984725952
1631023451534,0.8015722632408142,-0.067793495953083,-0.430895984172821,0.7420610189437866
1631023451596,0.7935077548027039,-0.0428935550153255,-0.4538213014602661,0.7294595837593079
1631023451612,0.788497269153595,-0.0219453312456607,-0.4719651639461517,0.7284851670265198
1631023451768,0.7937890887260437,-0.0040300977416336,-0.4774023592472076,0.7470183968544006
1631023451955,0.811279296875,0.1229396015405654,-0.4692667424678802,0.7845550775527954
1631023452029,0.811279296875,0.1304327845573425,-0.4539619088172912,0.7845550775527954
1631023452068,0.811279296875,0.1325703263282776,-0.4353586435317993,0.7845550775527954
1631023452146,0.811279296875,0.131641685962677,-0.4035789668560028,0.7845550775527954
1631023452240,0.811279296875,0.13074591755867,-0.3820777535438537,0.7845550775527954
1631023452287,0.811279296875,0.1287083327770233,-0.3570254147052765,0.7845550775527954
1631023452318,0.811279296875,0.122957170009613,-0.3285970687866211,0.7845550775527954
1631023452536,0.811279296875,0.1158222928643226,-0.2963040173053741,0.7845550775527954
1631023452615,0.811279296875,0.111353263258934,-0.2601801455020904,0.7845550775527954
1631023452677,0.811279296875,0.1113380491733551,-0.2168591767549514,0.7845550775527954
1631023452724,0.811279296875,0.2031383663415908,-0.1701014637947082,0.7845550775527954
1631023452755,0.811279296875,0.201768547296524,-0.1274580657482147,0.7845550775527954
1631023452786,0.811279296875,0.2021423578262329,-0.092200219631195,0.7845550775527954
1631023452818,0.811279296875,0.2088413536548614,-0.0636443719267845,0.7845550775527954
1631023452958,0.811279296875,0.223230242729187,-0.0432734116911888,0.7845550775527954
1631023453101,0.811279296875,0.1591723710298538,-0.0336261428892612,0.7845550775527954
1631023453226,0.811279296875,0.1845401674509048,-0.0341788008809089,0.7845550775527954
1631023453336,0.811279296875,0.2172001004219055,-0.0407771244645118,0.7845550775527954
1631023453398,0.811279296875,0.2610098719596863,-0.0343045741319656,0.7845550775527954
1631023453554,0.811279296875,0.3112912774085998,-0.0291072484105825,0.7845550775527954
1631023453586,0.811279296875,0.3575999438762665,-0.0272094774991273,0.7845550775527954
1631023453664,0.811279296875,0.3910244703292846,-0.0294159650802612,0.7845550775527954
1631023453695,0.811279296875,0.4090765714645386,-0.0357146263122558,0.7845550775527954
1631023453882,0.811279296875,0.414524108171463,-0.0475313551723957,0.4962967038154602
1631023454095,0.811279296875,0.4117411673069,-0.0680090561509132,0.4962967038154602
1631023454120,0.811279296875,0.3501009047031402,-0.0992302373051643,0.4962967038154602
1631023454198,0.811279296875,0.3414991199970245,-0.1384702920913696,0.4962967038154602
1631023454277,0.811279296875,0.3317705988883972,-0.1670985370874405,0.4962967038154602
1631023454339,0.811279296875,0.3399584293365478,-0.2046388834714889,0.4962967038154602
1631023454480,0.811279296875,0.3432018458843231,-0.249627411365509,0.4962967038154602
1631023454558,0.811279296875,0.3419797420501709,-0.2944154143333435,0.4962967038154602
1631023454776,0.811279296875,0.3179942667484283,-0.3301818966865539,0.4962967038154602
1631023454808,0.811279296875,0.2882376611232757,-0.3565327227115631,0.4962967038154602
1631023454870,0.811279296875,0.2411732822656631,-0.3807251155376434,0.4962967038154602
1631023454933,0.811279296875,0.1690242886543274,-0.4060642719268799,0.4962967038154602
1631023455217,0.811279296875,0.0789632201194763,-0.4334214329719543,0.4962967038154602
1631023455280,0.811279296875,-0.0011614003451541,-0.3665316998958587,0.4962967038154602
1631023455342,0.811279296875,-0.0395306088030338,-0.241364374756813,0.4962967038154602
1631023455358,0.811279296875,-0.0614522881805896,-0.106350801885128,0.4962967038154602
1631023455530,0.811279296875,-0.0638841018080711,-0.0008585464674979,0.4962967038154602
1631023455561,0.811279296875,-0.056437749415636,0.0669844970107078,0.4962967038154602
1631023455876,0.811279296875,-0.0429867170751094,0.104796253144741,0.4962967038154602
1631023456013,0.811279296875,-0.0243317075073719,0.0759534686803817,0.4962967038154602
1631023456063,0.811279296875,-0.0243317075073719,0.0475722514092922,0.4962967038154602
1631023456092,0.811279296875,-0.0243317075073719,0.0184287596493959,0.4962967038154602
1631023456161,0.811279296875,-0.0243317075073719,-0.0125047350302338,0.4962967038154602
1631023456207,0.811279296875,-0.0309379864484071,-0.0437448322772979,0.4962967038154602
1631023456337,0.811279296875,-0.0674651563167572,-0.0714684650301933,0.4962967038154602
1631023456552,0.811279296875,-0.0996940657496452,-0.0929009392857551,0.4962967038154602
1631023456587,0.811279296875,-0.1147795915603637,-0.1076114475727081,0.4962967038154602
1631023456617,0.811279296875,-0.1208212524652481,-0.118892878293991,0.4962967038154602
1631023456643,0.811279296875,-0.1372221708297729,-0.134786918759346,0.4962967038154602
1631023456862,0.811279296875,-0.1869460344314575,-0.172748252749443,0.4962967038154602
1631023456995,0.811279296875,-0.1781795024871826,-0.2313140630722046,0.3152389228343963
1631023457088,0.5989909768104553,-0.1808679103851318,-0.2943766415119171,0.3070471584796905
1631023457120,0.5975010395050049,-0.1861217468976974,-0.3430313169956207,0.2865540087223053
1631023457185,0.5984781980514526,-0.1870139986276626,-0.3723520934581756,0.2865540087223053
1631023457404,0.6017003655433655,-0.1870139986276626,-0.3903281986713409,0.2865540087223053
1631023457450,0.6028215885162354,-0.1870139986276626,-0.3994632661342621,0.2588194608688354
1631023457622,0.6082900166511536,-0.1870139986276626,-0.3934865593910217,0.2415760159492492
1631023457685,0.61490797996521,-0.1870139986276626,-0.3707340657711029,0.23194020986557
1631023457763,0.6210850477218628,-0.162191167473793,-0.338963121175766,0.2287568002939224
1631023457903,0.6225751638412476,-0.1493541449308395,-0.3114356994628906,0.2314238846302032
1631023458021,0.6165563464164734,-0.148478016257286,-0.2935203909873962,0.2333210259675979
1631023458149,0.6072394847869873,-0.1564324349164962,-0.2838101685047149,0.2354815602302551
1631023458229,0.5996973514556885,-0.1637682318687439,-0.2814368605613708,0.2390065193176269
1631023458262,0.6000067591667175,-0.1610972136259079,-0.2767228484153747,0.2314746528863906
1631023458302,0.6061227321624756,-0.1364559531211853,-0.2673163115978241,0.2202792167663574
1631023458491,0.6068851351737976,-0.0734641924500465,-0.2558507621288299,0.2091927975416183
1631023458546,0.6052329540252686,0.0208796225488185,-0.246540829539299,0.2015348076820373
1631023458624,0.6063588261604309,0.039562851190567,-0.238750621676445,0.2057268023490905
1631023458784,0.6066330075263977,0.0592551380395889,-0.2283044010400772,0.2057268023490905
1631023458846,0.6052168011665344,0.0592551380395889,-0.2129592597484588,0.2057268023490905
1631023458909,0.6046156287193298,0.0592551380395889,-0.1954469829797744,0.2249665856361389
1631023459065,0.5986331105232239,0.0592551380395889,-0.1832579970359802,0.2430836707353592
1631023459081,0.5873519778251648,0.0592551380395889,-0.1826521903276443,0.2601393461227417
1631023459236,0.5701203346252441,0.062813214957714,-0.1826521903276443,0.2741670310497284
1631023459372,0.5550171732902527,0.0796760842204094,-0.1826521903276443,0.2741670310497284
1631023459450,0.5594167709350586,0.1174302250146865,-0.1826521903276443,0.2741670310497284
1631023459606,0.5594167709350586,0.1732669472694397,-0.1826521903276443,0.2741670310497284
1631023459638,0.5594167709350586,0.2391301989555359,-0.1826521903276443,0.2741670310497284
1631023459731,0.5594167709350586,0.2391301989555359,-0.1826521903276443,0.2741670310497284
1631023459872,0.5594167709350586,0.2391301989555359,-0.1826521903276443,0.2741670310497284
1631023459981,0.5594167709350586,0.2391301989555359,-0.1826521903276443,0.2741670310497284
1631023460078,0.5594167709350586,0.2391301989555359,-0.1826521903276443,0.2741670310497284
1631023460171,0.5594167709350586,0.2391301989555359,-0.1826521903276443,0.2741670310497284
1631023460422,0.5594167709350586,0.2391301989555359,-0.1826521903276443,0.2741670310497284
1631023460437,0.5594167709350586,0.2391301989555359,-0.1826521903276443,0.2741670310497284
1631023460468,0.5594167709350586,-0.1867573708295822,-0.1323000341653823,0.2741670310497284
1631023460640,0.6740652322769165,-0.2050657272338867,-0.1606243103742599,0.2741670310497284
1631023460781,0.6740652322769165,-0.2144186794757843,-0.1829080581665039,0.2741670310497284
1631023460968,0.6740652322769165,-0.2144913971424102,-0.1972463130950927,0.2741670310497284
1631023460999,0.6740652322769165,-0.2068782597780227,-0.2039407342672348,0.2741670310497284
1631023461031,0.6740652322769165,-0.2068782597780227,-0.2043504863977432,0.2741670310497284
1631023461062,0.6740652322769165,-0.2068782597780227,-0.1990800350904464,0.2741670310497284
1631023461171,0.6740652322769165,-0.2068782597780227,-0.1903620213270187,0.2741670310497284
1631023461328,0.6740652322769165,-0.2068782597780227,-0.1834390312433242,0.2741670310497284
1631023461379,0.6740652322769165,-0.2068782597780227,-0.1829007118940353,0.2741670310497284
1631023461507,0.6740652322769165,-0.2068782597780227,-0.1879493147134781,0.2741670310497284
1631023461590,0.6740652322769165,-0.2068782597780227,-0.192394882440567,0.2741670310497284
1631023461667,0.6740652322769165,-0.2214285135269165,-0.1968935579061508,0.2741670310497284
1631023462072,0.6740652322769165,-0.2310017943382263,-0.1907350867986679,0.2741670310497284
1631023462110,0.6740652322769165,-0.2344948798418045,-0.1761610954999923,0.2741670310497284
1631023462141,0.6740652322769165,-0.1196763068437576,-0.1614918708801269,0.2741670310497284
1631023462170,0.6740652322769165,-0.0736560449004173,-0.1542002558708191,0.2741670310497284
1631023462194,0.7541881799697876,-0.0682968869805336,-0.1568488478660583,0.2741670310497284
1631023462301,0.7277412414550781,-0.0888816937804222,-0.1671438962221145,0.2741670310497284
1631023462426,0.7159390449523926,-0.1295586675405502,-0.1821231991052627,0.2741670310497284
1631023462592,0.708008885383606,-0.1670581400394439,-0.1987704932689666,0.2741670310497284
1631023462666,0.7063835263252258,-0.1797694414854049,-0.212306261062622,0.2741670310497284
1631023462699,0.7063835263252258,-0.1672293692827224,-0.220474898815155,0.2741670310497284
1631023462829,0.7063835263252258,-0.1285561770200729,-0.2298787087202072,0.2741670310497284
1631023462876,0.7063835263252258,-0.0541152618825435,-0.2346385568380355,0.2741670310497284
1631023463017,0.7063835263252258,0.0554859898984432,-0.2324426770210266,0.2741670310497284
1631023463196,0.7063835263252258,0.1749268919229507,-0.2297859936952591,0.2741670310497284
1631023463227,0.7063835263252258,0.2755703330039978,-0.2404803484678268,0.2741670310497284
1631023463289,0.7063835263252258,0.3424232304096222,-0.2770926356315613,0.2741670310497284
1631023463343,0.6691762804985046,0.3754871189594269,-0.3436209261417389,0.2741670310497284
1631023463458,0.6445185542106628,0.3947520554065704,-0.4295665323734283,0.2741670310497284
1631023463763,0.6372365951538086,0.4051811993122101,-0.5081542134284973,0.2741670310497284
1631023463778,0.6526584029197693,0.4145541489124298,-0.548154890537262,0.2741670310497284
1631023463794,0.6526584029197693,0.4265930354595184,-0.548154890537262,0.2741670310497284
1631023464028,0.6526584029197693,0.4401653409004211,-0.548154890537262,0.2741670310497284
1631023464151,0.6526584029197693,0.4515454471111297,-0.548154890537262,0.2741670310497284
1631023464254,0.6526584029197693,0.4579909741878509,-0.548154890537262,0.2741670310497284
1631023464300,0.6526584029197693,0.479645699262619,-0.548154890537262,0.2741670310497284
1631023464328,0.6526584029197693,0.4987781643867492,-0.548154890537262,0.2741670310497284
1631023464450,0.6526584029197693,0.510317862033844,-0.548154890537262,0.2741670310497284
1631023464589,0.6526584029197693,0.5050145387649536,-0.548154890537262,0.2741670310497284
1631023464778,0.6526584029197693,0.4732871949672699,-0.548154890537262,0.2741670310497284
1631023464901,0.6526584029197693,0.3870076835155487,-0.548154890537262,0.2741670310497284
1631023464942,0.6526584029197693,0.2815425395965576,-0.548154890537262,0.2741670310497284
1631023464968,0.6526584029197693,0.1844838261604309,-0.548154890537262,0.2741670310497284
1631023465029,0.6526584029197693,0.12445979565382,-0.548154890537262,0.2741670310497284
1631023465226,0.6526584029197693,0.1019644737243652,-0.548154890537262,0.2741670310497284
1631023465323,0.6526584029197693,0.0904739573597908,-0.548154890537262,0.2741670310497284
1631023465442,0.6526584029197693,0.0649919286370277,-0.548154890537262,0.2741670310497284
1631023465677,0.6526584029197693,0.0208681672811508,-0.548154890537262,0.2741670310497284
1631023465723,0.6526584029197693,-0.0311577096581459,-0.548154890537262,0.2741670310497284
1631023465754,0.6526584029197693,-0.0750648602843284,-0.548154890537262,0.2741670310497284
1631023465833,0.6526584029197693,-0.0750648602843284,-0.548154890537262,0.2741670310497284
1631023465956,0.6526584029197693,-0.0750648602843284,-0.548154890537262,0.2741670310497284
1631023465989,0.6526584029197693,-0.0750648602843284,-0.548154890537262,0.2741670310497284
1631023466052,0.6526584029197693,-0.0750648602843284,-0.548154890537262,0.2741670310497284
1631023466180,0.6526584029197693,-0.0750648602843284,-0.548154890537262,0.2741670310497284
1631023466211,0.6526584029197693,-0.0967494398355484,-0.548154890537262,0.2741670310497284
1631023466446,0.6526584029197693,-0.1122157797217369,-0.548154890537262,0.2741670310497284
1631023466574,0.6526584029197693,-0.1292945742607116,-0.548154890537262,0.2741670310497284
1631023466609,0.6526584029197693,-0.1625061631202697,-0.548154890537262,0.2741670310497284
1631023466795,0.6526584029197693,-0.2285415828227996,-0.548154890537262,0.2741670310497284
1631023466904,0.6526584029197693,-0.3334498405456543,-0.548154890537262,0.2741670310497284
1631023467045,0.6526584029197693,-0.3334498405456543,-0.548154890537262,0.2741670310497284
1631023467092,0.6526584029197693,-0.3334498405456543,-0.548154890537262,0.2741670310497284
1631023467170,0.6526584029197693,-0.3334498405456543,-0.548154890537262,0.2741670310497284
1631023467403,0.6526584029197693,-0.3334498405456543,-0.548154890537262,0.2741670310497284
1631023467487,0.6526584029197693,-0.3334498405456543,-0.548154890537262,0.2741670310497284
1631023467716,0.6526584029197693,-0.4674519598484039,-0.548154890537262,0.2741670310497284
1631023467757,0.6526584029197693,-0.4139065444469452,-0.548154890537262,0.2741670310497284
1631023467809,0.6526584029197693,-0.353808581829071,-0.548154890537262,0.2741670310497284
1631023467908,0.6526584029197693,-0.2998567521572113,-0.548154890537262,0.2741670310497284
1631023468016,0.7041451334953308,-0.2629218101501465,-0.4768442511558532,0.3602798581123352
1631023468177,0.7128983736038208,-0.246322676539421,-0.4720797836780548,0.3449404537677765
1631023468215,0.7151625156402588,-0.2461060434579849,-0.4592204689979553,0.3209827244281769
1631023468256,0.7224472165107727,-0.2543060779571533,-0.4503988921642303,0.3043505549430847
1631023468293,0.7215624451637268,-0.2614913582801819,-0.4503849744796753,0.2974247932434082
1631023468328,0.7157155871391296,-0.2619466185569763,-0.457496702671051,0.2977256774902344
1631023468413,0.7151045203208923,-0.2559308409690857,-0.4640220999717712,0.2975990772247314
1631023468554,0.7171640396118164,-0.2473801374435424,-0.4650950729846954,0.2882707417011261
1631023468580,0.7207109928131104,-0.2249696850776672,-0.46043461561203,0.2773423194885254
1631023468821,0.7279755473136902,-0.202297568321228,-0.4521841406822204,0.2654131948947906
1631023468883,0.7334476709365845,-0.1816684454679489,-0.4429489374160766,0.2593522667884826
1631023468899,0.7340947389602661,-0.167574405670166,-0.436182290315628,0.2605044245719909
1631023468996,0.7337993383407593,-0.1645980477333068,-0.4392659962177276,0.2601144313812256
1631023469309,0.7282007336616516,-0.1724998205900192,-0.4390239417552948,0.2543061673641205
1631023469355,0.7223014831542969,-0.1853018254041671,-0.4362230002880096,0.2454161643981933
1631023469371,0.7112847566604614,-0.1948294788599014,-0.430366575717926,0.2392109185457229
1631023469402,0.6986159086227417,-0.1980815529823303,-0.4236428737640381,0.2385799884796142
1631023469605,0.6887231469154358,-0.1986796408891677,-0.4178330898284912,0.2393162697553634
1631023469668,0.6772956252098083,-0.2009606063365936,-0.4097132980823517,0.2340714633464813
1631023469861,0.6731305718421936,-0.2069699019193649,-0.3964468836784363,0.227657675743103
1631023469924,0.6722660064697266,-0.2161067575216293,-0.3801461160182953,0.2198692709207534
1631023470083,0.667717695236206,-0.2249800115823745,-0.365198940038681,0.2162621468305587
1631023470177,0.6629287600517273,-0.2296851575374603,-0.3526913523674011,0.2204316407442093
1631023470224,0.6609809398651123,-0.2305718809366226,-0.3422975242137909,0.2275353372097015
1631023470333,0.6603848338127136,-0.2335867881774902,-0.3363510966300964,0.2418827563524246
1631023470458,0.6485675573348999,-0.2441753149032592,-0.3382998704910278,0.246485099196434
1631023470489,0.6403712630271912,-0.2606818675994873,-0.3454622626304626,0.2441027611494064
1631023470552,0.6356161832809448,-0.2760133445262909,-0.3471885621547699,0.2400534749031067
1631023470755,0.6378057599067688,-0.2882679998874664,-0.332790344953537,0.23509182035923
1631023470864,0.6436589360237122,-0.3016318082809448,-0.3029292821884155,0.2277237474918365
1631023470880,0.6555289626121521,-0.3184004724025726,-0.270727664232254,0.2202245444059372
1631023470989,0.6693146824836731,-0.333347737789154,-0.2651333808898926,0.2137567847967147
1631023471056,0.6828239560127258,-0.335873007774353,-0.2609162032604217,0.2172167748212814
1631023471103,0.6963639855384827,-0.3237523734569549,-0.2580899596214294,0.2351930886507034
1631023471259,0.7043172121047974,-0.3136001527309418,-0.2569290697574615,0.2518188953399658
1631023471353,0.7163615226745605,-0.3041145801544189,-0.2553243041038513,0.2661846280097961
1631023471540,0.7163615226745605,-0.3021517693996429,-0.2518744766712188,0.2661846280097961
1631023471587,0.7163615226745605,-0.3121758103370666,-0.2483340799808502,0.2661846280097961
1631023471649,0.7163615226745605,-0.3342820703983307,-0.2824823558330536,0.2661846280097961
1631023471837,0.7163615226745605,-0.361418217420578,-0.3146322071552276,0.2661846280097961
1631023471915,0.5756835341453552,-0.3808251917362213,-0.3357267379760742,0.4306161999702453
1631023472043,0.5464460253715515,-0.3835566937923431,-0.3447184860706329,0.4103725850582123
1631023472153,0.5184583067893982,-0.3538964092731476,-0.3532097935676574,0.4081186652183532
1631023472231,0.4985240399837494,-0.3294572532176971,-0.3790976107120514,0.4121668040752411
1631023472309,0.5026150345802307,-0.3104255795478821,-0.4309369027614593,0.4232648015022278
1631023472512,0.5171923637390137,-0.2959400415420532,-0.4943203628063202,0.4334841966629028
1631023472731,0.5423949956893921,-0.2786853015422821,-0.4489948153495788,0.442802369594574
1631023472777,0.5599877238273621,-0.2577837407588959,-0.4136694371700287,0.4480218589305877
1631023472809,0.5674436688423157,-0.2359553426504135,-0.3917481303215027,0.448672354221344
1631023472918,0.5717151761054993,-0.2154631167650222,-0.3815107047557831,0.448672354221344
1631023472965,0.5816690325737,-0.2042785286903381,-0.3796067535877228,0.448672354221344
1631023473117,0.5967316627502441,-0.1990114748477935,-0.384751945734024,0.4503232836723327
1631023473242,0.61312335729599,-0.1965371519327163,-0.3942939639091491,0.4503830373287201
1631023473542,0.63149493932724,-0.1961804926395416,-0.3901354372501373,0.4593885242938995
1631023473573,0.6411438584327698,-0.1968744993209839,-0.3834764361381531,0.4666583836078644
1631023473823,0.6533402800559998,-0.196355253458023,-0.3708828687667846,0.4722958505153656
1631023473870,0.6620736718177795,-0.186201274394989,-0.3441012799739837,0.4726959466934204
1631023473916,0.6686211824417114,-0.1586834639310836,-0.2994288802146911,0.4693578779697418
1631023474010,0.6766610145568848,-0.1219524070620536,-0.2462979406118393,0.4692206978797912
1631023474357,0.6760167479515076,-0.1105006709694862,-0.2027499079704284,0.4693188369274139
1631023474420,0.6798189878463745,-0.0978505462408065,-0.1802614480257034,0.4708569943904876
1631023474638,0.6740385293960571,-0.081694409251213,-0.1909865140914917,0.4669375121593475
1631023474654,0.6765151023864746,-0.0874256417155265,-0.1789657324552536,0.4693279862403869
1631023474732,0.6768388748168945,-0.0222155600786209,-0.1508705168962478,0.467939168214798
1631023474748,0.6821390986442566,-0.015646668151021,-0.1428380608558654,0.467939168214798
1631023474748,0.6808246970176697,-0.0051314141601324,-0.1300063282251358,0.467939168214798
1631023474795,0.668871283531189,0.0103678945451974,-0.111238345503807,0.4677667319774627
1631023474904,0.6422848105430603,0.1280391067266464,0.0047769979573786,0.4595809578895569
1631023474951,0.606216311454773,0.1120250523090362,0.0074755451641976,0.4442794024944305
1631023474982,0.5771071910858154,0.2450792044401168,0.1343108266592025,0.4368042349815368
1631023475091,0.5444715023040771,0.2349773347377777,0.1379235535860061,0.4439532160758972
1631023475189,0.5444715023040771,0.2214933186769485,0.1359719634056091,0.4641720056533813
1631023475236,0.5444715023040771,0.1997503340244293,0.1238729134202003,0.4900370240211487
1631023475533,0.5444715023040771,0.206097275018692,0.2496427595615387,0.4900370240211487
1631023475580,0.5444715023040771,0.206097275018692,0.2345762401819229,0.4900370240211487
1631023475611,0.5444715023040771,0.206097275018692,0.2250697612762451,0.4900370240211487
1631023475689,0.5444715023040771,0.1728930026292801,0.2224435210227966,0.4900370240211487
1631023475752,0.5444715023040771,0.1904019862413406,0.2527895867824554,0.4900370240211487
1631023475767,0.5444715023040771,0.1376602798700332,0.2300437986850738,0.4900370240211487
1631023475861,0.5444715023040771,0.1052567362785339,0.2049758583307266,0.4900370240211487
1631023475970,0.5444715023040771,0.0719524025917053,0.182560533285141,0.4900370240211487
1631023476017,0.5444715023040771,0.0389449074864387,0.1617373675107956,0.4900370240211487
1631023476111,0.5444715023040771,-0.0770833492279052,0.1032029539346695,0.4900370240211487
1631023476317,0.5537317991256714,-0.07890634983778,0.1021214798092842,0.6777592897415161
1631023476426,0.5368829369544983,-0.3029201626777649,-0.0063867936842143,0.647799015045166
1631023476489,0.5239855051040649,-0.2987138032913208,-0.0141115812584757,0.6154870986938477
1631023476536,0.5210546255111694,-0.2953107059001922,-0.021668080240488,0.5885156393051147
1631023476629,0.5305386781692505,-0.2867147922515869,-0.0284153558313846,0.5785226225852966
1631023476817,0.5535629391670227,-0.2654523849487304,-0.2859639525413513,0.5881273150444031
1631023476942,0.5799429416656494,-0.2436366081237793,-0.2915022075176239,0.6124857068061829
1631023476973,0.5994491577148438,-0.2301652431488037,-0.2907266616821289,0.6124857068061829
1631023477195,0.6137564778327942,-0.228456050157547,-0.2825842797756195,0.6124857068061829
1631023477226,0.6220220327377319,-0.3043366372585296,-0.3447717130184173,0.6124857068061829
1631023477327,0.6273919939994812,-0.300169438123703,-0.3135798871517181,0.6124857068061829
1631023477608,0.6299005150794983,-0.2883713245391845,-0.2780076265335083,0.6124857068061829
1631023477671,0.6288789510726929,-0.271567165851593,-0.2475325763225555,0.6037876009941101
1631023477702,0.6323405504226685,-0.2521620094776153,-0.2280683368444442,0.5878890156745911
1631023477780,0.6393886208534241,-0.2319607585668563,-0.2176957130432129,0.5835415124893188
1631023477921,0.6461511850357056,-0.2120624780654907,-0.2124705910682678,0.5953313708305359
1631023477983,0.6561530828475952,-0.1935862898826599,-0.2111261337995529,0.6144073605537415
1631023478014,0.6610531806945801,-0.1767091006040573,-0.2131455689668655,0.6265953183174133
1631023478046,0.6632289886474609,-0.1635489463806152,-0.2158930301666259,0.6305485367774963
1631023478221,0.6628074645996094,-0.1584711223840713,-0.2172885090112686,0.6201196312904358
1631023478268,0.6548480987548828,-0.1646019369363784,-0.2192297577857971,0.5906143188476562
1631023478455,0.6454283595085144,-0.1791245341300964,-0.2260175943374633,0.5407175421714783
1631023478518,0.6320748329162598,-0.1942466795444488,-0.2376332730054855,0.525814950466156
1631023478533,0.6137068271636963,-0.2058066576719284,-0.2503359913825989,0.5194945931434631
1631023478783,0.5958226919174194,-0.2157278507947921,-0.2645947933197021,0.5224094986915588
1631023478846,0.5784748792648315,-0.2255299538373947,-0.2844324707984924,0.5316461324691772
1631023479083,0.568995475769043,-0.2324921041727066,-0.3098066449165344,0.5375936031341553
1631023479114,0.5663712620735168,-0.232549250125885,-0.3301191329956054,0.5359129905700684
1631023479130,0.564219057559967,-0.2254402935504913,-0.3333677947521209,0.5234140157699585
1631023479364,0.5578162670135498,-0.2168454229831695,-0.3197931349277496,0.5013094544410706
1631023479395,0.547875165939331,-0.2123650163412094,-0.2993803918361664,0.475274384021759
1631023479426,0.5380231738090515,-0.2143141329288482,-0.2794798910617828,0.4538215696811676
1631023479567,0.5378185510635376,-0.2223082333803177,-0.2624385356903076,0.4483192861080169
1631023479615,0.5387868285179138,-0.2351297736167907,-0.2496141046285629,0.4527984857559204
1631023479678,0.5292659401893616,-0.2525519132614136,-0.2421246021986007,0.4615476727485657
1631023479725,0.5178697109222412,-0.2729267179965973,-0.2407559901475906,0.4678472876548767
1631023479974,0.4956287741661072,-0.2938666641712188,-0.244470328092575,0.4686000645160675
1631023480053,0.4781286418437958,-0.3122288584709167,-0.2520357370376587,0.4671778678894043
1631023480146,0.4755618572235107,-0.3252305090427398,-0.2635246813297272,0.4601383507251739
1631023480193,0.4763181507587433,-0.3314590156078338,-0.2790136039257049,0.4434468746185303
1631023480334,0.4774902462959289,-0.3338209092617035,-0.2984952628612518,0.4182262420654297
1631023480412,0.4703029096126556,-0.3379386067390442,-0.3221538066864013,0.3979992866516113
1631023480459,0.4580494165420532,-0.3493455350399017,-0.3513084948062897,0.3928318321704864
1631023480743,0.4470890462398529,-0.3701316714286804,-0.3856992423534393,0.3987499475479126
1631023480941,0.4456838369369507,-0.396717369556427,-0.4198486804962158,0.4097163379192352
1631023480972,0.4536575376987457,-0.4226295351982116,-0.4459792375564575,0.4167908728122711
1631023480987,0.4559775292873382,-0.442026674747467,-0.4617927968502044,0.4160662591457367
1631023481084,0.4500656127929687,-0.4527423679828644,-0.4697923064231872,0.4095582664012909
1631023481309,0.4357085525989532,-0.4565660059452057,-0.4701882898807525,0.402462363243103
1631023481339,0.4264519810676574,-0.4536099135875702,-0.4613550305366516,0.394411563873291
1631023481373,0.4286026656627655,-0.4425265192985534,-0.4448029696941376,0.3898707330226898
1631023481408,0.4453642666339874,-0.423726737499237,-0.4265736043453216,0.3870443999767303
1631023481526,0.4713553190231323,-0.4020352065563202,-0.413220465183258,0.3822174370288849
1631023481573,0.4913556277751922,-0.3841543197631836,-0.4081432521343231,0.3786778748035431
1631023481805,0.5015404224395752,-0.3729244470596313,-0.4101049602031708,0.3760657608509063
1631023481834,0.5054799914360046,-0.3671674728393554,-0.4139337241649627,0.374076783657074
1631023481928,0.5038437247276306,-0.3648295104503631,-0.414491057395935,0.3678787052631378
1631023482127,0.5065025687217712,-0.3649913668632507,-0.4109399020671844,0.3603473007678985
1631023482148,0.5122250318527222,-0.3686135113239288,-0.4065489172935486,0.3563778400421142
1631023482263,0.5115594267845154,-0.3753501772880554,-0.4048615097999573,0.3550083637237549
1631023482503,0.5036640167236328,-0.3824219405651092,-0.4045018255710602,0.3558931946754455
1631023482542,0.5015845894813538,-0.3871847987174988,-0.4021780490875244,0.3573165237903595
1631023482579,0.5026090145111084,-0.3892775475978851,-0.3998184204101562,0.3592233657836914
1631023482601,0.5111495852470398,-0.3906699419021606,-0.4046591818332672,0.3579955399036407
1631023482755,0.5233604311943054,-0.3931187093257904,-0.4204609096050262,0.3595591783523559
1631023482826,0.5268476009368896,-0.3984279632568359,-0.4414898157119751,0.3634979724884033
1631023482981,0.5257761478424072,-0.4060772657394409,-0.456625759601593,0.3657622337341308
1631023483027,0.5148469805717468,-0.4137981832027435,-0.4567987620830536,0.3738658130168915
1631023483156,0.4983188807964325,-0.4189128279685974,-0.4412234723567962,0.3821007311344147
1631023483223,0.4897028505802154,-0.4205942153930664,-0.416373997926712,0.3931374251842499
1631023483510,0.4887358546257019,-0.4188540577888489,-0.3914023339748382,0.405682772397995
1631023483555,0.4983299970626831,-0.4113864004611969,-0.3706732392311096,0.4201916754245758
1631023483586,0.504730224609375,-0.3959790170192718,-0.3613644242286682,0.4289366900920868
1631023483631,0.5020192265510559,-0.3732346296310425,-0.3541597127914428,0.4311549365520477
1631023483740,0.4996892511844635,-0.3478245437145233,-0.3481994867324829,0.4239574670791626
1631023483800,0.5030267834663391,-0.3261923193931579,-0.345764696598053,0.4123410880565643
1631023484054,0.5005443096160889,-0.3128781318664551,-0.3495109677314758,0.4094423055648803
1631023484106,0.5005443096160889,-0.3084597587585449,-0.356721431016922,0.4094423055648803
1631023484169,0.5005443096160889,-0.309211403131485,-0.3587237298488617,0.4094423055648803
1631023484242,0.5005443096160889,-0.3101491332054138,-0.3484850823879242,0.4094423055648803
1631023484346,0.5005443096160889,-0.3089384734630584,-0.3259372115135193,0.4094423055648803
1631023484483,0.5005443096160889,-0.3077596426010132,-0.3091477751731872,0.4094423055648803
1631023484658,0.5005443096160889,-0.3082428276538849,-0.2938240468502044,0.4094423055648803
1631023484680,0.4796674251556396,-0.3090332448482513,-0.2701215744018554,0.4094423055648803
1631023484723,0.4975610077381134,-0.3094132542610168,-0.2371486872434616,0.3036973178386688
1631023484860,0.5139747858047485,-0.3104650676250458,-0.2052382528781891,0.312379777431488
1631023484954,0.533769965171814,-0.3142863810062408,-0.1856510639190673,0.3309865593910217
1631023485124,0.5503736734390259,-0.3216661512851715,-0.1900053769350052,0.3599480390548706
1631023485154,0.5590237975120544,-0.3326326608657837,-0.1994032561779022,0.38645139336586
1631023485312,0.5716850161552429,-0.3476283252239227,-0.2089798599481582,0.4112757444381714
1631023485400,0.5704557299613953,-0.3659538328647613,-0.2169623970985412,0.4255913197994232
1631023485465,0.5643467307090759,-0.3838250637054443,-0.2209154218435287,0.4395223259925842
1631023485665,0.5540072917938232,-0.3947984874248504,-0.2201078385114669,0.4516261518001556
1631023485702,0.5387234091758728,-0.3927527666091919,-0.2176076173782348,0.4621939957141876
1631023485752,0.5281501412391663,-0.3757834434509277,-0.2181791067123413,0.4744396805763244
1631023485819,0.524894654750824,-0.3490112125873565,-0.2189085483551025,0.4843879342079162
1631023485980,0.5249450206756592,-0.3208961486816406,-0.2238007485866546,0.5015106201171875
1631023486027,0.5319786667823792,-0.2995665371417999,-0.2330660372972488,0.5139094591140747
1631023486152,0.5403739213943481,-0.2886985540390014,-0.2484930753707885,0.5225692391395569
1631023486308,0.5443205237388611,-0.2873538434505462,-0.2696561813354492,0.5266985893249512
1631023486402,0.5436180830001831,-0.2916631698608398,-0.2919634878635406,0.5290523171424866
1631023486449,0.539543092250824,-0.2980994582176208,-0.3100390434265136,0.5297809839248657
1631023486543,0.5361300110816956,-0.301801323890686,-0.3210019767284393,0.5275224447250366
1631023486695,0.5378721356391907,-0.294026106595993,-0.3242130577564239,0.5252366662025452
1631023486820,0.534784197807312,-0.2696935534477234,-0.3212344348430633,0.5223858952522278
1631023486866,0.5322000980377197,-0.2356295436620712,-0.3179921209812164,0.5197834372520447
1631023487062,0.5297066569328308,-0.2053316086530685,-0.322113424539566,0.511454701423645
1631023487103,0.5274100303649902,-0.1877420991659164,-0.334990531206131,0.4972711205482483
1631023487180,0.5312371850013733,-0.1841779053211212,-0.3502601385116577,0.479799211025238
1631023487313,0.5355513691902161,-0.1915012896060943,-0.359087198972702,0.4582339227199554
1631023487454,0.539662778377533,-0.2036834061145782,-0.357378751039505,0.441634327173233
1631023487548,0.5473402142524719,-0.2131199985742569,-0.3466336131095886,0.4323548078536987
1631023487595,0.5445464253425598,-0.214685246348381,-0.3310513794422149,0.4248066246509552
1631023487673,0.5372963547706604,-0.2093900144100189,-0.3147099614143371,0.4218213856220245
1631023487814,0.5300776362419128,-0.2011377066373825,-0.3009447157382965,0.4224910140037536
1631023488004,0.5254237651824951,-0.1920508444309234,-0.2900449335575104,0.4248097538948059
1631023488068,0.5190428495407104,-0.1777840554714203,-0.280843049287796,0.4245195686817169
1631023488130,0.5076056718826294,-0.1639886051416397,-0.2740323841571808,0.4198479056358337
1631023488177,0.487172931432724,-0.1578805744647979,-0.2724953889846802,0.4083608388900757
1631023488333,0.4609913229942322,-0.1655566692352295,-0.277243047952652,0.3876659572124481
1631023488505,0.4503875374794006,-0.1855679005384445,-0.2839778363704681,0.3663409948348999
1631023488552,0.450926274061203,-0.2070907056331634,-0.287334144115448,0.352979302406311
1631023488677,0.4714457988739013,-0.2175764590501785,-0.2870517671108246,0.3594207167625427
1631023488692,0.487364649772644,-0.2220114767551422,-0.2866258025169372,0.3594207167625427
1631023488817,0.4966835975646972,-0.2055175155401229,-0.2885751128196716,0.3594207167625427
1631023488914,0.5092381834983826,-0.1818805336952209,-0.2920324802398681,0.3594207167625427
1631023489056,0.535646915435791,-0.1632149368524551,-0.2953747808933258,0.3594207167625427
1631023489134,0.5845121741294861,-0.1544042229652404,-0.2983747124671936,0.4799767136573791
1631023489244,0.6192101836204529,-0.1541691869497299,-0.3027078211307525,0.4897090792655945
1631023489306,0.6347281336784363,-0.1566557884216308,-0.3091931939125061,0.4900681674480438
1631023489494,0.631045937538147,-0.154473528265953,-0.3165977001190185,0.4797529876232147
1631023489743,0.6185277700424194,-0.1519656330347061,-0.3216041624546051,0.4619717597961426
1631023489790,0.6113196611404419,-0.1389975547790527,-0.3223344683647156,0.4459779858589172
1631023489822,0.61460942029953,-0.1239306256175041,-0.3206601142883301,0.4262488484382629
1631023489853,0.6238137483596802,-0.1150450035929679,-0.3185105621814728,0.4087862968444824
1631023489931,0.6342146992683411,-0.1147385090589523,-0.3158925175666809,0.396462619304657
1631023490040,0.647702157497406,-0.1208957061171531,-0.3127149641513824,0.3911871016025543
1631023490212,0.656251847743988,-0.1296042203903198,-0.3108642995357513,0.3920871913433075
1631023490259,0.6721467971801758,-0.1297784447669983,-0.3125198483467102,0.3951793611049652
1631023490384,0.6825708150863647,-0.1276518106460571,-0.3159869313240051,0.3944010734558105
1631023490493,0.6852233409881592,-0.1310133337974548,-0.3138793408870697,0.4054911136627197
1631023490681,0.6831994652748108,-0.1366092562675476,-0.2923034429550171,0.4234779179096222
1631023490712,0.6783074736595154,-0.1405495554208755,-0.2475056648254394,0.4426498413085937
1631023490821,0.6724433898925781,-0.1393093913793563,-0.1930195689201355,0.4621517658233642
1631023490843,0.6662168502807617,-0.1317329555749893,-0.1882999092340469,0.4737787246704101
1631023490933,0.6635971665382385,-0.1223645880818367,-0.1807390600442886,0.4838062226772308
1631023491120,0.6614370942115784,-0.1209486797451973,-0.1739008277654647,0.493840605020523
1631023491295,0.6539191603660583,-0.1366676688194275,-0.1807728111743927,0.5061307549476624
1631023491358,0.6416772603988647,-0.1710794568061828,-0.1891627311706543,0.5244156122207642
1631023491373,0.624150276184082,-0.2157729417085647,-0.195882961153984,0.531661868095398
1631023491483,0.6098053455352783,-0.1891991049051284,-0.1864721029996872,0.5429887771606445
1631023491530,0.6027296185493469,-0.0930209830403328,-0.1730877608060836,0.559602677822113
1631023491780,0.6065787672996521,0.0301241241395473,-0.1453921943902969,0.5829033851623535
1631023491826,0.6166960597038269,0.1343220621347427,-0.1119553968310356,0.6035215854644775
1631023492076,0.6237790584564209,0.1389763802289962,-0.0916753858327865,0.6171283721923828
1631023492092,0.6260547041893005,0.1220108494162559,-0.0739505812525749,0.615923285484314
1631023492221,0.6261283159255981,0.0972910076379776,-0.0820188969373703,0.6033156514167786
1631023492346,0.6223558187484741,0.0748400390148162,-0.1225379258394241,0.5847174525260925
1631023492378,0.6120166778564453,0.0564970262348651,-0.1938799023628235,0.56451815366745
1631023492456,0.6056933999061584,0.0404581539332866,-0.2037811130285263,0.5532436966896057
1631023492487,0.596878707408905,0.0247311368584632,-0.2161238491535186,0.5451022386550903
1631023492549,0.5931885242462158,0.0079370141029357,-0.2327647656202316,0.5411797165870667
1631023492628,0.5925269722938538,-0.0098050655797123,-0.2359097898006439,0.5419254302978516
1631023492784,0.5971232652664185,-0.0266920253634452,-0.2348821014165878,0.5474222302436829
1631023493004,0.6061627268791199,-0.0406954437494277,-0.2299001812934875,0.5652757883071899
1631023493109,0.6054116487503052,-0.0535856150090694,-0.2363813817501068,0.5726651549339294
1631023493171,0.5840777158737183,-0.0795839205384254,-0.2528221011161804,0.572368323802948
1631023493234,0.5418329834938049,-0.1237803101539611,-0.2928959727287292,0.562425971031189
1631023493249,0.4893261194229126,-0.1803977489471435,-0.3506776988506317,0.551793098449707
1631023493330,0.4437273442745209,-0.2349374443292617,-0.3664466738700866,0.5441504120826721
1631023493599,0.437386691570282,-0.2763047218322754,-0.378834456205368,0.5377617478370667
1631023493662,0.4372116327285766,-0.3072657883167267,-0.4050756692886352,0.5324182510375977
1631023493708,0.434449553489685,-0.3366373479366302,-0.4186490178108215,0.5238198637962341
1631023493755,0.4256552755832672,-0.3650714755058288,-0.4151882231235504,0.5175573229789734
1631023493990,0.4165370166301727,-0.386231392621994,-0.3960416316986084,0.5160673260688782
1631023494052,0.4181381464004516,-0.3940724730491638,-0.3688566386699676,0.5224778652191162
1631023494240,0.4323140978813171,-0.3863692283630371,-0.3421346247196197,0.5308369994163513
1631023494271,0.4484451711177826,-0.3657605648040771,-0.3223116099834442,0.5310861468315125
1631023494302,0.4557169079780578,-0.3387002944946289,-0.3128024637699127,0.5212477445602417
1631023494460,0.4539516270160675,-0.3134528994560241,-0.3124150335788727,0.5063406229019165
1631023494522,0.4471403360366821,-0.2932870388031006,-0.3150251805782318,0.4980943202972412
1631023494709,0.4442279636859894,-0.2747550308704376,-0.3133359551429748,0.4911813735961914
1631023494803,0.4528858065605163,-0.2543923556804657,-0.3048718571662903,0.4838811755180359
1631023494834,0.4619955420494079,-0.2330904453992843,-0.2925822138786316,0.4721111059188843
1631023494865,0.4728857576847076,-0.214402288198471,-0.2785533964633941,0.4596213400363922
1631023495022,0.4754699170589447,-0.2005101293325424,-0.2635194659233093,0.4560011029243469
1631023495225,0.4697390794754028,-0.1908345520496368,-0.2506427764892578,0.4546811878681183
1631023495268,0.471119612455368,-0.1822245419025421,-0.2458924353122711,0.4626702666282654
1631023495446,0.4730453789234161,-0.1709899753332138,-0.2547783553600311,0.4737459719181061
1631023495540,0.4839583039283752,-0.1549814641475677,-0.2780620157718658,0.4827455282211303
1631023495696,0.4976723194122314,-0.1367173641920089,-0.3115712106227875,0.4843080341815948
1631023495743,0.4979617595672607,-0.1233590021729469,-0.3481563329696655,0.471524178981781
1631023495805,0.4962605535984039,-0.1215220913290977,-0.3800790011882782,0.4584526717662811
1631023495805,0.4885802567005157,-0.1334592550992965,-0.4033844470977783,0.4527350664138794
1631023495899,0.4795096516609192,-0.1551301330327987,-0.4184458553791046,0.4572297632694244
1631023496089,0.4779692888259887,-0.1799526661634445,-0.4272707998752594,0.4716796278953552
1631023496120,0.4825824499130249,-0.2036763876676559,-0.4287645220756531,0.4886487126350403
1631023496292,0.4914609789848327,-0.2244802266359329,-0.420579195022583,0.5047560334205627
1631023496495,0.5074536800384521,-0.2428949475288391,-0.4050332009792328,0.5187576413154602
1631023496589,0.5239856243133545,-0.2597193419933319,-0.3920714557170868,0.5265589952468872
1631023496745,0.5433939099311829,-0.274753212928772,-0.3908179998397827,0.52947598695755
1631023496792,0.5620576739311218,-0.2875074744224548,-0.4014995396137237,0.5317052602767944
1631023496839,0.573322594165802,-0.3000432252883911,-0.4158218801021576,0.530815839767456
1631023497011,0.5776102542877197,-0.3178236186504364,-0.4239402413368225,0.524729311466217
1631023497107,0.5725445747375488,-0.3468856811523437,-0.4224607646465301,0.5145483613014221
1631023497325,0.5625619888305664,-0.3879110515117645,-0.4139445424079895,0.5039100646972656
1631023497388,0.5537294745445251,-0.4314261078834533,-0.4004802405834198,0.4981630146503448
1631023497653,0.5499674081802368,-0.4631270170211792,-0.38149294257164,0.4991854131221771
1631023497685,0.5544551610946655,-0.4759151935577392,-0.3555769622325897,0.5046069622039795
1631023497716,0.5658596754074097,-0.475852221250534,-0.3267798721790313,0.506615936756134
1631023497905,0.5747988224029541,-0.4744417071342468,-0.3047559261322021,0.5017735958099365
1631023498077,0.578730046749115,-0.4778909683227539,-0.2989548742771148,0.4906439483165741
1631023498187,0.5727238655090332,-0.4850004315376282,-0.310892790555954,0.4762296974658966
1631023498312,0.5571262836456299,-0.4884766042232513,-0.3325929343700409,0.4848690927028656
1631023498359,0.5391375422477722,-0.4784480929374695,-0.3503933250904083,0.567629337310791
1631023498499,0.5195339918136597,-0.4509502947330475,-0.3545513749122619,0.7265433669090271
1631023498515,0.5088184475898743,-0.1405068337917328,-0.142153188586235,0.7420634627342224
1631023498546,0.5001612305641174,-0.1208177283406257,-0.1298218220472335,0.7576321959495544
1631023498733,0.4956807196140289,-0.1075881943106651,-0.1157464161515235,0.7752895951271057
1631023498780,0.4954069256782532,-0.1037576124072074,-0.1030708849430084,0.7960050702095032
1631023498921,0.4976397752761841,-0.107216365635395,-0.0940802991390228,0.8210621476173401
1631023498968,0.5048639178276062,-0.0692312642931938,-0.0905356556177139,0.8527398109436035
1631023499046,0.5064052939414978,-0.0711992308497428,-0.0938459411263465,0.8874380588531494
1631023499173,0.5009808540344238,-0.0678508728742599,-0.1044346317648887,0.923515558242798
1631023499392,0.4845424592494964,-0.0598406419157981,-0.1193590611219406,0.964616060256958
1631023499485,0.4651039540767669,-0.0402412563562393,-0.130725011229515,1.0133696794509888
1631023499517,0.4382944107055664,-0.0167746972292661,-0.1303512156009674,1.079609751701355
1631023499642,0.4382944107055664,0.0094232475385069,-0.117980770766735,1.079609751701355
1631023499673,0.4382944107055664,0.1324124038219452,-0.1019019782543182,1.079609751701355
1631023499735,0.4382944107055664,0.1296782046556472,-0.0908506512641906,1.079609751701355
1631023499892,0.4382944107055664,0.1219929382205009,-0.0883673802018165,1.079609751701355
1631023499923,0.4382944107055664,-0.0370269417762756,-0.2634555697441101,1.079609751701355
1631023499970,0.4382944107055664,-0.0286843627691268,-0.270614892244339,1.079609751701355
1631023500110,0.4382944107055664,-0.012494396418333,-0.2813086807727813,1.079609751701355
1631023500238,0.4382944107055664,0.0165074914693832,-0.2921598851680755,1.079609751701355
1631023500316,0.4382944107055664,0.0581600293517112,-0.2978764176368713,1.079609751701355
1631023500488,0.4382944107055664,0.0341138690710067,-0.2936879694461822,1.079609751701355
1631023500519,0.4382944107055664,0.0278407465666532,-0.2778715193271637,1.079609751701355
1631023500551,0.4382944107055664,0.0185908451676368,-0.2571099400520324,1.079609751701355
1631023500832,0.4382944107055664,0.0099134258925914,-0.2333874106407165,1.079609751701355
1631023500941,0.4382944107055664,-0.018400615081191,-0.2168092131614685,1.079609751701355
1631023501050,0.4382944107055664,-0.040063165128231,-0.2185094058513641,1.079609751701355
1631023501082,0.4382944107055664,-0.0618856213986873,-0.2394434064626693,1.079609751701355
1631023501144,0.4382944107055664,-0.3625599145889282,-0.2663906514644623,1.079609751701355
1631023501241,0.5238507986068726,-0.3548514544963836,-0.2827276587486267,1.079609751701355
1631023501303,0.5471252202987671,-0.3386230766773224,-0.2828687131404876,1.079609751701355
1631023501506,0.5701159238815308,-0.3309857547283172,-0.283730000257492,1.079609751701355
1631023501538,0.5844623446464539,-0.3249678611755371,-0.2895384132862091,1.079609751701355
1631023501616,0.5864570140838623,-0.3234330713748932,-0.2937811315059662,1.079609751701355
1631023501663,0.5804963111877441,-0.3247675001621246,-0.2898949384689331,1.079609751701355
1631023501788,0.571854829788208,-0.3261736631393432,-0.278519719839096,1.079609751701355
1631023501897,0.5655943751335144,-0.327388733625412,-0.2656747698783874,1.079609751701355
1631023502069,0.5644645690917969,-0.3194213211536407,-0.2570491135120392,1.079609751701355
1631023502116,0.561341404914856,-0.3200799822807312,-0.2533128559589386,1.079609751701355
1631023502178,0.5576719641685486,-0.330465704202652,-0.2597860991954803,1.079609751701355
1631023502259,0.551603376865387,-0.3481702506542206,-0.2740213274955749,1.079609751701355
1631023502368,0.5458856821060181,-0.3676861822605133,-0.2901760041713714,1.079609751701355
1631023502399,0.5430254936218262,-0.3827736973762512,-0.3051489591598511,1.079609751701355
1631023502493,0.5457047820091248,-0.3923789858818054,-0.3211733400821686,1.079609751701355
1631023502696,0.5473460555076599,-0.402277261018753,-0.3407563269138336,1.079609751701355
1631023502758,0.5411736369132996,-0.4168448746204376,-0.3609925210475921,0.3191174566745758
1631023502790,0.5255003571510315,-0.4342188835144043,-0.3764041662216186,0.3800027668476105
1631023502962,0.5047439336776733,-0.4482345879077911,-0.3869060277938843,0.414391428232193
1631023502977,0.487859696149826,-0.4530565738677978,-0.3997073471546173,0.428435742855072
1631023503055,0.4757298827171325,-0.4433745145797729,-0.4221464991569519,0.4270698130130768
1631023503196,0.4702203869819641,-0.4144048690795898,-0.4535001814365387,0.4131744503974914
1631023503211,0.463389903306961,-0.3688209354877472,-0.4858567416667938,0.3965798616409302
1631023503368,0.4511633515357971,-0.318941593170166,-0.5089375972747803,0.378006637096405
1631023503540,0.4378373026847839,-0.2767906188964844,-0.5151397585868835,0.3573627173900604
1631023503571,0.4241939485073089,-0.2479282319545745,-0.5046111941337585,0.337758332490921
1631023503665,0.4197857975959778,-0.2299820184707641,-0.4829053282737732,0.3198430836200714
1631023503712,0.4253186881542206,-0.2169465571641922,-0.4576144814491272,0.3037568628787994
1631023503852,0.4295753538608551,-0.2037480324506759,-0.4326112866401672,0.3002115488052368
1631023504102,0.4285752475261688,-0.1883312463760376,-0.4099487364292145,0.3000171482563019
1631023504149,0.4191639125347137,-0.1715272665023803,-0.3926169276237488,0.3015779852867126
1631023504180,0.4080274403095245,-0.1571331024169922,-0.3830367028713226,0.2971490323543548
1631023504367,0.4039836227893829,-0.1479693055152893,-0.378205269575119,0.2848745584487915
1631023504446,0.4095019102096557,-0.1438663750886917,-0.3718965947628021,0.2705205678939819
1631023504681,0.4219996035099029,-0.1430040746927261,-0.3615689575672149,0.2588580548763275
1631023504743,0.4335547983646393,-0.1468634307384491,-0.3487065434455871,0.2558996677398681
1631023504868,0.436763733625412,-0.1607422530651092,-0.3355758488178253,0.2704130411148071
1631023504930,0.4342033863067627,-0.1875993609428405,-0.3235337138175964,0.2999350428581238
1631023504977,0.4295425713062286,-0.2218146026134491,-0.314812421798706,0.3424966335296631
1631023505167,0.4312320053577423,-0.2521566450595855,-0.3104575574398041,0.3858778774738312
1631023505432,0.4364166259765625,-0.2708389461040497,-0.3072656095027923,0.4209223389625549
1631023505448,0.4352973997592926,-0.2807998657226562,-0.3032543659210205,0.4429871439933777
1631023505651,0.4291885495185852,-0.2896732687950134,-0.3004691898822784,0.4572939574718475
1631023505745,0.4195682108402252,-0.2995551228523254,-0.3038049340248108,0.4710101783275604
1631023505792,0.4179968237876892,-0.3069401383399963,-0.3134707510471344,0.4866839349269867
1631023505901,0.4354391098022461,-0.3079918920993805,-0.3245222568511963,0.5055595636367798
1631023505995,0.4580303728580475,-0.1616193950176239,-0.3337245881557464,0.521086573600769
1631023506010,0.479831725358963,-0.1590095609426498,-0.3431515395641327,0.5256801247596741
1631023506057,0.4891680479049682,-0.1602244526147842,-0.3549552261829376,0.532690703868866
1631023506120,0.4865939617156982,-0.1661030203104019,-0.3678268492221832,0.5427277684211731
1631023506229,0.4845209121704101,-0.1739512532949447,-0.3814244568347931,0.554554283618927
1631023506245,0.4881508350372314,-0.1804625391960144,-0.3986840546131134,0.5635554194450378
1631023506448,0.4980765581130981,-0.1814406961202621,-0.4215400516986847,0.5645495057106018
1631023506510,0.5099542737007141,-0.1724298894405365,-0.4457964897155761,0.5532073974609375
1631023506541,0.5185273289680481,-0.1531465947628021,-0.4677450656890869,0.5363895893096924
1631023506573,0.5266815423965454,-0.1301020830869674,-0.4924676716327667,0.5236390829086304
1631023506776,0.5355533361434937,-0.0669089183211326,-0.5263795256614685,0.5322261452674866
1631023506807,0.5407590270042419,-0.0592222549021244,-0.5653625130653381,0.5648643374443054
1631023506979,0.5451077818870544,-0.0601559020578861,-0.595329225063324,0.5648643374443054
1631023507010,0.5413625836372375,-0.0683305859565734,-0.6094181537628174,0.5648643374443054
1631023507073,0.526563286781311,-0.0824126228690147,-0.6136215329170227,0.5648643374443054
1631023507153,0.5066891312599182,-0.2177130132913589,-0.615638256072998,0.5648643374443054
1631023507387,0.4858337938785553,-0.2287815362215042,-0.6160986423492432,0.4816858470439911
1631023507544,0.4762524962425232,-0.2198239862918853,-0.6080648899078369,0.4755605161190033
1631023507622,0.4820657074451446,-0.1912038177251815,-0.5865949392318726,0.485027939081192
1631023507669,0.4995142817497253,-0.1556906253099441,-0.5554301142692566,0.4965114891529083
1631023507684,0.5179688334465027,-0.127270832657814,-0.523858368396759,0.5015390515327454
1631023507965,0.5328104496002197,-0.1142620742321014,-0.4964083731174469,0.49616739153862
1631023508059,0.5423873662948608,-0.1195465698838234,-0.4719372987747192,0.4848898947238922
1631023508153,0.5451903939247131,-0.1407111138105392,-0.4486402869224548,0.472110778093338
1631023508218,0.5465489625930786,-0.1691832244396209,-0.4285894334316253,0.4610200226306915
1631023508265,0.5478542447090149,-0.2523789703845978,-0.4147256016731262,0.4512961208820343
1631023508437,0.5555447340011597,-0.2570933699607849,-0.4069802463054657,0.4416860044002533
1631023508515,0.560264527797699,-0.2433965355157852,-0.4035012125968933,0.4340762495994568
1631023508562,0.5652124881744385,-0.2235054224729538,-0.4013864398002624,0.4171569347381592
1631023508702,0.5679672956466675,-0.2058278024196624,-0.3975028693675995,0.4128666222095489
1631023508749,0.5738315582275391,-0.1927454173564911,-0.3891218602657318,0.4207095503807068
1631023508780,0.5875135064125061,-0.1853526383638382,-0.3780030310153961,0.4227032661437988
1631023508986,0.6003167629241943,-0.1877123415470123,-0.3722336590290069,0.4205177724361419
1631023509048,0.6048212051391602,-0.2039784491062164,-0.3760834336280823,0.410070538520813
1631023509267,0.5938264727592468,-0.2316039502620697,-0.3851199448108673,0.3935212790966034
1631023509282,0.5726278424263,-0.2604959905147552,-0.3914216160774231,0.3764388561248779
1631023509423,0.5475261211395264,-0.280087262392044,-0.3944135010242462,0.3673564195632934
1631023509486,0.5263433456420898,-0.2884773910045624,-0.4015941321849823,0.3673326075077057
1631023509606,0.5263433456420898,-0.2926378846168518,-0.4178536832332611,0.373936116695404
1631023509678,0.5263433456420898,-0.2996778190135956,-0.4377048015594482,0.3829383552074432
1631023509751,0.5263433456420898,-0.3138195276260376,-0.4504209756851196,0.3955702483654022
1631023509827,0.5067946910858154,-0.337616890668869,-0.4504248201847076,0.4179397821426391
1631023509911,0.5067946910858154,-0.3693490028381347,-0.4404353201389313,0.4179397821426391
1631023510133,0.5067946910858154,-0.4021061360836029,-0.4249457418918609,0.4179397821426391
1631023510176,0.5067946910858154,-0.4276957213878631,-0.4065349102020263,0.4179397821426391
1631023510242,0.5067946910858154,-0.444118469953537,-0.3880062997341156,0.4179397821426391
1631023510411,0.5067946910858154,-0.4562847912311554,-0.3703983128070831,0.4179397821426391
1631023510505,0.5899034738540649,-0.4708468019962311,-0.3514260947704315,0.7107383012771606
1631023510627,0.5931711196899414,-0.4877784252166748,-0.3302794396877289,0.6787625551223755
1631023510694,0.5843687653541565,-0.5008397102355957,-0.3108348548412323,0.6459174156188965
1631023510772,0.5725951790809631,-0.5035520792007446,-0.2986517548561096,0.6161180734634399
1631023511006,0.5585331320762634,-0.4955367743968963,-0.2955847978591919,0.595014750957489
1631023511025,0.5478885173797607,-0.4813686311244964,-0.2973240911960602,0.5847477316856384
1631023511103,0.5357925891876221,-0.4635626375675201,-0.2957624197006225,0.5818161964416504
1631023511181,0.5200744867324829,-0.4387092292308807,-0.2863568365573883,0.5894169211387634
1631023511258,0.5083455443382263,-0.402994304895401,-0.2715097367763519,0.6032890677452087
1631023511439,0.499897301197052,-0.3602592349052429,-0.2588422894477844,0.6167855262756348
1631023511486,0.5022072792053223,-0.3191173374652862,-0.2545523643493652,0.6240219473838806
1631023511517,0.5153526067733765,-0.2863370776176452,-0.2602978646755218,0.6215177774429321
1631023511689,0.5364732146263123,-0.2637968957424164,-0.2736209630966186,0.6046949028968811
1631023511829,0.554534375667572,-0.2501475214958191,-0.2907724678516388,0.582423210144043
1631023511986,0.565180778503418,-0.2426824271678924,-0.3095755279064178,0.5608910918235779
1631023512044,0.5742042064666748,-0.2381928712129593,-0.3308510184288025,0.5487255454063416
1631023512098,0.590107798576355,-0.2322674691677093,-0.3568057119846344,0.5466824769973755
1631023512145,0.606582522392273,-0.2231175005435943,-0.3863536417484283,0.5523281097412109
1631023512255,0.6209772229194641,-0.2119226902723312,-0.4106340408325195,0.5623357892036438
1631023512380,0.6308344006538391,-0.2023161202669143,-0.4182596504688263,0.5714719295501709
1631023512567,0.6348986625671387,-0.1974417120218277,-0.4075363576412201,0.576991617679596
1631023512692,0.6361514329910278,-0.1988064050674438,-0.3897997438907623,0.5788142681121826
1631023512723,0.6343821883201599,-0.2080143690109253,-0.3790343105792999,0.570745050907135
1631023512754,0.6312501430511475,-0.2259962409734726,-0.3791327476501465,0.5507243275642395
1631023512911,0.62896728515625,-0.2510718703269958,-0.3815876543521881,0.5211848020553589
1631023513132,0.6199890971183777,-0.2788685858249664,-0.3753027021884918,0.4908691644668579
1631023513179,0.6030765771865845,-0.3050315678119659,-0.3585756719112396,0.4756146967411041
1631023513210,0.5752152800559998,-0.3281769454479217,-0.3394853770732879,0.4764935672283172
1631023513351,0.5387930870056152,-0.347612589597702,-0.3235686421394348,0.4885877668857574
1631023513413,0.5035669803619385,-0.3629336655139923,-0.3091848194599151,0.5073474645614624
1631023513445,0.4667201042175293,-0.3741927146911621,-0.2933805584907532,0.5073474645614624
1631023513632,0.4307884871959686,-0.3853479623794555,-0.2770080864429474,0.5073474645614624
1631023513742,0.4041011929512024,-0.399938702583313,-0.2617861628532409,0.5073474645614624
1631023513851,0.387942761182785,-0.4169266521930694,-0.2494943588972091,0.5073474645614624
1631023513997,0.3865143358707428,-0.4321987628936767,-0.2423586398363113,0.5397274494171143
1631023514044,0.3930299282073974,-0.4424560964107513,-0.2420088946819305,0.5785585641860962
1631023514059,0.4078955948352813,-0.4471050202846527,-0.246723398566246,0.5983326435089111
1631023514266,0.4326355755329132,-0.4456021189689636,-0.2507166862487793,0.6015276908874512
1631023514360,0.4547542929649353,-0.4351948499679565,-0.2495791018009185,0.5918797254562378
1631023514407,0.4728312790393829,-0.4142149686813354,-0.2461755275726318,0.5796656012535095
1631023514453,0.4819154143333435,-0.3882798552513122,-0.2463593333959579,0.5796656012535095
1631023514563,0.4904006123542785,-0.3642377853393554,-0.2509618103504181,0.5796656012535095
1631023514703,0.5068891048431396,-0.3466029763221741,-0.254390686750412,0.5796656012535095
1631023514813,0.5286914110183716,-0.3361554741859436,-0.2521702349185943,0.5796656012535095
1631023514891,0.5514045357704163,-0.331599086523056,-0.2480826526880264,0.5796656012535095
1631023515016,0.5737311840057373,-0.3322376608848572,-0.2498699873685836,0.5796656012535095
1631023515203,0.5893917679786682,-0.3365983664989471,-0.2604808211326599,0.5907168388366699
1631023515329,0.5987382531166077,-0.3435777425765991,-0.2767805159091949,0.6042739748954773
1631023515501,0.6022639870643616,-0.3541874587535858,-0.2940052449703216,0.6152676939964294
1631023515595,0.6000562310218811,-0.3669974505901336,-0.3088203072547912,0.6091659665107727
1631023515673,0.5999652147293091,-0.3770434558391571,-0.318547785282135,0.5810454487800598
1631023515688,0.5999652147293091,-0.3783155679702759,-0.3235593438148498,0.5810454487800598
1631023515719,0.5999652147293091,-0.3714518547058105,-0.3274235725402832,0.5810454487800598
1631023515923,0.5999652147293091,-0.3642729222774505,-0.3346521556377411,0.5810454487800598
1631023515954,0.5999652147293091,-0.3639372587203979,-0.3442912995815277,0.5810454487800598
1631023516048,0.5336828231811523,-0.3686294555664062,-0.3484184741973877,0.5810454487800598
1631023516172,0.5430187582969666,-0.3642222881317138,-0.3412283062934875,0.7190898656845093
1631023516204,0.5466190576553345,-0.3732839226722717,-0.326539397239685,0.6956468224525452
1631023516409,0.5571334958076477,-0.3756824433803558,-0.3133813142776489,0.6725441813468933
1631023516519,0.5607115626335144,-0.3715612590312958,-0.3052209317684173,0.6586384773254395
1631023516550,0.5625255703926086,-0.3606637418270111,-0.2979656457901001,0.6517269611358643
1631023516831,0.5652387142181396,-0.3443434834480285,-0.287104994058609,0.6530439853668213
1631023516847,0.5597307085990906,-0.3101002275943756,-0.2739185988903045,0.6541934013366699
1631023516925,0.554972231388092,-0.2883961796760559,-0.2610805928707123,0.6569705009460449
1631023517050,0.5487074255943298,-0.2772146463394165,-0.2478703707456588,0.6569705009460449
1631023517081,0.5409142374992371,-0.2732379734516144,-0.232392743229866,0.6569705009460449
1631023517128,0.5349976420402527,-0.2699917554855346,-0.2151086628437042,0.6530879735946655
1631023517284,0.530785858631134,-0.2609947919845581,-0.1992783099412918,0.651515781879425
1631023517362,0.5278319716453552,-0.2434109300374984,-0.1884359419345855,0.6440627574920654
1631023517503,0.5243969559669495,-0.2211444079875946,-0.1852303445339203,0.6360964775085449
1631023517597,0.5211509466171265,-0.2023196965456009,-0.1919653117656707,0.6240383386611938
1631023517659,0.515211820602417,-0.1999739855527877,-0.2093708217144012,0.6185287833213806
1631023517847,0.5087518095970154,-0.2004659324884414,-0.2360192090272903,0.6213091611862183
1631023517925,0.4942311942577362,-0.2058063596487045,-0.2679071426391601,0.6291496157646179
1631023517925,0.4818942844867706,-0.2132834643125534,-0.3000549077987671,0.6198045015335083
1631023518045,0.4721969664096832,-0.2220849692821502,-0.3271355926990509,0.6065961718559265
1631023518189,0.4663253426551819,-0.2300538718700409,-0.3453468084335327,0.5899909138679504
1631023518236,0.4702753722667694,-0.2356267869472503,-0.3537517786026001,0.5763561725616455
1631023518408,0.4703615307807922,-0.2285284698009491,-0.35736283659935,0.5630799531936646
1631023518455,0.4712691903114319,-0.211123988032341,-0.3633078634738922,0.5654000043869019
1631023518627,0.4769295454025268,-0.1903032213449478,-0.3762312531471252,0.5669496059417725
1631023518783,0.4877697825431824,-0.1730256378650665,-0.3958162069320678,0.5652878284454346
1631023518814,0.501454770565033,-0.1632937341928482,-0.4181225299835205,0.5619741082191467
1631023518876,0.5168300867080688,-0.1627863049507141,-0.4366254210472107,0.5607650279998779
1631023518970,0.5268320441246033,-0.1713678836822509,-0.44256392121315,0.5631329417228699
1631023519064,0.5278311371803284,-0.1858440190553665,-0.4320315718650818,0.5703152418136597
1631023519267,0.523790180683136,-0.2012770473957061,-0.410688042640686,0.5796071887016296
1631023519298,0.5182815790176392,-0.2133989632129669,-0.3870973289012909,0.588146984577179
1631023519407,0.5196266174316406,-0.22077476978302,-0.3634082376956939,0.5962274074554443
1631023519564,0.5241230726242065,-0.2240004986524582,-0.3362097442150116,0.6101353168487549
1631023519595,0.5311802625656128,-0.2253412902355194,-0.3055205941200256,0.6199591159820557
1631023519829,0.5359504818916321,-0.2288070023059845,-0.2779701650142669,0.6253793239593506
1631023519845,0.5385225415229797,-0.2382829040288925,-0.2610974907875061,0.6274756193161011
1631023520095,0.5449795722961426,-0.2526964843273163,-0.2552579641342163,0.6256499886512756
1631023520157,0.5501320958137512,-0.265190064907074,-0.2544240951538086,0.6211012601852417
1631023520188,0.5519423484802246,-0.2701455354690552,-0.2515887320041656,0.6177056431770325
1631023520345,0.5468069911003113,-0.2683741152286529,-0.2438529878854751,0.6144339442253113
1631023520407,0.5340253710746765,-0.264118880033493,-0.2315790802240371,0.6138027906417847
1631023520438,0.5194746851921082,-0.2600041925907135,-0.2167674154043197,0.6148363351821899
1631023520688,0.5073472857475281,-0.2542163431644439,-0.2033997476100921,0.6182749271392822
1631023520719,0.5058233141899109,-0.2437935322523117,-0.1942923218011856,0.6206010580062866
1631023520829,0.5142624378204346,-0.2284522205591201,-0.1899882107973098,0.6168007254600525
1631023520938,0.5253802537918091,-0.211086243391037,-0.1879704445600509,0.6088570952415466
1631023521001,0.5352726578712463,-0.1954542398452758,-0.1857166737318039,0.5987730026245117
1631023521094,0.5403940081596375,-0.1841143071651458,-0.1829178929328918,0.593130886554718
1631023521110,0.5381307005882263,-0.176302820444107,-0.1805064678192138,0.591313898563385
1631023521254,0.5366033911705017,-0.1703642606735229,-0.1788146942853927,0.5780475735664368
1631023521285,0.5345500707626343,-0.1667579859495163,-0.1774579584598541,0.5637989044189453
1631023521394,0.5303993225097656,-0.167214035987854,-0.1769008338451385,0.5550132989883423
1631023521504,0.5290684700012207,-0.1712315827608108,-0.179973691701889,0.5526483058929443
1631023521722,0.5265448689460754,-0.1736883521080017,-0.1898419708013534,0.5477820038795471
1631023521816,0.5214943289756775,-0.1710096150636673,-0.2070107460021972,0.5363446474075317
1631023522035,0.5155319571495056,-0.1648097783327102,-0.2286295443773269,0.5158342719078064
1631023522066,0.5044360756874084,-0.1593255847692489,-0.2500329613685608,0.4888956248760223
1631023522082,0.49312824010849,-0.1570218205451965,-0.2659285366535187,0.468044251203537
1631023522303,0.4690943956375122,-0.1574263721704483,-0.2690458595752716,0.474051833152771
1631023522303,0.4810002446174621,-0.156937301158905,-0.27241912484169,0.4617123603820801
1631023522397,0.4620413482189178,-0.1579272747039795,-0.2598026692867279,0.4956147968769073
1631023522397,0.452844500541687,-0.1567278355360031,-0.2465211153030395,0.512385904788971
1631023522506,0.4469236135482788,-0.1509539783000946,-0.2276318967342376,0.5226079225540161
1631023522585,0.4473964273929596,-0.1404899656772613,-0.2050939351320266,0.5245619416236877
1631023522913,0.4457156956195831,-0.1281774938106537,-0.1860514432191848,0.5321952104568481
1631023522913,0.4493170976638794,-0.1170486807823181,-0.1769763082265854,0.5423170328140259
1631023522960,0.4506579339504242,-0.1099880114197731,-0.1780377179384231,0.5485415458679199
1631023523100,0.4472982585430145,-0.1104235276579856,-0.1837300807237625,0.549567461013794
1631023523131,0.4439908862113952,-0.1229488849639892,-0.189091145992279,0.5499234795570374
1631023523273,0.4458183348178863,-0.1474675983190536,-0.1931048780679702,0.5554103255271912
1631023523523,0.4579452276229858,-0.175259456038475,-0.196403220295906,0.564965546131134
1631023523539,0.4798577427864074,-0.1940973550081253,-0.19893379509449,0.5724376440048218
1631023523555,0.5068532228469849,-0.1998911499977111,-0.2003562897443771,0.5692771673202515
1631023523633,0.5276808142662048,-0.2010034173727035,-0.2029438465833664,0.5542309880256653
1631023523742,0.5381507873535156,-0.2066923975944519,-0.2095416486263275,0.5284894704818726
1631023523898,0.5384291410446167,-0.2184478640556335,-0.220698744058609,0.4998510479927063
1631023524055,0.5376178622245789,-0.2326975166797638,-0.238726869225502,0.4777204990386963
1631023524179,0.5418867468833923,-0.245524525642395,-0.2696470022201538,0.4672842025756836
1631023524211,0.5501154661178589,-0.2540734708309173,-0.3176368474960327,0.4690892398357391
1631023524242,0.5593504905700684,-0.256866842508316,-0.3750218152999878,0.4741233289241791
1631023524401,0.5591499209403992,-0.2545634508132934,-0.4206853210926056,0.4789967536926269
1631023524417,0.5556931495666504,-0.2489152997732162,-0.4377478361129761,0.4819935262203216
1631023524589,0.5529654026031494,-0.2421329021453857,-0.4308049082756042,0.4853507280349731
1631023524682,0.5522386431694031,-0.2352504283189773,-0.4160826802253723,0.4919611811637878
1631023524807,0.5560433268547058,-0.2307499349117279,-0.4024127423763275,0.4967099726200104
1631023524854,0.5581420660018921,-0.2336748391389846,-0.3919633626937866,0.4982574880123138
1631023525058,0.5577543377876282,-0.2463340759277343,-0.3849953711032867,0.4935712218284607
1631023525107,0.5510159134864807,-0.2648808062076568,-0.3831258416175842,0.4887787699699402
1631023525138,0.5408167243003845,-0.2819499671459198,-0.3868318498134613,0.4865981638431549
1631023525341,0.5397526025772095,-0.293077677488327,-0.3934100866317749,0.4951780140399933
1631023525450,0.5451529026031494,-0.3004563748836517,-0.3967008888721466,0.502159833908081
1631023525466,0.5520200729370117,-0.3104675412178039,-0.3889793157577514,0.5062986016273499
1631023525513,0.5516714453697205,-0.3286361992359161,-0.3672306835651397,0.5055569410324097
1631023525622,0.5417674779891968,-0.3561855554580688,-0.3372330963611603,0.4982165992259979
1631023525825,0.5253159999847412,-0.3900429308414459,-0.3106914460659027,0.4888348877429962
1631023525934,0.5154805183410645,-0.4246662557125091,-0.2961133420467376,0.4752348661422729
1631023525997,0.5178733468055725,-0.454776257276535,-0.2942192554473877,0.4635790884494781
1631023526013,0.5281482338905334,-0.4775319993495941,-0.2998964786529541,0.4501994252204895
1631023526200,0.5436888933181763,-0.4918436408042907,-0.3063884377479553,0.4262673854827881
1631023526341,0.5484912395477295,-0.4971857368946075,-0.3087456226348877,0.3948177695274353
1631023526372,0.5484912395477295,-0.4934554398059845,-0.3056359887123108,0.3948177695274353
1631023526466,0.5484912395477295,-0.4861127138137817,-0.3005178868770599,0.3948177695274353
1631023526575,0.5484912395477295,-0.4857893884181976,-0.2986374199390411,0.3948177695274353
1631023526684,0.5484912395477295,-0.4897791743278503,-0.3019109666347503,0.3948177695274353
1631023526794,0.6043424606323242,-0.4953189790248871,-0.3086889386177063,0.5860333442687988
1631023526950,0.6098558902740479,-0.4972708225250244,-0.3168736696243286,0.594464123249054
1631023527028,0.6092711687088013,-0.4929417073726654,-0.3289288878440857,0.588931679725647
1631023527137,0.6067153215408325,-0.5051172971725464,-0.3492912650108337,0.5754920244216919
1631023527249,0.5938760042190552,-0.5179368257522583,-0.3737491369247436,0.556042492389679
1631023527343,0.5830245018005371,-0.5276575684547424,-0.3917467296123504,0.5365617871284485
1631023527374,0.575753927230835,-0.5281153917312622,-0.395923763513565,0.5272871851921082
1631023527468,0.567861795425415,-0.5147872567176819,-0.3881970345973968,0.5257602334022522
1631023527577,0.5640111565589905,-0.4881279766559601,-0.3731532990932464,0.5271899700164795
1631023527780,0.5585705041885376,-0.4529275298118591,-0.3539283573627472,0.5312079787254333
1631023527843,0.555164098739624,-0.4149501919746399,-0.335833340883255,0.5346875190734863
1631023527952,0.5550628900527954,-0.381974995136261,-0.3344756662845611,0.5346875190734863
1631023528030,0.5507514476776123,-0.3592469394207001,-0.3343188166618347,0.5328635573387146
1631023528155,0.5475171804428101,-0.3466065526008606,-0.3314526081085205,0.5287479758262634
1631023528189,0.5429651141166687,-0.3466065526008606,-0.3228287994861603,0.5228416323661804
1631023528377,0.5354959964752197,-0.3466065526008606,-0.3078616261482239,0.5509781241416931
1631023528486,0.5221970081329346,-0.3466065526008606,-0.290340781211853,0.5426331758499146
1631023528533,0.5066859722137451,-0.3466065526008606,-0.2750672101974487,0.5406413674354553
1631023528705,0.491713672876358,-0.3199858367443084,-0.2630339562892914,0.547149121761322
1631023528752,0.4893079996109009,-0.2889395356178283,-0.2554748356342315,0.5657640099525452
1631023528892,0.494867742061615,-0.2568559050559997,-0.2494650036096573,0.5943475365638733
1631023529005,0.5099772810935974,-0.2276798784732818,-0.2387239784002304,0.6204354166984558
1631023529036,0.5293755531311035,-0.2054368406534195,-0.2387239784002304,0.6441193222999573
1631023529099,0.5429378151893616,-0.1931685358285904,-0.2387239784002304,0.6441193222999573
1631023529224,0.5539618730545044,-0.1936116963624954,-0.2387239784002304,0.6441193222999573
1631023529302,0.5554311275482178,-0.2035024464130401,-0.2387239784002304,0.6441193222999573
1631023529567,0.552333652973175,-0.2035024464130401,-0.2387239784002304,0.6441193222999573
1631023529598,0.5488792657852173,-0.2035024464130401,-0.2387239784002304,0.6441193222999573
1631023529661,0.541615903377533,-0.2035024464130401,-0.2387239784002304,0.6441193222999573
1631023529755,0.5342515110969543,-0.2035024464130401,-0.2387239784002304,0.6441193222999573
1631023529817,0.5267296433448792,-0.4171765744686126,-0.2387239784002304,0.6441193222999573
1631023529942,0.5233663320541382,-0.4382653534412384,-0.2387239784002304,0.6441193222999573
1631023530176,0.5262761116027832,-0.4434793591499328,-0.2920429706573486,0.6441193222999573
1631023530223,0.5308992862701416,-0.4384491741657257,-0.2194998562335968,0.65721595287323
1631023530255,0.5312546491622925,-0.4312808513641357,-0.1817264556884765,0.6189875602722168
1631023530380,0.523881733417511,-0.429332822561264,-0.1754572838544845,0.5923722386360168
1631023530426,0.5026707649230957,-0.4329052269458771,-0.1893653869628906,0.5778928995132446
1631023530567,0.4773886501789093,-0.4371665716171264,-0.2106365710496902,0.5735741257667542
1631023530708,0.4555977880954742,-0.4674834012985229,-0.2296849638223648,0.5725579261779785
1631023530770,0.446466326713562,-0.4517406225204468,-0.2424103021621704,0.5686724185943604
1631023530833,0.459524929523468,-0.4241703748703003,-0.2494564354419708,0.56061851978302
1631023530942,0.4751562774181366,-0.391318142414093,-0.2533547580242157,0.5511595606803894
1631023531020,0.4893050789833069,-0.3595518469810486,-0.2563516795635223,0.5445432066917419
1631023531227,0.4969709515571594,-0.3214063346385956,-0.2590684294700622,0.5423222780227661
1631023531273,0.4978184103965759,-0.2841847538948059,-0.2458422631025314,0.5463210940361023
1631023531445,0.5005924105644226,-0.2531176209449768,-0.2384633868932724,0.5419794917106628
1631023531461,0.5045015811920166,-0.2323952168226242,-0.2434288561344146,0.5397369265556335
1631023531617,0.5082619786262512,-0.2204648554325103,-0.2647794783115387,0.5411596894264221
1631023531773,0.5112830996513367,-0.2101773768663406,-0.3004906773567199,0.5486011505126953
1631023531851,0.5120013356208801,-0.1946951299905777,-0.3392738401889801,0.5569705367088318
1631023531898,0.5142524838447571,-0.1731907278299331,-0.3659997880458832,0.560590386390686
1631023532039,0.5187284350395203,-0.1505471467971801,-0.3733047842979431,0.5619228482246399
1631023532242,0.5250163674354553,-0.1323970705270767,-0.3641963005065918,0.5601639151573181
1631023532320,0.5352862477302551,-0.1211969926953315,-0.3434153199195862,0.5593975186347961
1631023532320,0.5399855375289917,-0.1150839626789093,-0.313969612121582,0.5610299706459045
1631023532383,0.539175271987915,-0.1100646182894706,-0.28016197681427,0.5628408789634705
1631023532523,0.5396378040313721,-0.1039169579744339,-0.248933270573616,0.5646641850471497
1631023532570,0.5398958325386047,-0.0984800979495048,-0.2269590198993683,0.5655398964881897
1631023532695,0.5460249185562134,-0.0990524142980575,-0.2172206789255142,0.5687325596809387
1631023532929,0.5548640489578247,-0.1069573611021041,-0.217756450176239,0.573899507522583
1631023533023,0.5627599954605103,-0.1178778409957885,-0.2221197634935379,0.5667875409126282
1631023533101,0.5708039402961731,-0.1259542405605316,-0.2203455865383148,0.5557270646095276
1631023533132,0.5773741006851196,-0.130990669131279,-0.2034680545330047,0.5442829728126526
1631023533167,0.5839543342590332,-0.1375228613615036,-0.1713061779737472,0.5359663963317871
1631023533386,0.593699038028717,-0.1476625949144363,-0.1540099531412124,0.5331101417541504
1631023533646,0.6043713688850403,-0.1575716286897659,-0.1359915882349014,0.5371142029762268
1631023533687,0.6183186769485474,-0.161825880408287,-0.1195005550980568,0.5412387847900391
1631023533892,0.6314624547958374,-0.1590409129858017,-0.1126043051481247,0.5450471639633179
1631023534025,0.6376069784164429,-0.1536992192268371,-0.1167929098010063,0.5437390208244324
1631023534071,0.6426765322685242,-0.1528136134147644,-0.1309526264667511,0.540951132774353
1631023534133,0.6378051042556763,-0.1598206758499145,-0.1535188406705856,0.5499641299247742
1631023534227,0.6378051042556763,-0.171990305185318,-0.1776112616062164,0.5499641299247742
1631023534254,0.6378051042556763,-0.181400641798973,-0.1939363628625869,0.5499641299247742
1631023534284,0.6378051042556763,-0.183369368314743,-0.1992116868495941,0.5499641299247742
1631023534381,0.6378051042556763,-0.1817145198583603,-0.1989674419164657,0.5499641299247742
1631023534490,0.6378051042556763,-0.1811729520559311,-0.2008298188447952,0.5499641299247742
1631023534591,0.6378051042556763,-0.1810081899166107,-0.2108796089887619,0.5499641299247742
1631023534623,0.6378051042556763,-0.1763262003660202,-0.2356667220592498,0.5499641299247742
1631023534659,0.6378051042556763,-0.1673307716846466,-0.2810371518135071,0.5499641299247742
1631023534774,0.6378051042556763,-0.1611703485250473,-0.2937666177749634,0.5499641299247742
1631023534955,0.6378051042556763,-0.1637814044952392,-0.3068784773349762,0.5499641299247742
1631023535117,0.6325681209564209,-0.1739931553602218,-0.3171900808811188,0.5499641299247742
1631023535186,0.6176009774208069,-0.1834996491670608,-0.3305958807468414,0.5499641299247742
1631023535242,0.6064669489860535,-0.1835176944732666,-0.3285692632198334,0.5499641299247742
1631023535380,0.5992257595062256,-0.1751781702041626,-0.3137320280075073,0.3535984754562378
1631023535427,0.5935572981834412,-0.1676119118928909,-0.2906422317028045,0.3663870692253113
1631023535625,0.5864319801330566,-0.1679097712039947,-0.2669546902179718,0.391133189201355
1631023535704,0.5788139700889587,-0.1776034832000732,-0.2473205178976059,0.4165444076061249
1631023535735,0.5709460377693176,-0.1900581568479538,-0.229154497385025,0.4382382035255432
1631023535907,0.5616863369941711,-0.1957165747880935,-0.2083544135093689,0.4491872191429138
1631023535938,0.5526191592216492,-0.1926563531160354,-0.1863572150468826,0.4517832398414612
1631023536185,0.54227215051651,-0.1885023266077041,-0.1685861647129058,0.4500950276851654
1631023536247,0.5345473289489746,-0.1911278367042541,-0.1571055948734283,0.4489116370677948
1631023536294,0.5200351476669312,-0.2003485113382339,-0.1480413079261779,0.4493408203125
1631023536326,0.4995420575141907,-0.2088848203420639,-0.1375874280929565,0.4487842321395874
1631023536414,0.4765215218067169,-0.2119073867797851,-0.1269645690917968,0.4478276371955871
1631023536492,0.4549578130245209,-0.212252676486969,-0.1203303784132003,0.447312593460083
1631023536728,0.4413571953773498,-0.2167470604181289,-0.1205596774816513,0.4580574333667755
1631023536947,0.4333373308181762,-0.2305438369512558,-0.1272606402635574,0.4756185412406921
1631023537010,0.4311478435993194,-0.2529356181621551,-0.1385226398706436,0.4931826591491699
1631023537041,0.436491847038269,-0.2790918946266174,-0.1510188430547714,0.5078893303871155
1631023537056,0.4413144290447235,-0.3010842800140381,-0.1621057093143463,0.5179664492607117
1631023537244,0.44317626953125,-0.313805490732193,-0.1724345982074737,0.5226335525512695
1631023537400,0.4424081444740295,-0.3186759650707245,-0.1866053342819214,0.5222674012184143
1631023537478,0.4419141411781311,-0.3224450051784515,-0.2080991715192794,0.5234060287475586
1631023537541,0.4498919546604156,-0.3270993530750274,-0.2349604219198227,0.5261955261230469
1631023537572,0.4637067019939422,-0.3289050459861755,-0.2603017687797546,0.5310983657836914
1631023537634,0.4808137118816376,-0.325686514377594,-0.2799527645111084,0.5344808101654053
1631023537822,0.5018078088760376,-0.3194093108177185,-0.2967619001865387,0.5340520739555359
1631023537853,0.5190194845199585,-0.3131513595581054,-0.3159579634666443,0.5324430465698242
1631023537978,0.5316901206970215,-0.3040052056312561,-0.3371468484401703,0.5317002534866333
1631023538088,0.5387661457061768,-0.2891322076320648,-0.3540570735931396,0.5327231287956238
1631023538163,0.5406093001365662,-0.2731600701808929,-0.36183562874794,0.5337288975715637
1631023538257,0.5356212854385376,-0.2609227001667022,-0.3635514974594116,0.5344270467758179
1631023538462,0.5267826914787292,-0.2482822835445404,-0.36693274974823,0.5387224555015564
1631023538509,0.5146628618240356,-0.2266253679990768,-0.3774448037147522,0.5471498966217041
1631023538619,0.5079658627510071,-0.1984937489032745,-0.3903436660766601,0.5565468072891235
1631023538698,0.5106733441352844,-0.1746636033058166,-0.3923192620277405,0.5630794763565063
1631023538729,0.5190364718437195,-0.1623197495937347,-0.3754461705684662,0.5666547417640686
1631023538979,0.5293341875076294,-0.1589594483375549,-0.3470919728279114,0.56875079870224
1631023539010,0.5312298536300659,-0.1582049578428268,-0.320728451013565,0.5717334747314453
1631023539232,0.5249130129814148,-0.1562796086072921,-0.3040987253189087,0.5725962519645691
1631023539294,0.5096248984336853,-0.154138758778572,-0.2953082621097564,0.5702953338623047
1631023539341,0.4919509887695312,-0.1551038473844528,-0.2873994708061218,0.5647315979003906
1631023539482,0.4794530570507049,-0.1614253669977188,-0.2725322842597961,0.5590456128120422
1631023539575,0.470559149980545,-0.1746855229139328,-0.2487228363752365,0.5527836084365845
1631023539716,0.4684196710586548,-0.1934835314750671,-0.2212277948856353,0.5464284420013428
1631023539810,0.4700778722763061,-0.2128220349550247,-0.1984258741140365,0.5415307283401489
1631023539841,0.4766912460327148,-0.2281402200460434,-0.1854858249425888,0.5395102500915527
1631023539872,0.4809718728065491,-0.2412139028310775,-0.1827573627233505,0.5406254529953003
1631023540138,0.4854688644409179,-0.2886863350868225,-0.1997274905443191,0.5034056901931763
1631023540138,0.483437716960907,-0.2599069476127624,-0.1877094060182571,0.5247332453727722
1631023540229,0.4875933229923248,-0.3237805068492889,-0.2201224565505981,0.4840745329856872
1631023540284,0.4876853823661804,-0.3546280264854431,-0.2459096312522888,0.4903223514556885
1631023540378,0.4842967987060547,-0.37093585729599,-0.2686101496219635,0.5026141405105591
1631023540612,0.4773341715335846,-0.3709849715232849,-0.2800118923187256,0.5170749425888062
1631023540628,0.4717181324958801,-0.3621339201927185,-0.2792159020900726,0.5158319473266602
1631023540706,0.4733484387397766,-0.3523957133293152,-0.2704850137233734,0.5217577219009399
1631023540846,0.4781557321548462,-0.3448027074337005,-0.2545111179351806,0.5393619537353516
1631023540878,0.4815130233764648,-0.3349932730197906,-0.2322637885808944,0.5638181567192078
1631023541065,0.4892371594905853,-0.3167956173419952,-0.2090675830841064,0.5944313406944275
1631023541286,0.4985096156597137,-0.2889036834239959,-0.1927731931209564,0.6068849563598633
1631023541349,0.5069990754127502,-0.2555768191814422,-0.1863949745893478,0.6007190346717834
1631023541458,0.5186377763748169,-0.2248292565345764,-0.1865660101175308,0.5770589113235474
1631023541489,0.5311001539230347,-0.2021938115358352,-0.1880012899637222,0.5360136032104492
1631023541536,0.5440464019775391,-0.1880338340997696,-0.1892737597227096,0.5154687762260437
1631023541802,0.5516477227210999,-0.1795027256011963,-0.1920062750577926,0.5026602149009705
1631023541911,0.5478549599647522,-0.17398601770401,-0.196862518787384,0.4958122074604034
1631023541974,0.5417330861091614,-0.1717207878828048,-0.2043876349925995,0.4742235839366913
1631023542036,0.5336669087409973,-0.1759301722049713,-0.2136587500572204,0.4529287219047546
1631023542192,0.5314773321151733,-0.1888854801654815,-0.22197325527668,0.4343896508216858
1631023542430,0.5359228849411011,-0.2086409777402877,-0.2270546555519104,0.4530026614665985
1631023542576,0.5353243947029114,-0.2270998060703277,-0.2299308776855468,0.4667679071426391
1631023542592,0.5316511988639832,-0.2348340898752212,-0.2363044321537017,0.4753749668598175
1631023542639,0.5254942774772644,-0.2338925749063491,-0.2475340068340301,0.4815359711647033
1631023542655,0.5161492824554443,-0.2372402101755142,-0.2572401463985443,0.4779597222805023
1631023542686,0.5036839842796326,-0.2563218772411346,-0.2579221129417419,0.4842938482761383
1631023542779,0.4863491356372833,-0.2929556667804718,-0.250982791185379,0.4950613677501678
1631023542967,0.4640632569789886,-0.3353611826896667,-0.2443190664052963,0.5086270570755005
1631023543096,0.4414964616298675,-0.3669756054878235,-0.2422327995300293,0.5230793952941895
1631023543143,0.4229147732257843,-0.3761400580406189,-0.241182342171669,0.538533091545105
1631023543174,0.4125763177871704,-0.3613194227218628,-0.2355524003505706,0.5529782772064209
1631023543236,0.4102394580841064,-0.3321046233177185,-0.2245905548334121,0.5653064250946045
1631023543424,0.4083447754383087,-0.3027172088623047,-0.2108078896999359,0.5747010111808777
1631023543643,0.4060910940170288,-0.2830884754657745,-0.1985275447368621,0.5827874541282654
1631023543752,0.4006629288196563,-0.2765467166900635,-0.1910120397806167,0.5864651799201965
1631023543783,0.3917871713638305,-0.2794153690338135,-0.1882616281509399,0.5840270519256592
1631023543814,0.3908573687076568,-0.2862951159477234,-0.1877675056457519,0.5798159241676331
1631023544208,0.3955921530723572,-0.2944998741149902,-0.1876710802316665,0.5768528580665588
1631023544223,0.404048353433609,-0.3000074326992035,-0.1912795007228851,0.5739405751228333
1631023544270,0.4079575538635254,-0.2991049289703369,-0.2034164071083068,0.5715263485908508
1631023544286,0.4123903810977936,-0.291528970003128,-0.2236254662275314,0.5685098171234131
1631023544317,0.4191703200340271,-0.2812703251838684,-0.2451172024011612,0.5647953152656555
1631023544583,0.4273972511291504,-0.2740247249603271,-0.2600666582584381,0.5592268705368042
1631023544645,0.4400047659873962,-0.2715016305446625,-0.2669284045696258,0.5515493154525757
1631023544723,0.4419070184230804,-0.274257481098175,-0.2706078290939331,0.5420059561729431
1631023544754,0.434897780418396,-0.2850660681724548,-0.2759959995746612,0.5281524658203125
1631023544770,0.4194470942020416,-0.3045027256011963,-0.2857885956764221,0.5093916058540344
1631023544879,0.4047040045261383,-0.3259586095809936,-0.3011300563812256,0.4849164485931396
1631023545051,0.3994731605052948,-0.3360322117805481,-0.3198679685592651,0.4717880487442016
1631023545131,0.3998675048351288,-0.3257907032966614,-0.3389331400394439,0.4580416977405548
1631023545257,0.4067202806472778,-0.2996812462806701,-0.3569082617759704,0.4375376403331756
1631023545350,0.412476122379303,-0.2706189453601837,-0.3751077950000763,0.4300324022769928
1631023545413,0.4205613434314728,-0.2483664155006408,-0.396580159664154,0.4281646609306335
1631023545709,0.4587441980838775,-0.2401105910539627,-0.4555500447750091,0.4310535192489624
1631023545709,0.4349925816059112,-0.2381818741559982,-0.4232983291149139,0.4273482859134674
1631023545725,0.4859468936920166,-0.2488234192132949,-0.490191102027893,0.4516014158725738
1631023545803,0.5113244652748108,-0.2570460438728332,-0.5191008448600769,0.4926505386829376
1631023545944,0.5283470749855042,-0.2619166672229767,-0.5358976721763611,0.541608989238739
1631023546228,0.532272458076477,-0.2676417529582977,-0.5413562059402466,0.5784474015235901
1631023546243,0.5342680215835571,-0.279619961977005,-0.5412721037864685,0.6015899777412415
1631023546431,0.5381908416748047,-0.2962803542613983,-0.5397833585739136,0.6157633066177368
1631023546478,0.5504539012908936,-0.308161973953247,-0.5348725318908691,0.628381609916687
1631023546540,0.564464271068573,-0.3070729374885559,-0.5227227210998535,0.6465879082679749
1631023546540,0.5762219429016113,-0.2961672842502594,-0.5042369961738586,0.643680214881897
1631023546759,0.5886963605880737,-0.2867374122142792,-0.4831945300102234,0.643680214881897
1631023546821,0.5978474020957947,-0.2885313630104065,-0.4642656445503235,0.6607921123504639
1631023547009,0.6055855751037598,-0.3030891418457031,-0.4499911963939667,0.6741668581962585
1631023547024,0.6075836420059204,-0.3259503245353699,-0.444506824016571,0.6866110563278198
1631023547071,0.6026156544685364,-0.3501009941101074,-0.4395540654659271,0.7013296484947205
1631023547087,0.5895606279373169,-0.3685730993747711,-0.4329818785190582,0.7147621512413025
1631023547199,0.5692284107208252,-0.3776446282863617,-0.4249220490455627,0.7168743014335632
1631023547355,0.5458393096923828,-0.3766665160655975,-0.4187187850475311,0.7003913521766663
1631023547512,0.5239266753196716,-0.3668538928031921,-0.421975314617157,0.663550615310669
1631023547527,0.5158646106719971,-0.3494329452514648,-0.4180745184421539,0.6235719919204712
1631023547605,0.5199764966964722,-0.3274675607681274,-0.4035544693470001,0.5927866101264954
1631023547871,0.5199764966964722,-0.2875708341598511,-0.3782504200935364,0.5927866101264954
1631023547871,0.5199764966964722,-0.305947333574295,-0.3869373500347137,0.5927866101264954
1631023547918,0.5199764966964722,-0.2682009935379028,-0.3841185569763183,0.5927866101264954
1631023547996,0.5199764966964722,-0.2402284741401672,-0.4042227864265442,0.5927866101264954
1631023548074,0.5199764966964722,-0.2018826156854629,-0.4341867566108703,0.5192267298698425
1631023548183,0.5405898690223694,-0.1618183702230453,-0.4645251333713531,0.4904973804950714
1631023548402,0.5335865616798401,-0.1295677274465561,-0.4868508875370025,0.4605626165866852
1631023548512,0.5213620066642761,-0.1067028641700744,-0.4852292835712433,0.4370648264884949
1631023548674,0.5058705806732178,-0.0886522307991981,-0.4768484234809875,0.4203535616397857
1631023548721,0.4944591820240021,-0.0720328465104103,-0.4691351652145386,0.4105264246463775
1631023548752,0.4942827224731445,-0.0586776062846183,-0.468650758266449,0.4081815481185913
1631023548830,0.4944778382778168,-0.053665917366743,-0.4779642522335052,0.4048620760440826
1631023548986,0.4935776591300964,-0.0583466999232769,-0.4946254193782806,0.403523176908493
1631023549018,0.4936456084251404,-0.0698358193039894,-0.5194031000137329,0.4082630574703216
1631023549193,0.4910541772842407,-0.0826546028256416,-0.5467007160186768,0.4199209809303283
1631023549224,0.4914809465408325,-0.0916080996394157,-0.566991925239563,0.4396705627441406
1631023549318,0.4935768544673919,-0.0978535264730453,-0.5744771957397461,0.4475300908088684
1631023549599,0.4940935969352722,-0.1102066785097122,-0.5644539594650269,0.4621710181236267
1631023549786,0.4914343655109405,-0.1383209973573684,-0.5368064641952515,0.4772862195968628
1631023549818,0.4859399795532226,-0.1855277121067047,-0.498668909072876,0.4828430712223053
1631023549833,0.4801730215549469,-0.2436815798282623,-0.4644598960876465,0.4914641678333282
1631023549849,0.4780929982662201,-0.2974260747432709,-0.4418785572052002,0.5057384967803955
1631023549989,0.4801777303218841,-0.3363512754440307,-0.428541749715805,0.5224318504333496
1631023550036,0.4875080585479736,-0.3617481291294098,-0.4146313071250915,0.5405723452568054
1631023550273,0.4957883358001709,-0.3808729946613312,-0.393676221370697,0.5592024922370911
1631023550336,0.4961519241333008,-0.3956836760044098,-0.3891595005989074,0.5766599774360657
1631023550352,0.4961407780647278,-0.3985979855060577,-0.3682741820812225,0.5995223522186279
1631023550601,0.4980555176734924,-0.3862622380256653,-0.3575645089149475,0.626520574092865
1631023550617,0.4987844228744507,-0.3656169474124908,-0.3553226292133331,0.653153121471405
1631023550648,0.5082557797431946,-0.3486541211605072,-0.3550236523151397,0.6758159399032593
1631023550898,0.5082557797431946,-0.3429337441921234,-0.3505213558673858,0.6758159399032593
1631023550945,0.5082557797431946,-0.3457882404327392,-0.339244395494461,0.6758159399032593
1631023551104,0.5082557797431946,-0.3482295274734497,-0.3253647685050964,0.6758159399032593
1631023551166,0.5082557797431946,-0.344127357006073,-0.3171533048152923,0.6758159399032593
1631023551354,0.3894036114215851,-0.3324333131313324,-0.3169403374195099,0.6758159399032593
1631023551432,0.3983018696308136,-0.3147505223751068,-0.3185368180274963,0.2808839082717895
1631023551479,0.4103807210922241,-0.2940812110900879,-0.3170004189014435,0.2899354994297027
1631023551510,0.4234176576137543,-0.2735132575035095,-0.3139432668685913,0.3132636547088623
1631023551541,0.4436539113521576,-0.2565487623214721,-0.3149794042110443,0.3381120264530182
1631023552025,0.4578429460525512,-0.2446902990341186,-0.3210439085960388,0.3630217015743255
1631023552076,0.4800266325473785,-0.2369150072336197,-0.3143113851547241,0.3867925703525543
1631023552091,0.5021908283233643,-0.2313519120216369,-0.3147870898246765,0.4032025933265686
1631023552122,0.5177849531173706,-0.224714308977127,-0.3058834969997406,0.4144825339317322
1631023552201,0.5287941098213196,-0.212847962975502,-0.2850399315357208,0.4144825339317322
1631023552357,0.5285980701446533,-0.192494198679924,-0.2566983997821808,0.4144825339317322
1631023552372,0.5198158621788025,-0.1632764488458633,-0.2315334379673004,0.4144825339317322
1631023552435,0.5173485279083252,-0.1295956224203109,-0.2181133925914764,0.4591489434242248
1631023552513,0.5116912722587585,-0.1000693514943122,-0.2178786695003509,0.5077542662620544
1631023552591,0.509196400642395,-0.0816054567694664,-0.2239785194396972,0.5467640161514282
1631023552654,0.5149625539779663,-0.0748072415590286,-0.2289320975542068,0.5706776976585388
1631023552872,0.5265053510665894,-0.0751218348741531,-0.2304115742444992,0.5804765224456787
1631023553090,0.5380868911743164,-0.0829194039106369,-0.2304483205080032,0.5826156139373779
1631023553110,0.535143256187439,-0.0893976762890815,-0.2338632196187973,0.5920076966285706
1631023553188,0.533521831035614,-0.0956716686487197,-0.2389183640480041,0.5997331142425537
1631023553298,0.5240539312362671,-0.0976060032844543,-0.2401388883590698,0.6057997345924377
1631023553407,0.5084303617477417,-0.0946428701281547,-0.2332600057125091,0.614585816860199
1631023553626,0.4915976524353027,-0.0906484201550483,-0.2211369127035141,0.6272701621055603
1631023553626,0.4731148481369018,-0.0897127166390419,-0.2121044844388961,0.6272701621055603
1631023553672,0.466815322637558,-0.0931115895509719,-0.2115046232938766,0.6272701621055603
1631023553860,0.4771847426891327,-0.1013807356357574,-0.2154095619916916,0.6272701621055603
1631023554222,0.4991436004638672,-0.113948680460453,-0.2172046154737472,0.5966069102287292
1631023554269,0.5298087000846863,-0.1266012340784073,-0.2147677391767501,0.5490188002586365
1631023554300,0.5555576682090759,-0.1321709901094436,-0.2132453620433807,0.4851277470588684
1631023554331,0.5667287707328796,-0.1299396455287933,-0.2185667753219604,0.4851277470588684
1631023554394,0.5667287707328796,-0.1257711052894592,-0.2305027991533279,0.4851277470588684
1631023554519,0.5667287707328796,-0.1254854947328567,-0.2425613403320312,0.4851277470588684
1631023554675,0.5667287707328796,-0.1290720552206039,-0.2480829656124115,0.4851277470588684
1631023554784,0.5667287707328796,-0.1326202750205993,-0.2475442290306091,0.4851277470588684
1631023554815,0.4065755903720855,-0.133420705795288,-0.2476915419101715,0.5861748456954956
1631023554831,0.4457385540008545,-0.1329416781663894,-0.2531136572360992,0.5735944509506226
1631023554956,0.4735651314258575,-0.1333001554012298,-0.2617253959178924,0.5580047965049744
1631023555065,0.4870106875896454,-0.1362205296754837,-0.2691477239131927,0.54744952917099
1631023555209,0.4976630210876465,-0.1436274051666259,-0.2751076519489288,0.5410736799240112
1631023555256,0.4969114661216736,-0.1575579792261123,-0.2827953100204468,0.5393950343132019
1631023555303,0.495774358510971,-0.1787469089031219,-0.2961436808109283,0.5418989062309265
1631023555459,0.4919537603855133,-0.2060727924108505,-0.313820868730545,0.5439000725746155
1631023555506,0.4802552461624145,-0.2362851798534393,-0.3305865526199341,0.5462088584899902
1631023555647,0.4802552461624145,-0.2653619647026062,-0.3406047821044922,0.5462088584899902
1631023555850,0.4802552461624145,-0.2879230976104736,-0.3418425619602203,0.5462088584899902
1631023555944,0.4802552461624145,-0.3026178181171417,-0.3384523391723633,0.5462088584899902
1631023555959,0.4846158325672149,-0.3120858371257782,-0.338086873292923,0.5403093695640564
1631023556100,0.4967207312583923,-0.3218675851821899,-0.3454292416572571,0.5318213701248169
1631023556178,0.506159782409668,-0.3356608152389526,-0.3578692972660064,0.5267325043678284
1631023556274,0.512882649898529,-0.3542481660842895,-0.3686551749706268,0.5247563719749451
1631023556367,0.5033316016197205,-0.376561552286148,-0.3752688467502594,0.5255334377288818
1631023556461,0.486843854188919,-0.4001860618591308,-0.3823561370372772,0.5340836644172668
1631023556508,0.4706175625324249,-0.4206289052963257,-0.396157294511795,0.5444660186767578
1631023556758,0.4431953430175781,-0.4296119809150696,-0.4180959165096283,0.556300699710846
1631023556867,0.4431953430175781,-0.4175772666931152,-0.4439851641654968,0.556300699710846
1631023557058,0.4431953430175781,-0.3860480189323425,-0.4688926637172699,0.556300699710846
1631023557073,0.4431953430175781,-0.3497388064861297,-0.4922188520431518,0.556300699710846
1631023557261,0.4431953430175781,-0.3244481980800628,-0.514290988445282,0.556300699710846
1631023557323,0.5086343288421631,-0.3148983716964721,-0.5329418182373047,0.556300699710846
1631023557417,0.4997978508472442,-0.3117634356021881,-0.5459739565849304,0.3829448521137237
1631023557526,0.5065315365791321,-0.2922167479991913,-0.5531758666038513,0.4002338647842407
1631023557573,0.5279038548469543,-0.2402839660644531,-0.5562416315078735,0.4319478571414947
1631023557605,0.5501059293746948,-0.1674308329820633,-0.5565334558486938,0.472895860671997
1631023557667,0.5700262188911438,-0.099338985979557,-0.5558797717094421,0.5090668797492981
1631023557792,0.5822263360023499,-0.0521513447165489,-0.5547776222229004,0.524749755859375
1631023557948,0.5865543484687805,-0.0274520050734281,-0.5521525740623474,0.5249831080436707
1631023558075,0.584337592124939,-0.0174052082002162,-0.5414378046989441,0.5177127122879028
1631023558154,0.5812967419624329,-0.012649237178266,-0.5122909545898438,0.5084666609764099
1631023558185,0.5765198469161987,-0.0087672509253025,-0.4599291682243347,0.5009090304374695
1631023558279,0.5708245635032654,-0.0068336273543536,-0.3949991762638092,0.4970561861991882
1631023558357,0.5676687359809875,-0.0094009079039096,-0.3352717459201813,0.497784286737442
1631023558450,0.5709206461906433,-0.015791455283761,-0.2928108870983124,0.5008841156959534
1631023558575,0.578467607498169,-0.0197543054819107,-0.2689156532287597,0.5095050930976868
1631023558700,0.5866840481758118,-0.0165552292019128,-0.2569958567619324,0.5215474963188171
1631023558778,0.5963911414146423,-0.0088410517200827,-0.2391646355390548,0.5330109000205994
1631023558903,0.6017586588859558,-0.0086381882429122,-0.2319070249795913,0.5394096374511719
1631023558997,0.5975555777549744,-0.028089702129364,-0.2250694632530212,0.5367124080657959
1631023559094,0.5860445499420166,-0.0693952515721321,-0.220820277929306,0.5184498429298401
1631023559250,0.5664077997207642,-0.1214604377746582,-0.2198964804410934,0.4845204353332519
1631023559297,0.5444626808166504,-0.1668611615896225,-0.2213099151849746,0.453910619020462
1631023559453,0.5257351994514465,-0.194783017039299,-0.2239718586206436,0.43767249584198
1631023559500,0.5169566869735718,-0.2058981955051422,-0.2299816906452179,0.4377381205558777
1631023559609,0.5169566869735718,-0.2067620605230331,-0.2448103725910186,0.4377381205558777
1631023559797,0.5169566869735718,-0.2033786326646804,-0.2753995954990387,0.4377381205558777
1631023559859,0.5169566869735718,-0.2004309296607971,-0.3232680261135101,0.4377381205558777
1631023559890,0.5169566869735718,-0.2060642093420028,-0.3802537024021148,0.4377381205558777
1631023560081,0.5169566869735718,-0.2072048038244247,-0.4284130930900574,0.4377381205558777
1631023560253,0.5169566869735718,-0.2055339515209198,-0.4532914757728576,0.4377381205558777
1631023560284,0.5169566869735718,-0.2072234749794006,-0.4592123627662658,0.4377381205558777
1631023560331,0.5169566869735718,-0.213335320353508,-0.4578228890895843,0.4377381205558777
1631023560377,0.5169566869735718,-0.2193897068500518,-0.4594867825508117,0.4377381205558777
1631023560830,0.5169566869735718,-0.2202298790216446,-0.4599749743938446,0.4377381205558777
1631023560877,0.5169566869735718,-0.2160443216562271,-0.4552361369132995,0.3746105432510376
1631023560940,0.5169566869735718,-0.2109678387641906,-0.4469466805458069,0.3825142979621887
1631023560955,0.5169566869735718,-0.2067769765853881,-0.4400960505008697,0.371607631444931
1631023560987,0.5169566869735718,-0.2034886330366134,-0.4333999454975128,0.371607631444931
1631023561033,0.5169566869735718,-0.2041253298521042,-0.418442040681839,0.371607631444931
1631023561428,0.5169566869735718,-0.2125021070241928,-0.3911176025867462,0.371607631444931
1631023561428,0.5169566869735718,-0.2286537289619445,-0.3587468862533569,0.371607631444931
1631023561490,0.5169566869735718,-0.247964009642601,-0.3331361711025238,0.371607631444931
1631023561537,0.5169566869735718,-0.2521378993988037,-0.3180908262729645,0.371607631444931
1631023561584,0.5169566869735718,-0.2575039863586426,-0.3037052750587463,0.371607631444931
1631023561693,0.5169566869735718,-0.2678348422050476,-0.2891808748245239,0.371607631444931
1631023561865,0.5169566869735718,-0.2791219055652618,-0.2773458659648895,0.371607631444931
1631023561974,0.5169566869735718,-0.3151188492774963,-0.2346525192260742,0.4076496958732605
1631023561974,0.5169566869735718,-0.2943988442420959,-0.2604369819164276,0.3950777053833008
1631023562006,0.5169566869735718,-0.3391529619693756,-0.2032486349344253,0.4076496958732605
1631023562145,0.5169566869735718,-0.3552463948726654,-0.193645492196083,0.4076496958732605
1631023562258,0.5169566869735718,-0.3683953583240509,-0.18178191781044,0.4076496958732605
1631023562383,0.5169566869735718,-0.3676523566246032,-0.1654265820980072,0.4076496958732605
1631023562477,0.5169566869735718,-0.3637183308601379,-0.1716524511575698,0.4076496958732605
1631023562555,0.5169566869735718,-0.3653077781200409,-0.1899602264165878,0.4076496958732605
1631023562586,0.5169566869735718,-0.3639200925827026,-0.2233110070228576,0.4076496958732605
1631023562836,0.5169566869735718,-0.3644321858882904,-0.2629605531692505,0.4076496958732605
1631023562976,0.5169566869735718,-0.3687270283699035,-0.2887343466281891,0.4076496958732605
1631023563180,0.5169566869735718,-0.3757192492485046,-0.2888590097427368,0.4076496958732605
1631023563214,0.5169566869735718,-0.3803222775459289,-0.283079594373703,0.4076496958732605
1631023563277,0.5169566869735718,-0.361040323972702,-0.2776970267295837,0.4076496958732605
1631023563402,0.5169566869735718,-0.3064598143100738,-0.2707376480102539,0.4076496958732605
1631023563496,0.5169566869735718,-0.2307232916355133,-0.2700378596782684,0.4076496958732605
1631023563683,0.5169566869735718,-0.1617021411657333,-0.2832464277744293,0.4076496958732605
1631023563745,0.3496420681476593,-0.11622004956007,-0.3135240375995636,0.633523166179657
1631023563761,0.3629719316959381,-0.1215286999940872,-0.312068223953247,0.6516678929328918
1631023563792,0.3771146237850189,-0.1331879794597625,-0.3124926090240478,0.6507464647293091
1631023563933,0.3836317360401153,-0.13100066781044,-0.3119446337223053,0.6438472867012024
1631023564042,0.3954266905784607,-0.1237278953194618,-0.3007380366325378,0.6346026062965393
1631023564136,0.4093458950519562,-0.1085550412535667,-0.2871337532997131,0.6254554986953735
1631023564265,0.4308700859546661,-0.1128279045224189,-0.2728724777698517,0.6178353428840637
1631023564328,0.4485913515090942,-0.1133037209510803,-0.2607284188270569,0.6061323285102844
1631023564453,0.4558368623256683,-0.1095765009522438,-0.2546834647655487,0.5927606821060181
1631023564531,0.4608322978019714,-0.1042675450444221,-0.2562796473503113,0.5790836811065674
1631023564562,0.4605379998683929,-0.1025543436408042,-0.2643833458423614,0.5676138401031494
1631023564625,0.4628866314888,-0.100227415561676,-0.2776994705200195,0.5579788684844971
1631023564812,0.4743244647979736,-0.1174500659108161,-0.2974362373352051,0.5518726110458374
1631023564906,0.4955226182937622,-0.1516790837049484,-0.3219863772392273,0.5338529944419861
1631023565062,0.5214716196060181,-0.190399169921875,-0.3431482911109924,0.5064955949783325
1631023565078,0.5405701994895935,-0.21498604118824,-0.3529591560363769,0.4762578904628753
1631023565203,0.5475942492485046,-0.2171901911497116,-0.3516928255558014,0.4494999349117279
1631023565331,0.5522646903991699,-0.2071086317300796,-0.3455691337585449,0.4331573843955993
1631023565377,0.5575964450836182,-0.1999705284833908,-0.3399557471275329,0.4225175678730011
1631023565471,0.5613546371459961,-0.2018762081861496,-0.3374733924865722,0.4133561253547668
1631023565627,0.5660185813903809,-0.208320066332817,-0.3382301330566406,0.4042910933494568
1631023565674,0.5654698014259338,-0.2108976393938064,-0.3425723910331726,0.3994875848293304
1631023565830,0.5696178078651428,-0.2027326375246048,-0.3488347828388214,0.4050095975399017
1631023565893,0.5813009142875671,-0.1828431487083435,-0.3537425100803375,0.4175309836864471
1631023566067,0.5930103063583374,-0.1567258089780807,-0.3555800914764404,0.4278838634490967
1631023566177,0.6048750281333923,-0.1318078786134719,-0.354364663362503,0.4309851825237274
1631023566305,0.6095303893089294,-0.1132804155349731,-0.3512890040874481,0.4340640604496002
1631023566398,0.6054250597953796,-0.1013184562325477,-0.3486840426921844,0.4415338635444641
1631023566445,0.5925866961479187,-0.094523124396801,-0.3490811586380005,0.4548277854919433
1631023566492,0.575028121471405,-0.0930155739188194,-0.3541643917560577,0.4694302976131439
1631023566680,0.5588072538375854,-0.0993309020996093,-0.3637061715126037,0.4782403409481048
1631023566711,0.5510964393615723,-0.1143154501914978,-0.3757805228233337,0.482454240322113
1631023566820,0.5446483492851257,-0.1346420049667358,-0.3902587294578552,0.4834874272346496
1631023566914,0.5355060696601868,-0.1529977917671203,-0.4078646302223205,0.4824471175670624
1631023566992,0.5236434936523438,-0.1644000113010406,-0.4262060523033142,0.4831244051456451
1631023567039,0.5068814158439636,-0.1705266833305359,-0.4414741396903991,0.4848681688308716
1631023567369,0.4880154430866241,-0.1786841601133346,-0.4515382051467895,0.4834544360637665
1631023567525,0.4638489186763763,-0.1981071233749389,-0.4554326236248016,0.4803956747055053
1631023567604,0.4391903877258301,-0.2358618378639221,-0.4543962776660919,0.4782453179359436
1631023567635,0.41200852394104,-0.2926821112632751,-0.4516282975673675,0.480298638343811
1631023567807,0.3885578513145447,-0.3562119901180267,-0.4511094689369201,0.4871354103088379
1631023567869,0.3700358271598816,-0.4037429392337799,-0.4533529579639435,0.4885623455047607
1631023567900,0.3533390760421753,-0.423818290233612,-0.4538069069385528,0.4813248217105865
1631023568010,0.3453764915466308,-0.4260095655918121,-0.4500368237495422,0.4673070311546325
1631023568072,0.3348286747932434,-0.4244635105133056,-0.4445330202579498,0.4505804479122162
1631023568103,0.3306030929088592,-0.4232268631458282,-0.4415807127952575,0.4365525543689728
1631023568215,0.3287537097930908,-0.4206916987895965,-0.4423086643218994,0.4243806600570678
1631023568434,0.3270524442195892,-0.4161733388900757,-0.445801168680191,0.4143899381160736
1631023568559,0.3299925923347473,-0.4119263291358948,-0.4507136642932892,0.4081115424633026
1631023568668,0.3310933709144592,-0.4092141985893249,-0.4566570520401001,0.4005421698093414
1631023568715,0.3360247910022735,-0.4102753698825836,-0.4638247489929199,0.3929270505905151
1631023568778,0.3474180400371551,-0.4179680347442627,-0.4726200103759765,0.3892074525356293
1631023568856,0.3663407266139984,-0.4311525523662567,-0.4834769666194916,0.389987051486969
1631023568949,0.393689900636673,-0.4433436393737793,-0.4944596588611603,0.3935840427875519
1631023569218,0.4255078136920929,-0.4458673894405365,-0.4989054203033447,0.3968878984451294
1631023569234,0.4496739208698272,-0.439534991979599,-0.4894715547561645,0.3973419368267059
1631023569249,0.4669180512428283,-0.4345127046108246,-0.4659644961357116,0.4048245549201965
1631023569421,0.479764848947525,-0.4371561110019684,-0.4379739463329315,0.4240413010120392
1631023569437,0.492223709821701,-0.4449172914028168,-0.4162856638431549,0.4504977762699127
1631023569515,0.5011059045791626,-0.4473288953304291,-0.4060976207256317,0.4772013127803802
1631023569702,0.5006371140480042,-0.4371005892753601,-0.4053117036819458,0.4968778789043426
1631023569765,0.4949717819690704,-0.4177977442741394,-0.4079643785953522,0.5097722411155701
1631023569827,0.4856736361980438,-0.399679958820343,-0.4075877666473388,0.5190316438674927
1631023569983,0.4799206256866455,-0.3910571634769439,-0.4011401832103729,0.5282056927680969
1631023570108,0.4793896079063415,-0.3943577408790588,-0.3893716633319855,0.5411011576652527
1631023570329,0.4799039363861084,-0.404279500246048,-0.3755691945552826,0.5561792850494385
1631023570376,0.4781180024147033,-0.4144467711448669,-0.3630926012992859,0.5684061050415039
1631023570407,0.4648923873901367,-0.4229377210140228,-0.3547554016113281,0.5734182596206665
1631023570486,0.4383086264133453,-0.4306570887565613,-0.3525470495223999,0.5711061954498291
1631023570595,0.4077560007572174,-0.4389114677906036,-0.3567178845405578,0.5684071183204651
1631023570626,0.3852993547916412,-0.442082941532135,-0.3663635849952698,0.5659496188163757
1631023570736,0.3766041100025177,-0.4317637085914612,-0.3805581033229828,0.5622669458389282
1631023570876,0.3773145079612732,-0.407624214887619,-0.3967273831367492,0.5540918707847595
1631023570985,0.3783015608787536,-0.3801164329051971,-0.410175085067749,0.5408782958984375
1631023571032,0.378759354352951,-0.3619329631328583,-0.4163170456886291,0.5292477011680603
1631023571173,0.3846727013587951,-0.3562666773796081,-0.4150250256061554,0.5228450894355774
1631023571282,0.3988367021083832,-0.3549407124519348,-0.4093981683254242,0.5220496654510498
1631023571454,0.4185854494571686,-0.3463022410869598,-0.4023122787475586,0.5256707668304443
1631023571501,0.4357807338237762,-0.3250932693481445,-0.3959130346775055,0.5261003375053406
1631023571657,0.4514999091625213,-0.2969528436660766,-0.3945152461528778,0.5194998979568481
1631023571767,0.461312472820282,-0.2724979817867279,-0.401563286781311,0.5057088732719421
1631023571892,0.4669411480426788,-0.2566801011562347,-0.4157180786132812,0.4883674085140228
1631023571954,0.4716185927391052,-0.2473959028720855,-0.4318892359733581,0.4769900143146515
1631023572001,0.478609025478363,-0.2405482977628708,-0.4443768262863159,0.4720997214317322
1631023572110,0.4879654943943023,-0.2332338541746139,-0.4496577084064483,0.4688526093959808
1631023572237,0.4960056245326996,-0.2286222726106643,-0.4469366371631622,0.467851847410202
1631023572300,0.5011124610900879,-0.2308770269155502,-0.4367270767688751,0.4675832688808441
1631023572394,0.4974236786365509,-0.2392818331718444,-0.4222584068775177,0.4701903462409973
1631023572503,0.4913671314716339,-0.2458598315715789,-0.4088920354843139,0.4753790199756622
1631023572597,0.4883938729763031,-0.2429613471031189,-0.3994363844394684,0.4814931452274322
1631023572706,0.4874286353588104,-0.2342341393232345,-0.3937898576259613,0.4860676825046539
1631023572862,0.4899263083934784,-0.2318101972341537,-0.3913706243038177,0.484375923871994
1631023572940,0.4939490854740143,-0.2425895631313324,-0.3915365934371948,0.4767541289329529
1631023573067,0.4978382885456085,-0.2618553340435028,-0.3924193978309631,0.4679338932037353
1631023573130,0.5029931664466858,-0.2754591703414917,-0.3885791003704071,0.4664899408817291
1631023573177,0.5140447616577148,-0.2730389833450317,-0.3757111728191376,0.4744829833507538
1631023573410,0.5271849036216736,-0.2568898797035217,-0.353957325220108,0.4861232042312622
1631023573457,0.5411053895950317,-0.23721843957901,-0.3277347087860107,0.4957336187362671
1631023573613,0.5444310307502747,-0.2217636555433273,-0.3041316270828247,0.5000923871994019
1631023573707,0.524490475654602,-0.2080653756856918,-0.28950235247612,0.4963716268539428
1631023573707,0.5370868444442749,-0.2127369344234466,-0.2903564274311065,0.4987173676490783
1631023573770,0.5118380188941956,-0.2052715867757797,-0.2981679737567901,0.4953772127628326
1631023573926,0.5091640949249268,-0.2027722597122192,-0.3078065812587738,0.4969942569732666
1631023574116,0.5104433298110962,-0.2018297165632248,-0.3080924451351166,0.5004215240478516
1631023574147,0.5141014456748962,-0.2044393867254257,-0.2943750619888305,0.4987256228923797
1631023574178,0.5152904391288757,-0.2089941054582595,-0.2708827555179596,0.4939909875392914
1631023574397,0.5067312717437744,-0.2094334661960601,-0.2464309781789779,0.4898056387901306
1631023574507,0.491353690624237,-0.2006580978631973,-0.2274162471294403,0.4850694537162781
1631023574741,0.4747969210147857,-0.1862591207027435,-0.2157125920057296,0.4840144217014313
1631023574788,0.456042468547821,-0.1759792864322662,-0.211740106344223,0.4843722879886627
1631023574803,0.4360259175300598,-0.1751115620136261,-0.2159009575843811,0.4903226494789123
1631023574819,0.4139191508293152,-0.1808452904224395,-0.2274208813905716,0.5044304728507996
1631023574866,0.3911924064159393,-0.1872896403074264,-0.2421853393316269,0.5174756646156311
1631023575038,0.3776773810386657,-0.1919703036546707,-0.254485160112381,0.5299727916717529
1631023575147,0.3734719753265381,-0.196861058473587,-0.2594988942146301,0.5452982187271118
1631023575303,0.3737376630306244,-0.2035935819149017,-0.2561366558074951,0.5621806979179382
1631023575366,0.3737057447433471,-0.2102451771497726,-0.2492361813783645,0.5780083537101746
1631023575444,0.3709286153316498,-0.2127067893743515,-0.2462250143289566,0.5889861583709717
1631023575522,0.3643648326396942,-0.2089003920555114,-0.2538701593875885,0.5949805378913879
1631023575709,0.3561230599880218,-0.2019291371107101,-0.2750704288482666,0.6001760959625244
1631023575850,0.3561444878578186,-0.1971207708120346,-0.3047360479831695,0.6062150597572327
1631023575944,0.3654431700706482,-0.1990560442209243,-0.3319819867610931,0.6110571622848511
1631023576022,0.3848077952861786,-0.2095524817705154,-0.3467247188091278,0.6149213314056396
1631023576196,0.4152597188949585,-0.2417651861906051,-0.3381133675575256,0.6266278624534607
1631023576196,0.4030657410621643,-0.2261202186346054,-0.3471662700176239,0.6205573081970215
1631023576290,0.4259154200553894,-0.2482850700616836,-0.3223707377910614,0.629471480846405
1631023576384,0.4420877397060394,-0.24371437728405,-0.3022359609603882,0.6277095079421997
1631023576478,0.4625315070152282,-0.2339813560247421,-0.2831598222255707,0.6256160736083984
1631023576540,0.4852699637413025,-0.2249380648136139,-0.2704368829727173,0.6252435445785522
1631023576665,0.5068700313568115,-0.2186148762702942,-0.2662338018417358,0.6262171864509583
1631023576712,0.5228453874588013,-0.2148520946502685,-0.2697442770004272,0.6260461211204529
1631023576852,0.5338345170021057,-0.2129253447055816,-0.2767728567123413,0.6221782565116882
1631023577009,0.5408669114112854,-0.2151968330144882,-0.2815462946891784,0.614955484867096
1631023577071,0.5417952537536621,-0.2238989472389221,-0.2782000005245209,0.6130306720733643
1631023577136,0.5456339120864868,-0.2338160127401352,-0.2633465826511383,0.6138079762458801
1631023577277,0.5550886392593384,-0.233593538403511,-0.2399574220180511,0.6167517304420471
1631023577402,0.5653449296951294,-0.2146010249853134,-0.216732382774353,0.6254100203514099
1631023577464,0.5724775195121765,-0.1826631277799606,-0.2032539248466491,0.6399702429771423
1631023577558,0.5722414255142212,-0.1519505530595779,-0.2042156904935836,0.6523563265800476
1631023577699,0.5687359571456909,-0.1326607167720794,-0.2159145623445511,0.6608694195747375
1631023577824,0.560666024684906,-0.1272269487380981,-0.2300331890583038,0.6311286687850952
1631023577886,0.5515623092651367,-0.1323866546154022,-0.2398137599229812,0.5947110056877136
1631023578011,0.5419902205467224,-0.1416446417570114,-0.244011789560318,0.5531849265098572
1631023578058,0.5352033376693726,-0.1489202827215194,-0.243716761469841,0.5080212354660034
1631023578186,0.531944751739502,-0.1508033275604248,-0.2352083474397659,0.4623240232467651
1631023578279,0.53911954164505,-0.146963283419609,-0.2114905714988708,0.4245816171169281
1631023578389,0.5579667687416077,-0.1393608748912811,-0.2015063762664795,0.3809281289577484
1631023578467,0.5823261737823486,-0.1281467378139495,-0.1896207183599472,0.3407591879367828
1631023578608,0.6097128391265869,-0.1080303788185119,-0.1789097189903259,0.3407591879367828
1631023578655,0.6328176856040955,-0.0747125372290611,-0.1744111478328704,0.3407591879367828
1631023578779,0.646477460861206,-0.0351672433316707,-0.1813751310110092,0.3407591879367828
1631023578967,0.6566277742385864,-0.004214584827423,-0.1994418501853943,0.3407591879367828
1631023579061,0.6592854857444763,0.0095839872956275,-0.2193860411643982,0.3407591879367828
1631023579154,0.6606806516647339,0.0100446036085486,-0.2252258658409118,0.3407591879367828
1631023579170,0.6720930933952332,0.0080725373700261,-0.208344429731369,0.3407591879367828
1631023579297,0.6871519088745117,0.0100713009014725,-0.17711141705513,0.3499178290367126
1631023579376,0.7018489837646484,0.0139676621183753,-0.1455997377634048,0.3613474667072296
1631023579469,0.7169686555862427,0.0167583189904689,-0.1455997377634048,0.3613474667072296
1631023579735,0.7296002507209778,0.0176140815019607,-0.1455997377634048,0.3613474667072296
1631023579766,0.7409597039222717,0.0182387642562389,-0.1455997377634048,0.3613474667072296
1631023579797,0.7471986413002014,0.0204751472920179,-0.1455997377634048,0.3613474667072296
1631023579860,0.7434226870536804,0.0241637453436851,-0.1455997377634048,0.3613474667072296
1631023580049,0.7332045435905457,0.0258702728897333,-0.1455997377634048,0.3613474667072296
1631023580221,0.7226365804672241,0.0178683269768953,-0.1455997377634048,0.3613474667072296
1631023580284,0.7077155709266663,-0.0086094550788402,-0.1455997377634048,0.3613474667072296
1631023580331,0.7077155709266663,-0.0566155798733234,-0.1455997377634048,0.3613474667072296
1631023580362,0.7077155709266663,-0.1180324777960777,-0.1455997377634048,0.3613474667072296
1631023580456,0.7077155709266663,-0.1759004890918731,-0.3196732997894287,0.3613474667072296
1631023580581,0.7077155709266663,-0.2165203541517257,-0.315620869398117,0.3613474667072296
1631023580752,0.7077155709266663,-0.2404835224151611,-0.3008967638015747,0.3613474667072296
1631023580815,0.7077155709266663,-0.2548191547393799,-0.2839488983154297,0.3613474667072296
1631023580909,0.7077155709266663,-0.2611080408096313,-0.2689351737499237,0.3613474667072296
1631023581002,0.7077155709266663,-0.2617455720901489,-0.2565491497516632,0.3613474667072296
1631023581162,0.7077155709266663,-0.2606706023216247,-0.2441041320562362,0.3613474667072296
1631023581240,0.7077155709266663,-0.2616755366325378,-0.2251762151718139,0.3613474667072296
1631023581397,0.7077155709266663,-0.2658955156803131,-0.1966163665056228,0.3613474667072296
1631023581412,0.7077155709266663,-0.2724874317646026,-0.1646870523691177,0.3613474667072296
1631023581553,0.7077155709266663,-0.2796468734741211,-0.1410679072141647,0.3613474667072296
1631023581631,0.5084264874458313,-0.2839697301387787,-0.1325155645608902,0.3613474667072296
1631023581740,0.5062181949615479,-0.2817317247390747,-0.1289873421192169,0.3613474667072296
1631023581990,0.4991112947463989,-0.2715143859386444,-0.132117211818695,0.5909779667854309
1631023582037,0.4769217669963836,-0.2563683688640594,-0.1353242993354797,0.5438851714134216
1631023582053,0.451057493686676,-0.2426641583442688,-0.1378887891769409,0.518432080745697
1631023582094,0.4292753636837005,-0.2362287938594818,-0.1420266926288604,0.5111673474311829
1631023582259,0.4156767725944519,-0.2399675995111465,-0.1482965350151062,0.5131966471672058
1631023582431,0.4119449257850647,-0.2521210610866546,-0.1551865637302398,0.5219510197639465
1631023582509,0.4119449257850647,-0.2670907080173492,-0.1621489375829696,0.5219510197639465
1631023582572,0.4119449257850647,-0.2754721939563751,-0.1704043447971344,0.5219510197639465
1631023582697,0.4119449257850647,-0.2832586169242859,-0.1826909184455871,0.5219510197639465
1631023582947,0.4119449257850647,-0.2910684049129486,-0.2013422101736068,0.5219510197639465
1631023583040,0.4119449257850647,-0.303478330373764,-0.2282202243804931,0.5219510197639465
1631023583087,0.4119449257850647,-0.3243332803249359,-0.2632123827934265,0.5219510197639465
1631023583212,0.3887439966201782,-0.3759280741214752,-0.3332318067550659,0.5219510197639465
1631023583212,0.4119449257850647,-0.3508747816085815,-0.3013573288917541,0.5219510197639465
1631023583447,0.3676935136318207,-0.3964084982872009,-0.3432243764400482,0.5106914043426514
1631023583556,0.3461727499961853,-0.41658815741539,-0.3407235443592071,0.5046413540840149
1631023583665,0.332817792892456,-0.4420575797557831,-0.3225623667240143,0.5129399299621582
1631023583681,0.332817792892456,-0.46773761510849,-0.2934864461421966,0.5129399299621582
1631023583712,0.332817792892456,-0.4205047786235809,-0.2628418505191803,0.5129399299621582
1631023583822,0.332817792892456,-0.3454149663448334,-0.2388459146022796,0.5129399299621582
1631023583993,0.332817792892456,-0.2711315155029297,-0.2259160429239273,0.5129399299621582
1631023584134,0.332817792892456,-0.2210296839475631,-0.2235465794801712,0.5129399299621582
1631023584181,0.6046236157417297,-0.2195340692996978,-0.2277990877628326,0.5129399299621582
1631023584231,0.6075005531311035,-0.2121332883834839,-0.2337508052587509,0.5603054165840149
