timestamp,TP9,AF7,AF8,TP10
1630070112780,-0.1083181127905845,0.853111982345581,-0.031646504998207,0.6273756623268127
1630070112877,-0.1083181127905845,0.8554784059524536,-0.0447833538055419,0.6273756623268127
1630070113033,-0.1083181127905845,0.8580605983734131,-0.04685690253973,0.6273756623268127
1630070113096,0.170386716723442,0.8563998937606812,-0.0326387919485569,0.6273756623268127
1630070113221,0.1616237759590149,0.8476442694664001,0.0028113108128309,1.017542839050293
1630070113283,0.146942064166069,0.8160123825073242,0.0460437536239624,1.0802226066589355
1630070113393,0.1438295394182205,0.7401106953620911,0.077447772026062,1.1195942163467407
1630070113486,0.1460146754980087,0.6030123233795166,0.096571072936058,1.1278555393218994
1630070113625,0.1487909853458404,0.4037810564041137,0.1352522373199463,1.1067006587982178
1630070113703,0.1563654839992523,0.169178158044815,0.2271053344011306,1.0759036540985107
1630070113836,0.1664095371961593,-0.034256026148796,0.3438543677330017,1.0495004653930664
1630070113889,0.1768703013658523,-0.1545053571462631,0.4417445361614227,1.030021905899048
1630070113994,0.1858758628368377,-0.197120651602745,0.5047637224197388,1.0121278762817385
1630070114103,0.1881608217954635,-0.1985197812318802,0.5321990847587585,0.9930569529533386
1630070114243,0.1915647387504577,-0.1739799380302429,0.5401214957237244,0.9709776043891908
1630070114331,0.1985763758420944,-0.1424005329608917,0.5434022545814514,0.9478460550308228
1630070114409,0.1933168023824691,-0.1153766438364982,0.5445119142532349,0.92400062084198
1630070114495,0.176234021782875,-0.0939937680959701,0.5438088774681091,0.9023749232292176
1630070114590,0.1569232046604156,-0.0756997317075729,0.5404947400093079,0.8716650009155273
1630070114684,0.1459658443927765,-0.0601961612701416,0.5317362546920776,0.8177443742752075
1630070114874,0.144055038690567,-0.0436774045228958,0.5166847109794617,0.732330322265625
1630070114938,0.1409235447645187,-0.0299569796770811,0.4991169273853302,0.6242595314979553
1630070115034,0.1361236125230789,-0.0157900974154472,0.481851726770401,0.5197809934616089
1630070115147,0.1257927417755127,0.0020319647155702,0.456634908914566,0.4598380625247955
1630070115225,0.1054764166474342,0.0193633344024419,0.4021248519420624,0.439175009727478
1630070115303,0.0758019089698791,0.0298391077667474,0.3026144504547119,0.4240517914295196
1630070115462,0.0397065766155719,0.0345222279429435,0.1610211431980133,0.401668906211853
1630070115524,0.00032144607394,0.0373528376221656,0.0097243757918477,0.373410165309906
1630070115619,-0.034325011074543,0.0383505597710609,-0.0462411493062973,0.3465246558189392
1630070115771,-0.0766801834106445,0.0267954934388399,0.039131261408329,0.3340806663036346
1630070115825,-0.1198032572865486,-0.001006030710414,0.175771102309227,0.3339074254035949
1630070115935,-0.1523373425006866,-0.033188059926033,0.3043612241744995,0.329374223947525
1630070116094,-0.1608757525682449,-0.0579963624477386,0.4098908901214599,0.3225649297237396
1630070116141,-0.1467560976743698,-0.0649864301085472,0.4878697097301483,0.324226826429367
1630070116262,-0.103604145348072,-0.0452969670295715,0.5502654314041138,0.3408015668392181
1630070116340,-0.0432132743299007,-0.0134538235142827,0.6139854788780212,0.3601636588573456
1630070116465,0.0266147945076227,0.0140519179403781,0.6821066737174988,0.3795542418956756
1630070116512,0.110989473760128,0.0249872654676437,0.7394968271255493,0.5177381634712219
1630070116668,0.1179765164852142,0.0179931577295064,0.7774423360824585,0.6217997074127197
1630070116778,0.1322897225618362,0.0003737184742931,0.7953290939331055,0.6870989799499512
1630070116902,0.1535595953464508,-0.0180027112364768,0.798331081867218,0.7265663743019104
1630070116967,0.1791935712099075,-0.029274957254529,0.7961180806159973,0.7451527118682861
1630070117045,0.2076678425073623,-0.0299990642815828,0.7930124998092651,0.7562156319618225
1630070117154,0.2398490607738495,-0.0200243964791297,0.7852784395217896,0.7732378244400024
1630070117277,0.2787070274353027,-0.0016514054732397,0.767898440361023,0.7982059717178345
1630070117371,0.3263190984725952,0.0226698815822601,0.7394090890884399,0.8264369368553162
1630070117465,0.3834406733512878,0.0438795946538448,0.7027960419654846,0.8614251017570496
1630070117559,0.4456676840782165,0.0625537186861038,0.6610972285270691,0.899865984916687
1630070117637,0.5097946524620056,0.0874002575874328,0.6191522479057312,0.9438949227333068
1630070117762,0.5097946524620056,0.1199477165937423,0.5727119445800781,0.9438949227333068
1630070117887,0.5097946524620056,0.1087171882390976,0.50631183385849,0.9438949227333068
1630070117996,0.5097946524620056,0.10287456959486,0.4034396708011627,0.9438949227333068
1630070118058,0.5097946524620056,0.1243684962391853,0.2708169221878052,0.9147410988807678
1630070118183,0.5097946524620056,0.1390042006969452,0.1342653930187225,0.8655188083648682
1630070118262,0.5097946524620056,0.1525802165269851,0.0347535051405429,0.8863749504089355
1630070118371,0.5097946524620056,0.1643724739551544,-0.0027628683019429,0.8742340803146362
1630070118496,0.5097946524620056,0.1675287038087844,-0.0046221194788813,0.8507921695709229
1630070118590,0.5097946524620056,0.1592539101839065,0.0007437708554789,0.827155590057373
1630070118683,0.5097946524620056,0.1381771862506866,0.0160373840481042,0.7911850214004517
1630070118761,0.5097946524620056,0.1201788857579231,0.0438036695122718,0.7911850214004517
1630070118874,0.5097946524620056,0.155816450715065,0.0885307118296623,0.7911850214004517
1630070118983,0.5097946524620056,0.3041975498199463,0.1420220136642456,0.7911850214004517
1630070119108,0.5097946524620056,0.514430046081543,0.2097078561782837,0.7911850214004517
1630070119217,0.5097946524620056,0.6997896432876587,0.2898756563663482,0.7911850214004517
1630070119296,0.5097946524620056,0.8251198530197144,0.3646233677864074,0.7911850214004517
1630070119389,0.5097946524620056,0.8736453056335449,0.4180757999420166,0.7911850214004517
1630070119499,0.5097946524620056,0.879079282283783,0.4474285542964935,0.7911850214004517
1630070119577,0.5097946524620056,0.8836499452590942,0.4650242328643799,0.7911850214004517
1630070119717,0.5097946524620056,0.8827927708625793,0.4870934188365936,0.7911850214004517
1630070119832,0.5097946524620056,0.8808490633964539,0.5183826684951782,0.6546692848205566
1630070119914,0.5097946524620056,0.8795210719108582,0.5479691624641418,0.6546692848205566
1630070120008,0.5097946524620056,0.8793275356292725,0.5667726993560791,0.6546692848205566
1630070120117,0.5097946524620056,0.8795559406280518,0.575871467590332,0.6546692848205566
1630070120211,0.5097946524620056,0.8798760175704956,0.575424313545227,0.6546692848205566
1630070120321,0.4430951178073883,0.8786704540252686,0.5684322118759155,0.6546692848205566
1630070120446,0.4563817381858825,0.8696032166481018,0.5583653450012207,0.6546692848205566
1630070120508,0.4779777526855469,0.8366253972053528,0.5459903478622437,0.6546692848205566
1630070120617,0.493274837732315,0.7590413689613342,0.5244346857070923,0.6546692848205566
1630070120711,0.4950505197048187,0.6186562180519104,0.485662043094635,0.6546692848205566
1630070120820,0.486398845911026,0.407940000295639,0.4332769811153412,0.6546692848205566
1630070120930,0.4701736271381378,0.1510023176670074,0.3849748373031616,0.6546692848205566
1630070121060,0.4490424394607544,-0.0729134753346443,0.3624315857887268,0.9345374703407288
1630070121122,0.4249663650989532,-0.1815027892589569,0.3643095195293426,0.8984259963035583
1630070121230,0.3980365693569183,-0.2168963402509689,0.3633616864681244,0.860652506351471
1630070121324,0.371047168970108,-0.225178062915802,0.3431282639503479,0.8178735375404358
1630070121402,0.3465197086334228,-0.2308867424726486,0.3128750920295715,0.7748192548751831
1630070121543,0.3029593229293823,-0.2374185621738433,0.2884915769100189,0.7399072051048279
1630070121636,0.2781364619731903,-0.2363410294055938,0.273123949766159,0.7140265703201294
1630070121730,0.2620183527469635,-0.2278328537940979,0.2637989521026611,0.6983597874641418
1630070121808,0.2356331646442413,-0.2195292711257934,0.2495090812444687,0.6865530610084534
1630070121936,0.1907022446393966,-0.2258764505386352,0.219285249710083,0.6774555444717407
1630070122014,0.1245457828044891,-0.2525107562541961,0.1736838817596435,0.6723249554634094
1630070122154,0.046083003282547,-0.2942202091217041,0.1200258061289787,0.6734048128128052
1630070122264,-0.0308320578187704,-0.3332875370979309,0.0780360847711563,0.6221813559532166
1630070122358,-0.0948577374219894,-0.3590337038040161,0.0635251477360725,0.5985105633735657
1630070122451,-0.1312085837125778,-0.3612369894981384,0.070049375295639,0.5772208571434021
1630070122514,-0.1307020932435989,-0.3460787534713745,0.0725378841161727,0.5774881839752197
1630070122607,-0.0866179540753364,-0.3246566355228424,0.0570100136101245,0.6123694181442261
1630070122767,-0.0264662001281976,-0.3068017363548279,0.0289999432861804,0.6624694466590881
1630070122862,0.0238138008862733,-0.2885043919086456,0.0043834382668137,0.7227553725242615
1630070122956,0.0559098869562149,-0.2651844918727875,-0.006324419286102,0.7824087142944336
1630070123050,0.0741971060633659,-0.2441026121377945,-0.0080645671114325,0.8344123363494873
1630070123128,0.0785028040409088,-0.2336108237504959,-0.0029793048743158,0.8656341433525085
1630070123213,0.0757212415337562,-0.2330194115638733,0.0063701700419187,0.8829527497291565
1630070123401,0.0703922733664512,-0.2412495464086532,0.0162074025720357,0.9011619687080384
1630070123463,0.0685276240110397,-0.2450399100780487,0.0266355480998754,0.9207741618156432
1630070123557,0.0835293233394622,-0.235280841588974,0.0400864742696285,0.9409406781196594
1630070123652,0.1115022376179695,-0.2194617837667465,0.0527600459754467,0.932844579219818
1630070123744,0.1427057981491089,-0.2092096656560897,0.0652170404791832,0.918440580368042
1630070123838,0.1670594215393066,-0.2047450095415115,0.0744117051362991,0.9024642109870912
1630070123990,0.1744862645864486,-0.2085218429565429,0.0768404155969619,0.8900471329689026
1630070124101,0.1643325984477996,-0.2191633582115173,0.0693330764770507,0.8730564117431641
1630070124180,0.1360806226730346,-0.2370957434177398,0.0531094670295715,0.8415627479553223
1630070124261,0.1017390042543411,-0.257340520620346,0.0364021137356758,0.8016093969345093
1630070124357,0.0676940008997917,-0.2813186347484588,0.0175837073475122,0.7501788139343262
1630070124456,0.0372986570000648,-0.3102282881736755,-0.0067627308890223,0.6850115656852722
1630070124576,0.0089964028447866,-0.3400673568248749,-0.0330163091421127,0.5966629385948181
1630070124717,-0.017118452116847,-0.3601207435131073,-0.0574674978852272,0.5203685164451599
1630070124792,-0.041353914886713,-0.3663725256919861,-0.0724854171276092,0.509066641330719
1630070124848,-0.0566094405949115,-0.3550756573677063,-0.0557969771325588,0.5037047863006592
1630070124954,-0.0681232213973999,-0.3159443140029907,0.0205525644123554,0.506280779838562
1630070125067,-0.0969663485884666,-0.2470424324274063,0.1767061948776245,0.530569314956665
1630070125207,-0.1421524733304977,-0.1369722783565521,0.3828146159648895,0.5851227045059204
1630070125295,-0.1717918217182159,-0.000337767181918,0.5728257894515991,0.6622312068939209
1630070125405,-0.1376002728939056,0.1242836043238639,0.7130913138389587,0.7346669435501099
1630070125467,-0.0357939638197422,0.2131053954362869,0.7964828610420227,0.7887872457504272
1630070125561,0.0751127526164054,0.260483056306839,0.8376233577728271,0.8264533877372742
1630070125673,0.0851636156439781,0.2773986160755157,0.8601766228675842,0.8380412459373474
1630070125814,0.0952150821685791,0.2856759428977966,0.8712115287780762,0.8482440710067749
1630070125894,0.1109467223286628,0.3086576163768768,0.8959556818008423,0.8587501049041748
1630070125993,0.1360838413238525,0.3704432547092438,0.9235752820968628,0.8725808262825012
1630070126079,0.1680382639169693,0.472400963306427,0.9542545676231384,0.8946348428726196
1630070126172,0.2069049179553985,0.5817548632621765,0.9878706336021424,0.9237435460090636
1630070126266,0.2518119513988495,0.6668432354927063,1.0241634845733645,0.9615057110786438
1630070126422,0.3028439581394195,0.7180799245834351,1.0614944696426392,1.0030932426452637
1630070126500,0.3620495200157165,0.7392154335975647,1.0957109928131104,1.0482172966003418
1630070126594,0.4336021244525909,0.740479052066803,1.117105484008789,1.0868496894836426
1630070126672,0.5148226618766785,0.7289827466011047,1.110698699951172,1.1068053245544434
1630070126797,0.5148226618766785,0.7069224119186401,1.0183721780776978,1.1068053245544434
1630070126909,0.5148226618766785,0.6761953234672546,0.8810566663742065,1.1068053245544434
1630070127050,0.5148226618766785,0.6461390256881714,0.7309314608573914,1.1068053245544434
1630070127160,0.5148226618766785,0.6273611783981323,0.6185482144355774,1.1068053245544434
1630070127228,0.5148226618766785,0.6221736073493958,0.5411487221717834,1.1068053245544434
1630070127306,0.5148226618766785,0.6219866871833801,0.4988514482975006,1.1068053245544434
1630070127431,0.5148226618766785,0.6148176789283752,0.350121259689331,1.1068053245544434
1630070127494,0.5148226618766785,0.5835634469985962,0.3079365193843841,1.1068053245544434
1630070127650,0.5148226618766785,0.508156418800354,0.2672277092933655,1.1068053245544434
1630070127744,0.5148226618766785,0.3742800652980804,0.2328032851219177,0.8158586025238037
1630070127822,-0.326979249715805,0.1817896962165832,0.2072461694478988,0.7734033465385437
1630070127916,-0.3362830281257629,-0.0428465604782104,0.1877212524414062,0.7298364639282227
1630070127994,-0.3304723501205444,-0.2290403544902801,0.1711263209581375,0.6863391995429993
1630070128087,-0.3122382760047912,-0.326820820569992,0.1567704379558563,0.6491909623146057
1630070128283,-0.307864785194397,-0.3704115748405456,0.1482269167900085,0.6241765022277832
1630070128330,-0.3002185523509979,-0.3976594805717468,0.09817636013031,0.6089949607849121
1630070128426,-0.2366259396076202,-0.3913335800170898,0.0651491060853004,0.5980866551399231
1630070128552,-0.1457204520702362,-0.3720707595348358,0.043178092688322,0.5880427360534668
1630070128643,-0.0780386328697204,-0.3555751144886017,0.0160781238228082,0.5737950205802917
1630070128736,-0.0458382479846477,-0.3458585441112518,-0.0187339913100004,0.5603471398353577
1630070128865,-0.0358895249664783,-0.3402673304080963,-0.0513597354292869,0.554684042930603
1630070128974,-0.0330710224807262,-0.3407019972801208,-0.0750163048505783,0.5409491658210754
1630070129036,-0.0306550879031419,-0.3380225300788879,-0.086948923766613,0.5497027635574341
1630070129115,-0.0297140814363956,-0.3248050212860107,-0.0920634120702743,0.586801290512085
1630070129255,-0.0336865037679672,-0.3051387667655945,-0.0951693281531333,0.6445345878601074
1630070129333,-0.0362200662493705,-0.2840299606323242,-0.1000106781721115,0.710404634475708
1630070129474,-0.0391683168709278,-0.2650552093982696,-0.1082750335335731,0.7693325877189636
1630070129552,-0.0422504171729087,-0.2464253157377243,-0.1207654178142547,0.8110249638557434
1630070129630,-0.0497320480644702,-0.2213844209909439,-0.1387828588485717,0.8309516310691833
1630070129724,-0.0567569583654403,-0.1916625499725341,-0.1680028438568115,0.8423643112182617
1630070129849,-0.0682898536324501,-0.1675958186388015,-0.218626007437706,0.8517953157424927
1630070129927,-0.1054737418889999,-0.1577352285385131,-0.2839681506156921,0.8602437973022461
1630070130068,-0.1733946353197097,-0.161901980638504,-0.3400109708309173,0.8666695356369019
1630070130177,-0.2556176483631134,-0.1768408268690109,-0.3502249121665954,0.8738521337509155
1630070130271,-0.3220014274120331,-0.1984657645225525,-0.3164283335208893,0.8802974224090576
1630070130364,-0.3658041656017303,-0.2213307172060012,-0.2714578211307525,0.8859651684761047
1630070130442,-0.4038739502429962,-0.2362280935049057,-0.2314492315053939,0.8944505453109741
1630070130552,-0.436010867357254,-0.24010069668293,-0.2042348831892013,0.8970178961753845
1630070130692,-0.4577407538890838,-0.2401682585477829,-0.1833177059888839,0.8872705101966858
1630070130786,-0.4620586633682251,-0.242474153637886,-0.1691477596759796,0.8623722791671753
1630070130867,-0.4677063822746277,-0.2508163750171661,-0.1633797585964203,0.824901819229126
1630070130961,-0.4781857430934906,-0.2666551172733307,-0.1606360226869583,0.77625972032547
1630070131039,-0.4798827767372131,-0.296072781085968,-0.1545282006263733,0.7319198846817017
1630070131148,-0.475048691034317,-0.3442901372909546,-0.1382349133491516,0.7086150050163269
1630070131289,-0.4729372560977936,-0.386602908372879,-0.106703832745552,0.7208455801010132
1630070131382,-0.4620935916900635,-0.3755511939525604,-0.0582031644880771,0.7220510244369507
1630070131476,-0.4511207044124603,-0.1906728297472,0.0215856842696666,0.7234605550765991
1630070131570,-0.4520066678524017,0.0883955210447311,0.1275371462106704,0.7288535237312317
1630070131679,-0.4610867202281952,0.3296227753162384,0.2295814007520675,0.738101065158844
1630070131773,-0.4818525016307831,0.4878597557544708,0.3045865893363952,0.7509734034538269
1630070131932,-0.511911928653717,0.5732269287109375,0.3476049900054931,0.7612345218658447
1630070132010,-0.5455886125564575,0.6081730723381042,0.3648480176925659,0.7480159997940063
1630070132104,-0.5605093836784363,0.6173862218856812,0.3664994537830353,0.7062020897865295
1630070132198,-0.561603844165802,0.6185636520385742,0.3629330694675445,0.6472957134246826
1630070132276,-0.5308154225349426,0.6189157366752625,0.3591461181640625,0.5909386873245239
1630070132370,-0.5308154225349426,0.6190453171730042,0.3551370501518249,0.5500088930130005
1630070132510,-0.5308154225349426,0.6185315847396851,0.3515406250953674,0.5500088930130005
1630070132651,-0.5308154225349426,0.6177757382392883,0.3488359749317169,0.5500088930130005
1630070132729,-0.5308154225349426,0.6177082657814026,0.3455509841442108,0.5500088930130005
1630070132864,-0.5308154225349426,0.6159451007843018,0.3383065462112427,0.5500088930130005
1630070132898,-0.5308154225349426,0.6092361807823181,0.3240328431129455,0.5500088930130005
1630070132972,-0.5308154225349426,0.58049476146698,0.289501279592514,0.5500088930130005
1630070133128,-0.5308154225349426,0.5057255625724792,0.2196173965930938,0.5500088930130005
1630070133222,-0.5308154225349426,0.358582854270935,0.1066448614001274,0.5500088930130005
1630070133331,-0.2882862687110901,0.1259426027536392,-0.0418469682335853,0.5500088930130005
1630070133440,-0.2557947933673858,-0.1801187545061111,-0.1953508406877517,0.5500088930130005
1630070133518,-0.2151287645101547,-0.4777328372001648,-0.3031841516494751,0.5847983956336975
1630070133594,-0.1628631949424743,-0.6412911415100098,-0.3392237424850464,0.580345869064331
1630070133730,-0.1123367622494697,-0.6846545934677124,-0.3395467102527618,0.5929251313209534
1630070133824,-0.0708899199962616,-0.687484085559845,-0.3328852355480194,0.6208178400993347
1630070133936,-0.0478479899466037,-0.6400793194770813,-0.3224711716175079,0.659250020980835
1630070134030,-0.0394085273146629,-0.5498430132865906,-0.3129667639732361,0.6997822523117065
1630070134123,-0.0349473170936107,-0.4608630537986755,-0.3090159893035888,0.7331234216690063
1630070134194,-0.0263682510703802,-0.3940253853797912,-0.3137722611427307,0.7452368140220642
1630070134368,-0.0074958032928407,-0.3504220247268677,-0.3267253339290619,0.7393157482147217
1630070134447,0.0150446761399507,-0.3075484037399292,-0.3387863934040069,0.7236533761024475
1630070134556,0.0470881909132003,-0.244396299123764,-0.3420101106166839,0.7102409601211548
1630070134634,0.0609704591333866,-0.170983076095581,-0.3371397852897644,0.7012021541595459
1630070134715,0.0683692768216133,-0.1086951196193695,-0.3274086713790893,0.7020436525344849
1630070134839,0.0763856247067451,-0.0643525198101997,-0.3125319182872772,0.7094847559928894
1630070134973,0.0852022171020507,-0.0331560783088207,-0.296828955411911,0.7192962169647217
1630070135068,0.0871036350727081,-0.0098435021936893,-0.2807292342185974,0.7334484457969666
1630070135130,0.0744744017720222,0.0065219104290008,-0.2786651253700256,0.7439479827880859
1630070135222,0.0482189059257507,0.015046689659357,-0.2819671928882599,0.7380854487419128
1630070135319,0.01232969481498,0.0230346918106079,-0.2781029641628265,0.7165931463241577
1630070135412,-0.0236239153891801,0.0329681932926178,-0.2621444761753082,0.6881875991821289
1630070135572,-0.0282986629754304,0.0477719865739345,-0.2246630489826202,0.6569862961769104
1630070135690,-0.0315013937652111,0.0688133239746093,-0.166104644536972,0.6253311038017273
1630070135743,-0.0406227000057697,0.1414564549922943,-0.0751698762178421,0.6019808053970337
1630070135859,-0.0681632533669471,0.3142280876636505,0.0257893092930316,0.595975935459137
1630070135936,-0.1172531843185424,0.5180426239967346,0.1584222763776779,0.6057165265083313
1630070136045,-0.1677806228399276,0.6835903525352478,0.3536910712718963,0.6162958741188049
1630070136169,-0.1976986527442932,0.8023483753204346,0.5675909519195557,0.6230984330177307
1630070136265,-0.2233469933271408,0.82469642162323,0.5914465188980103,0.6285884976387024
1630070136361,-0.2704874575138092,0.8506223559379578,0.6176331639289856,0.6162275075912476
1630070136486,-0.3691836595535278,0.8804640173912048,0.6472407579421997,0.5846580862998962
1630070136548,-0.5319740176200867,0.9141493439674376,0.6803877949714661,0.5211343765258789
1630070136665,-0.5319740176200867,0.9518388509750366,0.7186055183410645,0.4379421770572662
1630070136774,-0.5319740176200867,0.9943215250968932,0.761328935623169,0.4379421770572662
1630070136902,-0.5319740176200867,1.0415408611297607,0.807810366153717,0.4379421770572662
1630070136981,-0.5319740176200867,1.0941452980041504,0.8591005206108093,0.4379421770572662
1630070137086,-0.5319740176200867,1.1533639430999756,0.9154565930366516,0.4379421770572662
1630070137241,-0.5319740176200867,1.1852391958236694,0.9789388179779052,0.4379421770572662
1630070137272,-0.5319740176200867,1.2369285821914673,1.0495498180389404,0.4379421770572662
1630070137384,-0.5319740176200867,1.2807787656784058,1.0495498180389404,0.4379421770572662
1630070137493,-0.5319740176200867,1.2989522218704224,1.0495498180389404,0.4379421770572662
1630070137594,-0.5319740176200867,1.2876574993133545,1.0495498180389404,0.4379421770572662
1630070137672,-0.5319740176200867,1.2495726346969604,1.0495498180389404,0.4379421770572662
1630070137782,-0.5319740176200867,1.215260624885559,1.0495498180389404,0.4379421770572662
1630070137880,-0.5319740176200867,1.1766879558563232,1.0495498180389404,0.4379421770572662
1630070138005,-0.5319740176200867,1.136600375175476,1.0495498180389404,0.4379421770572662
1630070138067,-0.5319740176200867,1.0968259572982788,1.0495498180389404,0.4379421770572662
1630070138177,-0.5319740176200867,1.059512972831726,1.0495498180389404,0.4379421770572662
1630070138270,-0.5319740176200867,1.025938630104065,1.0495498180389404,0.4379421770572662
1630070138398,-0.5319740176200867,1.0003197193145752,1.0495498180389404,0.4379421770572662
1630070138460,-0.5319740176200867,0.9872405529022216,1.0495498180389404,0.4379421770572662
1630070138617,-0.5319740176200867,0.9839034080505372,1.0495498180389404,0.4379421770572662
1630070138695,-0.5319740176200867,0.9854329228401184,1.0495498180389404,0.4379421770572662
1630070138789,-0.5319740176200867,0.9570747017860411,1.0495498180389404,0.4379421770572662
1630070138916,-0.5319740176200867,0.8937019109725952,1.0495498180389404,0.4379421770572662
1630070138994,-0.5319740176200867,0.8003261685371399,0.663310170173645,0.4379421770572662
1630070139088,-0.5319740176200867,0.6968027949333191,0.5886154770851135,0.4379421770572662
1630070139228,-0.5319740176200867,0.6078479290008545,0.525336742401123,0.4379421770572662
1630070139322,-0.5319740176200867,0.5515672564506531,0.4713803231716156,0.4379421770572662
1630070139416,-0.5319740176200867,0.5148402452468872,0.4232446253299713,0.4379421770572662
1630070139510,-0.5319740176200867,0.4934993088245392,0.3853350281715393,0.4379421770572662
1630070139596,-0.5319740176200867,0.4819511473178863,0.2749527990818023,0.4379421770572662
1630070139706,0.2852823734283447,0.4732743799686432,0.2190033197402954,0.6508653163909912
1630070139833,0.3509754836559295,0.4630305171012878,0.0772343203425407,0.6202930212020874
1630070139943,0.4550716578960418,0.4373114109039306,0.1010046154260635,0.6173580288887024
1630070140006,0.5455628037452698,0.3737234771251678,0.1080393344163894,0.6525140404701233
1630070140115,0.5917292237281799,0.2580124735832214,0.1070504263043403,0.680621325969696
1630070140240,0.6004427671432495,0.0922805070877075,0.1073910742998123,0.6972530484199524
1630070140349,0.5821653008460999,-0.0930203273892402,0.106808453798294,0.7112184166908264
1630070140490,0.5546349883079529,-0.2321451157331466,0.1059981510043144,0.7270692586898804
1630070140599,0.5298400521278381,-0.3000019192695617,0.0723972246050834,0.744598388671875
1630070140693,0.5119001865386963,-0.3451906740665436,0.0690481513738632,0.7610212564468384
1630070140787,0.5119001865386963,-0.3784922659397125,0.0691989138722419,0.7610212564468384
1630070140882,0.5119001865386963,-0.4263044893741607,0.0799638703465461,0.7610212564468384
1630070140945,0.5233847498893738,-0.4772565960884094,0.1282185763120651,0.7638198137283325
1630070141084,0.5440648198127747,-0.4910058677196502,0.2190268188714981,0.7705721259117126
1630070141162,0.5660942792892456,-0.4414121508598327,0.3239468336105346,0.7830770015716553
1630070141272,0.584036111831665,-0.3572751581668854,0.4111726880073547,0.8022440075874329
1630070141412,0.5887318253517151,-0.2848261594772339,0.466465413570404,0.8303141593933105
1630070141475,0.5553139448165894,-0.2425364553928375,0.4936464726924896,0.8549376726150513
1630070141600,0.4690157175064087,-0.2250334024429321,0.5079032778739929,0.8606767058372498
1630070141678,0.3425749242305755,-0.2204053103923797,0.5214247703552246,0.8649628162384033
1630070141803,0.2031311839818954,-0.2181461602449417,0.5325286388397217,0.8773838877677917
1630070141851,0.2031311839818954,-0.2144656330347061,0.5393685102462769,0.8773838877677917
1630070141962,0.2031311839818954,-0.2100616097450256,0.5449784994125366,0.8773838877677917
1630070142025,0.2031311839818954,-0.2091542780399322,0.5536113381385803,0.8773838877677917
1630070142165,0.2031311839818954,-0.2097578644752502,0.5634627938270569,0.8773838877677917
1630070142322,0.8903912901878357,-0.2105133682489395,0.5715628862380981,1.3678244352340698
1630070142400,0.8903912901878357,-0.1947110444307327,0.5748400092124939,1.3678244352340698
1630070142462,0.8903912901878357,-0.1755949258804321,0.5660167932510376,1.3678244352340698
1630070142618,0.8903912901878357,-0.1269584745168686,0.5376434326171875,1.3678244352340698
1630070142665,0.8903912901878357,-0.0319022238254547,0.4934628903865814,1.3678244352340698
1630070142759,0.8903912901878357,0.0870305746793747,0.4510299861431122,1.3678244352340698
1630070142886,0.8903912901878357,0.1920198798179626,0.4303491711616516,1.3678244352340698
1630070142980,0.8903912901878357,0.2591397166252136,0.4323990643024444,1.3678244352340698
1630070143084,0.8903912901878357,0.289859265089035,0.4414975345134735,1.3678244352340698
1630070143184,0.8903912901878357,0.2997165620326996,0.4454160928726196,1.3678244352340698
1630070143279,0.8903912901878357,0.3026671707630157,0.4529095590114593,1.3678244352340698
1630070143387,0.8903912901878357,0.3039011657238006,0.4704039692878723,1.3678244352340698
1630070143499,0.8903912901878357,0.3041732907295227,0.4936195611953735,1.3678244352340698
1630070143593,0.8903912901878357,0.3106836080551147,0.5205731391906738,1.3678244352340698
1630070143718,0.8903912901878357,0.3316839933395386,0.5863471031188965,1.3678244352340698
1630070143765,0.8903912901878357,0.3825710415840149,0.6028750538825989,1.3678244352340698
1630070143906,0.8903912901878357,0.475056916475296,0.6234827637672424,1.3678244352340698
1630070144000,0.8903912901878357,0.5888949036598206,0.6464679837226868,1.3678244352340698
1630070144096,0.8903912901878357,0.702904224395752,0.6688719391822815,1.3678244352340698
1630070144208,0.8903912901878357,0.8014506101608276,0.6842364072799683,1.3678244352340698
1630070144301,0.8903912901878357,0.8743045330047607,0.6886846423149109,1.3678244352340698
1630070144380,0.8903912901878357,0.91756671667099,0.6854164004325867,1.3678244352340698
1630070144490,0.8903912901878357,0.9366372227668762,0.6848081946372986,1.3678244352340698
1630070144587,0.8903912901878357,0.942366063594818,0.6985228061676025,1.3678244352340698
1630070144755,0.8903912901878357,0.9434878826141356,0.729461669921875,1.3678244352340698
1630070144848,0.8903912901878357,0.9441097378730774,0.7241477966308594,1.3678244352340698
1630070144899,0.8903912901878357,0.9462697505950928,0.7014630436897278,1.3678244352340698
1630070144992,0.8903912901878357,0.9502964019775392,0.6762651801109314,1.3678244352340698
1630070145095,1.059279203414917,0.9538168907165528,0.6440166234970093,1.3678244352340698
1630070145213,1.0951945781707764,0.9536347389221193,0.4906452298164367,1.3678244352340698
1630070145375,1.0560197830200195,0.9447352290153505,0.5077404975891113,1.4201442003250122
1630070145404,1.0284432172775269,0.9189026355743408,0.522343099117279,1.4204893112182615
1630070145576,1.0152504444122314,0.8725001811981201,0.5286423563957214,1.4081040620803833
1630070145608,1.004978060722351,0.7970399260520935,0.5216776132583618,1.3835960626602173
1630070145717,0.9998365044593812,0.6819465756416321,0.502143919467926,1.349762797355652
1630070145783,1.0078481435775757,0.5225679278373718,0.4768974184989929,1.3089393377304075
1630070145927,1.0237934589385986,0.338267832994461,0.4494292140007019,1.268722653388977
1630070146067,1.0325487852096558,0.1871777027845382,0.4229623079299927,1.2324916124343872
1630070146130,1.0257035493850708,0.1122256815433502,0.3992789089679718,1.2004191875457764
1630070146223,1.006802678108215,0.0892444774508476,0.3760610818862915,1.175849437713623
1630070146302,0.9832605123519896,0.078040674328804,0.3444955050945282,1.1611610651016235
1630070146398,0.9413653016090392,0.0596422776579856,0.3210653066635132,1.1529887914657593
1630070146523,0.8975833654403687,0.0323593579232692,0.3038582503795624,1.1180062294006348
1630070146632,0.8650969862937927,0.0027238887269049,0.2973160445690155,1.0718896389007568
1630070146726,0.8626071810722351,-0.0237341877073049,0.3051450848579407,1.032337665557861
1630070146853,0.8635546565055847,-0.0294682756066322,0.3081997632980346,0.97530335187912
1630070146979,0.8641821146011353,0.0242875050753355,0.31716188788414,0.9048853516578674
1630070147073,0.8580604195594788,0.1708980798721313,0.3636242747306824,0.8308066725730896
1630070147151,0.8507217764854431,0.3695053160190582,0.4533879458904266,0.7689698338508606
1630070147260,0.8372269868850708,0.5464630126953125,0.5553473234176636,0.7364799976348877
1630070147370,0.7959763407707214,0.6664309501647949,0.6370867490768433,0.7477142810821533
1630070147464,0.7068390846252441,0.7295196056365967,0.6847047209739685,0.7822421789169312
1630070147510,0.5739437937736511,0.7526992559432983,0.7052682042121887,0.8258342146873474
1630070147635,0.4443066418170929,0.7576715350151062,0.7104835510253906,0.8772388696670532
1630070147807,0.3813144266605377,0.7581038475036621,0.7113451957702637,0.9186578392982484
1630070147855,0.3813144266605377,0.7580358386039734,0.7094700336456299,0.9186578392982484
1630070147997,0.3813144266605377,0.7578865885734558,0.7060250043869019,0.9186578392982484
1630070148060,0.3813144266605377,0.756901204586029,0.6973877549171448,0.9186578392982484
1630070148154,0.3813144266605377,0.7540367245674133,0.6810164451599121,0.9186578392982484
1630070148263,0.3813144266605377,0.7500448822975159,0.6576492786407471,0.9186578392982484
1630070148435,-0.1762944757938385,0.7431172728538513,0.6357958316802979,0.9913610816001892
1630070148513,-0.1762944757938385,0.7252241969108582,0.6116872429847717,0.9677152633666992
1630070148607,-0.1762944757938385,0.6822412610054016,0.5696635842323303,0.9677152633666992
1630070148654,-0.1762944757938385,0.5991190075874329,0.4945407807826996,0.9677152633666992
1630070148747,-0.1762944757938385,0.4890402257442474,0.3870746195316314,0.9677152633666992
1630070148888,-0.1762944757938385,0.4238242208957672,0.2773279249668121,0.9677152633666992
1630070149013,-0.1762944757938385,0.4667547047138214,0.2275924086570739,0.9677152633666992
1630070149122,-0.1762944757938385,0.5589600801467896,0.2378775924444198,0.9677152633666992
1630070149214,-0.1762944757938385,0.6274322271347046,0.2655860483646393,0.9677152633666992
1630070149323,-0.1762944757938385,0.6600947380065918,0.281609296798706,0.9677152633666992
1630070149370,-0.1762944757938385,0.6719295978546143,0.2948992252349853,0.9677152633666992
1630070149448,-0.1762944757938385,0.6754092574119568,0.3075913786888122,0.9677152633666992
1630070149605,-0.1762944757938385,0.6777881979942322,0.3176181614398956,0.9711713194847108
1630070149714,-0.1762944757938385,0.6794537901878357,0.3234673142433166,0.9711713194847108
1630070149823,-0.1762944757938385,0.6807016730308533,0.324486494064331,0.9711713194847108
1630070149888,-0.1762944757938385,0.6816392540931702,0.3216943442821502,0.9711713194847108
1630070149998,-0.1762944757938385,0.6827027797698975,0.3181888163089752,0.9711713194847108
1630070150076,-0.2350291758775711,0.6828805208206177,0.3186208009719848,0.4528650045394897
1630070150185,-0.1785193830728531,0.6768731474876404,0.3216893970966339,0.39852374792099
1630070150310,-0.14020437002182,0.6478140354156494,0.3161004483699798,0.3544461727142334
1630070150435,-0.1119658797979354,0.5726780295372009,0.2858840227127075,0.3277525901794433
1630070150482,-0.1056970730423927,0.4337901771068573,0.2249326556921005,0.3300531208515167
1630070150607,-0.1013659238815307,0.2315778285264969,0.1562884151935577,0.3806364834308624
1630070150701,-0.1013659238815307,0.0072802766226232,0.147223025560379,0.4576632976531982
1630070150810,-0.1013659238815307,-0.1409858465194702,0.2422412782907486,0.6240586638450623
1630070150907,-0.1013659238815307,-0.1475781351327896,0.2545414268970489,0.859734296798706
1630070151048,-0.1013659238815307,-0.0380414724349975,0.2691492736339569,1.1111444234848022
1630070151094,-0.1013659238815307,0.1093243211507797,0.2869780361652374,1.3299504518508911
1630070151251,-0.1013659238815307,0.2689476013183594,0.3124014437198639,1.4869112968444824
1630070151298,-0.0776330307126045,0.4144908189773559,0.3443397283554077,1.5131055116653442
1630070151454,-0.0512156225740909,0.5272661447525024,0.3800625205039978,1.541972517967224
1630070151547,-0.030999856069684,0.6005638837814331,0.413332849740982,1.5744189023971558
1630070151610,-0.017887283116579,0.6396427154541016,0.4362596869468689,1.6107677221298218
1630070151704,-0.0209348928183317,0.6566123366355896,0.4494316577911377,1.6510282754898071
1630070151797,-0.0209348928183317,0.6630756258964539,0.4600552916526794,1.6957625150680542
1630070151907,-0.0209348928183317,0.6682186126708984,0.4833399355411529,1.7029138803482056
1630070152016,-0.0209348928183317,0.6711950302124023,0.4666261374950409,1.7113317251205444
1630070152125,-0.0209348928183317,0.6732969880104065,0.4666496217250824,1.719452142715454
1630070152235,0.1265809535980224,0.6736711859703064,0.4234717488288879,1.7252402305603027
1630070152313,0.1477347016334533,0.669991672039032,0.2115225344896316,1.7199664115905762
1630070152438,0.1698512881994247,0.6602541208267212,0.2203171253204345,1.6882671117782593
1630070152516,0.1987871527671814,0.6384271383285522,0.2121201306581497,1.604217529296875
1630070152688,0.2244254797697067,0.599311888217926,0.1849950850009918,1.4118846654891968
1630070152750,0.2244254797697067,0.5333213210105896,0.1619694679975509,0.9503833055496216
1630070152862,0.2244254797697067,0.4369671046733856,0.1509502083063125,0.9503833055496216
1630070152956,0.2244254797697067,0.3365454375743866,0.1691431999206543,0.9503833055496216
1630070153049,0.2244254797697067,0.3058076500892639,0.2273863106966018,0.9503833055496216
1630070153143,0.2244254797697067,0.3773370683193207,0.2954512536525726,0.9503833055496216
1630070153252,0.2244254797697067,0.4837977290153503,0.3513215184211731,0.9503833055496216
1630070153362,0.2244254797697067,0.5649463534355164,0.3900514543056488,0.9503833055496216
1630070153456,0.2174156010150909,0.6066198945045471,0.4092032611370086,0.9516753554344176
1630070153518,0.2615591585636139,0.6265937685966492,0.4372971653938293,0.9338563084602356
1630070153659,0.2871580421924591,0.6332643032073975,0.451012372970581,0.8838877081871033
1630070153784,0.3042286336421966,0.636557936668396,0.4568789601325989,0.7937278151512146
1630070153846,0.3042286336421966,0.6371209025382996,0.4562366604804992,0.7937278151512146
1630070153955,0.3042286336421966,0.637112557888031,0.455694317817688,0.7937278151512146
1630070154049,0.3042286336421966,0.6365419030189514,0.4576191008090973,0.7937278151512146
1630070154143,0.3042286336421966,0.6349256634712219,0.4629920721054077,0.7937278151512146
1630070154237,0.3042286336421966,0.6325843930244446,0.4686073660850525,0.7548707723617554
1630070154330,0.1324734389781952,0.6263368129730225,0.4731252193450928,0.8189167380332947
1630070154487,0.1665000468492508,0.6055313348770142,0.4692554175853729,0.8804631233215332
1630070154565,0.1756625473499298,0.5526885986328125,0.4452102184295654,0.929052472114563
1630070154690,0.1756625473499298,0.45282843708992,0.4154082238674164,0.929052472114563
1630070154768,0.1756625473499298,0.3060977756977081,0.394699364900589,0.929052472114563
1630070154865,0.1756625473499298,0.1627265661954879,0.4581725597381592,0.929052472114563
1630070154943,0.1756625473499298,0.1329218000173568,0.6404127478599548,0.929052472114563
1630070155114,0.1756625473499298,0.2206556051969528,0.6468209624290466,0.929052472114563
1630070155208,0.1756625473499298,0.3351589441299438,0.6617766618728638,0.929052472114563
1630070155271,0.1756625473499298,0.4115728437900543,0.681315004825592,0.929052472114563
1630070155380,0.1756625473499298,0.4507563710212707,0.7060354351997375,0.929052472114563
1630070155458,0.1756625473499298,0.4649496078491211,0.7334248423576355,0.9671282768249512
1630070155614,0.2135340273380279,0.4679156839847564,0.7658726572990417,1.0065349340438845
1630070155677,0.244369626045227,0.4716525077819824,0.8054901957511902,1.0486929416656494
1630070155771,0.244369626045227,0.4820612072944641,0.8515409827232361,1.0486929416656494
1630070155882,0.244369626045227,0.5124441385269165,0.9047398567199708,1.0486929416656494
1630070155976,0.244369626045227,0.5681083798408508,1.0275343656539917,1.0486929416656494
1630070156070,0.244369626045227,0.6354373693466187,1.158573865890503,1.0486929416656494
1630070156179,0.244369626045227,0.6924341917037964,1.2572135925292969,0.5271827578544617
1630070156318,1.2596036195755005,0.7261763215065002,1.3120335340499878,0.5573453307151794
1630070156426,1.205917477607727,0.7301696538925171,1.309183120727539,0.5919443964958191
1630070156523,1.1439000368118286,0.7064917683601379,1.2798997163772583,0.6435596346855164
1630070156616,1.1113579273223877,0.6710368990898132,1.2798997163772583,0.7115368247032166
1630070156709,1.1426708698272705,0.6490172743797302,1.2798997163772583,0.8020490407943726
1630070156805,1.2065702676773071,0.6560664176940918,1.317475199699402,0.8965129256248474
1630070156934,1.2717970609664917,0.6833393573760986,1.3493690490722656,0.9786422848701476
1630070157025,1.3096270561218262,0.7113243937492371,1.3601946830749512,1.0319409370422363
1630070157168,1.321452260017395,0.7306731939315796,1.355900764465332,1.0628328323364258
1630070157201,1.3197232484817505,0.7407076358795166,1.350884199142456,1.09336519241333
1630070157294,1.311931014060974,0.7422730326652527,1.352396845817566,1.1294652223587036
1630070157372,1.2985455989837646,0.729465126991272,1.3562674522399902,1.1876646280288696
1630070157592,1.2856436967849731,0.6970764994621277,1.359552979469299,1.229716658592224
1630070157677,1.2587920427322388,0.6469630599021912,1.335989236831665,1.250815510749817
1630070157719,1.23019540309906,0.5956366062164307,1.3031731843948364,1.264692783355713
1630070157785,1.2117682695388794,0.573462963104248,1.2881401777267456,1.287391185760498
1630070157909,1.2182579040527344,0.6000604033470154,1.3079475164413452,1.310839056968689
1630070158022,1.2425113916397097,0.6577280759811401,1.3356571197509766,1.3334121704101562
1630070158126,1.262292981147766,0.7087913155555725,1.3356571197509766,1.3534306287765503
1630070158235,1.2576011419296265,0.7437074780464172,1.3356571197509766,1.3661088943481443
1630070158313,1.2221451997756958,0.7747213244438171,1.322562336921692,1.3691933155059814
1630070158423,1.1501189470291138,0.8265551328659058,1.3017148971557615,1.363295555114746
1630070158532,1.0622680187225342,0.901071310043335,1.286633014678955,1.3596415519714355
1630070158598,0.9818069338798524,0.9740201234817504,1.282770752906799,1.3653316497802734
1630070158727,0.9095391631126404,1.0205076932907104,1.2801851034164429,1.364773154258728
1630070158830,0.8362836241722107,1.0473288297653198,1.2661916017532349,1.3389108180999756
1630070158940,0.7779266238212585,1.0740162134170532,1.240044116973877,1.3389108180999756
1630070159033,0.7699733376502991,1.1028499603271484,1.229313850402832,1.3389108180999756
1630070159128,0.7699733376502991,1.133503556251526,1.2737431526184082,1.3389108180999756
1630070159182,0.7699733376502991,1.1645532846450806,1.2737431526184082,1.3389108180999756
1630070159354,0.7699733376502991,1.1954444646835327,1.2737431526184082,1.3389108180999756
1630070159416,0.7699733376502991,1.2147186994552612,1.2737431526184082,1.3389108180999756
1630070159525,0.7699733376502991,1.2157748937606812,1.2737431526184082,1.3389108180999756
1630070159679,0.7699733376502991,1.2019797563552856,1.2737431526184082,1.3389108180999756
1630070159741,0.7699733376502991,1.177113652229309,1.2737431526184082,1.3389108180999756
1630070159819,0.7699733376502991,1.142050862312317,1.2737431526184082,1.3389108180999756
1630070159944,0.7699733376502991,1.087732195854187,1.2737431526184082,1.3389108180999756
1630070160069,0.7699733376502991,1.0068713426589966,1.2737431526184082,1.3389108180999756
1630070160132,0.7699733376502991,0.9051687121391296,1.2737431526184082,1.3389108180999756
1630070160228,2.05350112915039,0.8153085708618164,1.2737431526184082,1.3389108180999756
1630070160353,1.9571651220321653,0.7476241588592529,1.2737431526184082,1.3389108180999756
1630070160478,1.879078984260559,0.7150315642356873,-0.2979797720909118,0.4599216878414154
1630070160572,1.8139190673828125,0.686140239238739,-0.2143023759126663,0.4802562892436981
1630070160650,1.7586990594863892,0.6624762415885925,-0.0049582524225115,0.5817677974700928
1630070160759,1.4953663349151611,0.5799249410629272,0.3119911849498749,0.7671437859535217
1630070160837,0.3053802251815796,0.4786167442798614,0.3119911849498749,0.9504805207252502
1630070160934,0.3805129528045654,0.4099965393543243,0.3119911849498749,1.115894794464111
1630070161027,0.4211116433143616,0.4216679334640503,0.3119911849498749,1.115894794464111
1630070161176,0.4316963851451874,0.48820960521698,0.3119911849498749,1.115894794464111
1630070161301,0.424884021282196,0.5626863241195679,0.3119911849498749,1.115894794464111
1630070161410,0.4123372137546539,0.623302698135376,0.3119911849498749,1.115894794464111
1630070161457,0.4005087018013,0.6667642593383789,0.3119911849498749,1.115894794464111
1630070161566,0.4005087018013,0.6950436234474182,0.3119911849498749,1.115894794464111
1630070161675,0.4301502108573913,0.7225646376609802,0.5333200097084045,1.155329942703247
1630070161785,0.4610081017017364,0.7600907683372498,0.6793144345283508,1.2042665481567385
1630070161912,0.4912379682064056,0.8172780275344849,0.8085652589797974,1.2606263160705566
1630070161990,0.5178089141845703,0.8885393738746643,0.9513019919395448,1.326306700706482
1630070162098,0.538154661655426,0.9520509243011476,1.0769667625427246,1.4083173274993896
1630070162145,0.5464469194412231,0.9911784529685974,1.1523373126983645,1.4083173274993896
1630070162286,0.5367040038108826,1.0046321153640747,1.1710997819900513,1.4083173274993896
1630070162379,0.5016651153564453,0.9967334270477296,1.142859697341919,1.4083173274993896
1630070162536,0.4343329966068268,0.972151815891266,1.1062572002410889,1.4083173274993896
1630070162582,0.3442711234092712,0.9368600249290466,1.0655828714370728,1.4083173274993896
1630070162739,0.3442711234092712,0.8991721272468567,1.026503086090088,1.4083173274993896
1630070162786,0.3442711234092712,0.8623635172843933,0.9909806847572328,1.4083173274993896
1630070162883,0.3442711234092712,0.8281672596931458,0.9584611058235168,1.4083173274993896
1630070163024,0.3442711234092712,0.7994675636291504,0.9287302494049072,1.4083173274993896
1630070163086,-0.335643321275711,0.7772226333618164,0.9011579751968384,0.6546550989151001
1630070163211,-0.3497726619243622,0.7523618936538696,0.8662601113319397,0.717642605304718
1630070163289,-0.3398168385028839,0.7140749096870422,0.8281754851341248,0.810235321521759
1630070163383,-0.3185397684574127,0.6412022113800049,0.7780323028564453,0.8895283341407776
1630070163492,-0.2989038228988647,0.5075491070747375,0.6885386109352112,0.9330877065658568
1630070163602,-0.2834418714046478,0.2989586293697357,0.5471372008323669,0.9431204795837402
1630070163742,-0.2789377868175506,0.0405449122190475,0.3777722418308258,0.9339036345481871
1630070163820,-0.2797306776046753,-0.1869279444217682,0.2085407376289367,0.9255319237709044
1630070163901,-0.2676243185997009,-0.2946210503578186,0.0816456750035286,0.920281171798706
1630070164011,-0.236433058977127,-0.3208192586898803,0.0174018498510122,0.9233048558235168
1630070164073,-0.19888636469841,-0.3266351521015167,0.0292544588446617,0.9446439146995544
1630070164245,-0.1703530102968216,-0.3422834277153015,0.0852675884962081,0.9799150824546814
1630070164354,-0.1547188460826873,-0.3610319793224334,0.1512739062309265,1.025627374649048
1630070164386,-0.1500596404075622,-0.3653292655944824,0.2074335515499115,1.0769380331039429
1630070164526,-0.1390757262706756,-0.3281623721122741,0.2587933540344238,1.1023024320602417
1630070164620,-0.1243947520852088,-0.2252817302942276,0.300906777381897,1.1258955001831057
1630070164714,-0.1072368770837783,-0.0084466515108942,0.3603047430515289,1.140081524848938
1630070164807,-0.0936982408165931,0.2660087347030639,0.4479996860027313,1.1433420181274414
1630070164936,-0.0836875885725021,0.5062697529792786,0.5380387306213379,1.1382938623428345
1630070165029,-0.0740364491939544,0.6768558025360107,0.6105560660362244,1.1363633871078491
1630070165132,-0.0627941265702247,0.7796272039413452,0.6574867367744446,1.149309754371643
1630070165244,-0.0424556359648704,0.8306770324707031,0.6797722578048706,1.1797701120376587
1630070165338,-0.0122932866215705,0.8515202403068542,0.6878100633621216,1.2179601192474363
1630070165432,0.0110860960558056,0.8584392666816711,0.687932550907135,1.2643418312072754
1630070165541,0.0071708126924932,0.8623449802398682,0.6864100098609924,1.3160765171051023
1630070165635,0.0071708126924932,0.863500714302063,0.681117594242096,1.3160765171051023
1630070165729,0.0071708126924932,0.8636086583137512,0.6717270612716675,1.3160765171051023
1630070165854,0.0071708126924932,0.8634071350097656,0.6603127717971802,1.3160765171051023
1630070165904,0.0071708126924932,0.8628913760185242,0.6496111750602722,1.3160765171051023
1630070166060,0.1218992322683334,0.8603294491767883,0.6350735425949097,0.5911418795585632
1630070166185,0.1108347922563552,0.8527962565422058,0.6184238195419312,0.612076461315155
1630070166217,0.0847614780068397,0.8292015194892883,0.5876947641372681,0.6311149597167969
1630070166310,0.0489179715514183,0.7708672285079956,0.5261328816413879,0.6280852556228638
1630070166420,0.0111620295792818,0.6585807800292969,0.429839015007019,0.6252347826957703
1630070166529,-0.0171694215387105,0.481238305568695,0.3073256909847259,0.6176833510398865
1630070166701,-0.0332287549972534,0.2527662515640259,0.2044140100479126,0.6171157360076904
1630070166763,-0.0308179892599582,0.0655748173594474,0.2312807589769363,0.6548417806625366
1630070166841,-0.0308179892599582,0.0698547884821891,0.4124966263771057,0.6548417806625366
1630070166938,-0.0308179892599582,0.2176055014133453,0.6180188059806824,0.6548417806625366
1630070167079,-0.0308179892599582,0.3649924695491791,0.7821695804595947,0.6548417806625366
1630070167141,-0.0308179892599582,0.4788282215595245,0.8962639570236206,0.6548417806625366
1630070167282,-0.0421958677470684,0.553643524646759,0.9725504517555236,0.6615384221076965
1630070167376,-0.0658694058656692,0.6014595031738281,1.026031494140625,0.667006254196167
1630070167469,-0.10297791659832,0.632729172706604,1.0598902702331543,0.6755296587944031
1630070167594,-0.1504627615213394,0.6575765609741211,1.0795215368270874,0.6874433159828186
1630070167704,-0.1991868317127227,0.6814206838607788,1.10708487033844,0.6875202655792236
1630070167766,-0.2286520600318908,0.7101015448570251,1.137655258178711,0.681702196598053
1630070167894,-0.2197016477584839,0.7452465295791626,1.1706711053848269,0.6980319619178772
1630070167972,-0.2197016477584839,0.7759283185005188,1.2062609195709229,0.6980319619178772
1630070168066,-0.2197016477584839,0.796951174736023,1.2451092004776,0.6980319619178772
1630070168175,-0.2197016477584839,0.8060838580131531,1.28527569770813,0.6980319619178772
1630070168253,-0.2197016477584839,0.8018419146537781,1.2957181930541992,0.6980319619178772
1630070168347,1.316476345062256,0.7792608141899109,1.268534779548645,0.4656959772109985
1630070168534,1.2252823114395142,0.7347249388694763,1.2038437128067017,0.442616194486618
1630070168597,1.2252823114395142,0.6725327968597412,1.1099119186401367,0.4439157843589782
1630070168706,1.2252823114395142,0.604292094707489,1.011008620262146,0.4439157843589782
1630070168769,1.2252823114395142,0.5547755360603333,0.9318801760673524,0.4439157843589782
1630070168847,1.2252823114395142,0.5565556287765503,0.8504990339279175,0.4439157843589782
1630070168987,1.2252823114395142,0.6292645335197449,0.7772735953330994,0.4439157843589782
1630070169112,1.2252823114395142,0.7401217818260193,0.7330908179283142,0.4439157843589782
1630070169190,1.2252823114395142,0.8404044508934021,0.7330908179283142,0.4439157843589782
1630070169300,1.2252823114395142,0.9088026881217957,0.7330908179283142,0.4439157843589782
1630070169425,1.2252823114395142,0.9487577080726624,0.7330908179283142,0.4439157843589782
1630070169534,1.2252823114395142,0.9737947583198548,0.7330908179283142,0.4439157843589782
1630070169628,1.0240870714187622,0.9920278191566468,0.7330908179283142,0.4308472871780395
1630070169722,1.0240870714187622,0.999944508075714,0.7330908179283142,0.4129478335380554
1630070169815,1.0240870714187622,1.003111720085144,0.6326987743377686,0.4129478335380554
1630070169928,1.0240870714187622,1.0039457082748413,0.5654848217964172,0.4129478335380554
1630070170037,1.0240870714187622,1.0038102865219116,0.5612385869026184,0.4129478335380554
1630070170100,1.0240870714187622,1.002933382987976,0.5418145656585693,0.4129478335380554
1630070170181,0.3054479956626892,1.0019071102142334,0.425835907459259,0.8010247945785522
1630070170368,0.3054479956626892,0.9989986419677734,0.0389813892543315,0.8010247945785522
1630070170446,0.3054479956626892,0.990516722202301,0.0973032489418983,0.8010247945785522
1630070170493,0.3054479956626892,0.9738023281097412,0.2597431242465973,0.8010247945785522
1630070170634,0.3054479956626892,0.9612285494804382,0.4964936375617981,0.8010247945785522
1630070170728,0.3054479956626892,0.9725486636161804,0.7178112864494324,0.8010247945785522
1630070170790,0.3054479956626892,1.0040417909622192,0.8685716986656189,0.8010247945785522
1630070170931,0.3054479956626892,1.0323318243026731,0.8685716986656189,0.8010247945785522
1630070171009,0.3054479956626892,1.042404294013977,0.8685716986656189,0.8010247945785522
1630070171134,0.3054479956626892,1.038158297538757,0.8685716986656189,0.8010247945785522
1630070171259,0.3054479956626892,1.0399422645568848,0.8952129483222961,0.8010247945785522
1630070171306,0.3054479956626892,1.0509660243988037,0.9454968571662904,0.8010247945785522
1630070171446,0.3054479956626892,1.062524914741516,1.0254932641983032,0.8010247945785522
1630070171524,0.3054479956626892,1.0700713396072388,1.0865341424942017,0.8010247945785522
1630070171665,0.3054479956626892,1.0743539333343506,1.1257106065750122,0.8010247945785522
1630070171759,0.3054479956626892,1.0764765739440918,1.151455640792847,0.8010247945785522
1630070171852,1.2005596160888672,1.0763558149337769,1.173851490020752,1.526849389076233
1630070171964,1.2168617248535156,1.0701285600662231,1.1939674615859983,1.624903440475464
1630070171995,1.214791774749756,1.0503982305526731,1.2082535028457642,1.6572391986846924
1630070172136,1.214791774749756,1.002596735954285,1.2045592069625854,1.6572391986846924
1630070172230,1.214791774749756,0.916293203830719,1.186841607093811,1.6572391986846924
1630070172355,1.214791774749756,0.8034660816192627,1.1562154293060305,1.6572391986846924
1630070172480,1.214791774749756,0.7058712244033813,1.1562154293060305,1.6572391986846924
1630070172542,1.214791774749756,0.6690529584884644,1.1562154293060305,1.6572391986846924
1630070172652,1.214791774749756,0.6773531436920166,1.1562154293060305,1.6572391986846924
1630070172761,1.214791774749756,0.6813579797744751,1.15227472782135,1.6572391986846924
1630070172855,1.214791774749756,0.661704957485199,1.1084063053131104,1.6572391986846924
1630070172964,1.214791774749756,0.6378822326660156,1.0371623039245603,1.6572391986846924
1630070173026,1.1903424263000488,0.6253178119659424,0.9589112997055054,1.7190433740615845
1630070173120,1.2016359567642212,0.6202068328857422,0.8935214877128601,1.7807105779647827
1630070173230,1.1267750263214111,0.6186606287956238,0.8424610495567322,1.7807105779647827
1630070173339,0.9846280813217164,0.6149897575378418,0.7889248728752136,1.7807105779647827
1630070173479,0.7274524569511414,0.6083523035049438,0.7221681475639343,1.7807105779647827
1630070173604,0.2478851079940796,0.5998775362968445,0.6349948048591614,1.7807105779647827
1630070173683,0.2482649981975555,0.5920165181159973,0.5375353693962097,0.8766642212867737
1630070173745,0.2435267865657806,0.5772104263305664,0.3587340414524078,0.8808610439300537
1630070173870,0.2195199877023697,0.535493791103363,0.3445221483707428,0.8574596047401428
1630070173979,0.1858774125576019,0.4476739764213562,0.3328228890895843,0.8224329352378845
1630070174104,0.1514560580253601,0.3055619895458221,0.3254039585590362,0.7844034433364868
1630070174182,0.1194956079125404,0.1276614516973495,0.320377916097641,0.7454109787940979
1630070174276,0.0921639502048492,-0.031497448682785,0.162317618727684,0.710455596446991
1630070174339,0.0662387907505035,-0.1215633898973465,0.0905888229608535,0.680193305015564
1630070174495,0.0392041765153408,-0.1514909118413925,0.0587401948869228,0.6564266085624695
1630070174573,0.0109239304438233,-0.1584318131208419,0.0512690097093582,0.6380953192710876
1630070174685,-0.0162713509052991,-0.1546393185853958,0.0481652989983558,0.6223232746124268
1630070174810,-0.0764049068093299,-0.1584733575582504,0.0418694391846656,0.608223021030426
1630070174873,-0.1105568706989288,-0.1556641012430191,0.032301977276802,0.604054868221283
1630070174966,-0.1500398516654968,-0.1350527256727218,0.0275792106986045,0.6038211584091187
1630070175079,-0.2056754529476165,-0.0726682320237159,0.046390913426876,0.6975479125976562
1630070175173,-0.2858378291130066,0.0566848665475845,0.1012150272727012,0.6643068194389343
1630070175269,-0.3936266005039215,0.2194668650627136,0.1770295798778534,0.6399221420288086
1630070175471,-0.4847926199436188,0.3603356182575226,0.2449765652418136,0.6328653693199158
1630070175502,-0.5454833507537842,0.4546120762825012,0.2844651043415069,0.6419487595558167
1630070175613,-0.5907391905784607,0.5018184185028076,0.2946419417858124,0.6631827354431152
1630070175662,-0.636863648891449,0.5167580246925354,0.2878093123435974,0.6956984996795654
1630070175820,-0.7207010984420776,0.5188262462615967,0.2822579741477966,0.7344104647636414
1630070175897,-0.8427295088768005,0.5204188823699951,0.2875694930553436,0.7788568735122681
1630070176025,-0.8427295088768005,0.5186012387275696,0.3015757799148559,0.8275837898254395
1630070176055,-0.8427295088768005,0.5133370161056519,0.3159107565879822,0.8083457946777344
1630070176150,-0.8427295088768005,0.507261335849762,0.3253766000270843,0.7909172177314758
1630070176277,-0.8427295088768005,0.5026910305023193,0.3310038149356842,0.786993145942688
1630070176399,-0.0209546014666557,0.500206470489502,0.3343631327152252,0.788305401802063
1630070176511,0.0599001199007034,0.4980637729167938,0.3354552090167999,0.7500765323638916
1630070176596,0.0966566056013107,0.4889348745346069,0.3255511224269867,0.3398222923278808
1630070176682,0.1189732179045677,0.4572192132472992,0.2970295548439026,0.3804962933063507
1630070176791,0.1540701538324356,0.3953464031219482,0.2614399790763855,0.4134462773799896
1630070176869,0.2777248919010162,0.3136478364467621,0.2666981518268585,0.449601262807846
1630070177029,0.4846674501895904,0.2699221074581146,0.3848879635334015,0.5005955100059509
1630070177107,0.6813705563545227,0.3205972909927368,0.5657607913017273,0.5550520420074463
1630070177200,0.8169823288917542,0.4222190380096435,0.7193830609321594,0.5948667526245117
1630070177310,0.889185905456543,0.5053637623786926,0.8188415765762329,0.6173155307769775
1630070177415,0.911261796951294,0.5487790107727051,0.8698617219924927,0.6300414204597473
1630070177477,0.9094457030296326,0.568062961101532,0.8923870921134949,0.641811192035675
1630070177648,0.938094973564148,0.5909647345542908,0.9223011136054992,0.6870505213737488
1630070177715,0.9678786993026732,0.6330790519714355,0.9779316186904908,0.7130799293518066
1630070177867,0.9985222220420836,0.6850280165672302,1.005085587501526,0.734013557434082
1630070177914,1.0303328037261963,0.7468056678771973,1.034955978393555,0.74970942735672
1630070178009,1.0645688772201538,0.8272051811218262,1.0672649145126345,0.7624472379684448
1630070178125,1.1037027835845947,0.9285317063331604,1.102191686630249,0.7795823216438293
1630070178234,1.148305892944336,1.0283204317092896,1.1391642093658447,0.7978690266609192
1630070178373,1.1977229118347168,1.102985382080078,1.1763534545898438,0.8178317546844482
1630070178446,1.2418348789215088,1.1423412561416626,1.209271788597107,0.835935652256012
1630070178509,1.261230707168579,1.151925563812256,1.2227193117141724,0.8414957523345947
1630070178602,1.2364953756332395,1.1427879333496094,1.2031022310256958,0.8303716778755188
1630070178743,1.2364953756332395,1.1298694610595703,1.1526916027069092,0.814708948135376
1630070178837,1.2364953756332395,1.121865153312683,1.0940088033676147,0.814708948135376
1630070178933,1.2364953756332395,1.1208815574645996,1.0940088033676147,0.814708948135376
1630070179043,1.2364953756332395,1.1232589483261108,1.0940088033676147,0.814708948135376
1630070179105,1.2364953756332395,1.1213239431381226,1.0940088033676147,0.814708948135376
1630070179230,1.2364953756332395,1.1106122732162476,1.0940088033676147,1.0688310861587524
1630070179324,1.324212908744812,1.0936561822891235,1.3876259326934814,1.100658297538757
1630070179464,1.2465144395828247,1.069361686706543,1.391224026679993,1.1123768091201782
1630070179542,1.188579559326172,1.0281680822372437,1.383580446243286,1.1025075912475586
1630070179683,1.188579559326172,0.9519388675689696,1.3536624908447266,1.1025075912475586
1630070179749,1.188579559326172,0.8291459083557129,1.31339693069458,1.1025075912475586
1630070179827,1.188579559326172,0.6735268235206604,1.31339693069458,1.1025075912475586
1630070179923,1.188579559326172,0.5544907450675964,1.2896095514297483,1.1025075912475586
1630070180095,1.188579559326172,0.5362865328788757,1.2770119905471802,1.1025075912475586
1630070180142,1.188579559326172,0.5838693380355835,1.266677737236023,1.1025075912475586
1630070180267,1.188579559326172,0.6215232014656067,1.2502816915512085,1.1025075912475586
1630070180376,1.188579559326172,0.628654956817627,1.2257297039031982,1.1025075912475586
1630070180454,1.188579559326172,0.6139236092567444,1.1972308158874512,1.113968849182129
1630070180548,1.0483824014663696,0.594319224357605,1.1364741325378418,1.1243224143981934
1630070180673,0.8690661191940308,0.5837358236312866,1.0794191360473633,1.1383988857269287
1630070180798,0.8690661191940308,0.5855706930160522,1.0214836597442627,1.1383988857269287
1630070180860,0.8690661191940308,0.5971454977989197,0.9495360851287842,1.1383988857269287
1630070180939,0.8690661191940308,0.6107756495475769,0.8532608151435852,1.1383988857269287
1630070181069,0.8690661191940308,0.621685802936554,0.7483318448066711,1.1383988857269287
1630070181161,0.0480797216296196,0.6284308433532715,0.6734805107116699,0.4916455745697021
1630070181283,0.0090560037642717,0.6318790912628174,0.630922794342041,0.4800594449043274
1630070181459,-0.0018817682284861,0.6253312230110168,0.6056066155433655,0.4535644352436065
1630070181506,0.0081135928630828,0.5956551432609558,0.5317956805229187,0.4371913969516754
1630070181585,0.0207404512912035,0.5311131477355957,0.4156011343002319,0.4450103342533111
1630070181643,0.0354895666241645,0.4324158430099487,0.2572444379329681,0.4701586663722992
1630070181753,0.0351419150829315,0.3172861337661743,0.0981741845607757,0.507515013217926
1630070181863,0.0241511426866054,0.2196409851312637,0.0079090213403105,0.5340577960014343
1630070182022,0.0101404832676053,0.1622329354286193,-0.0034601495135575,0.5406268239021301
1630070182139,0.0008841432863846,0.1340741068124771,0.021414503455162,0.5308239459991455
1630070182180,-0.0018997727893292,0.1079802140593528,0.0611444003880023,0.5129908323287964
1630070182328,-0.0012458105338737,0.0719738230109214,0.0934911146759986,0.4979934990406036
1630070182388,-0.0081521635875105,0.0185391865670681,0.1171423494815826,0.5046548247337341
1630070182481,-0.0222900360822677,-0.0458440743386745,0.1332747191190719,0.5116907358169556
1630070182639,-0.0233924314379692,-0.0997496098279953,0.1416880935430526,0.5150831341743469
1630070182702,0.0015132711268961,-0.122357003390789,0.1436123251914978,0.5154367089271545
1630070182796,0.0363018102943897,-0.10698252171278,0.1489680409431457,0.5194426774978638
1630070182842,0.0624483041465282,-0.0795361325144767,0.1892692446708679,0.5424194931983948
1630070182952,0.0729126557707786,-0.0057253218255937,0.294782429933548,0.6009700298309326
1630070183096,0.0709012821316719,0.1599221378564834,0.4504216909408569,0.6075732111930847
1630070183176,0.0652554109692573,0.1833336502313614,0.4583280086517334,0.6056724786758423
1630070183301,0.0679150521755218,0.2076065242290496,0.4689851105213165,0.5913447141647339
1630070183402,0.0806599557399749,0.2346749454736709,0.4857879281044006,0.5754206776618958
1630070183496,0.1000454276800155,0.266113817691803,0.5058541893959045,0.5721325874328613
1630070183620,0.1193866655230522,0.3033344447612762,0.5263727307319641,0.5882285833358765
1630070183713,0.1357354521751403,0.3442080914974212,0.5487601161003113,0.6205102205276489
1630070183822,0.1512834429740905,0.486888587474823,0.5769167542457581,0.6571844220161438
1630070183946,0.1758621782064438,0.5173949003219604,0.6123850345611572,0.6875513792037964
1630070183993,0.2100422531366348,0.5136748552322388,0.6577567458152771,0.7080214619636536
1630070184086,0.2400383204221725,0.5024805068969727,0.7206383347511292,0.7272528409957886
1630070184211,0.2400383204221725,0.4880855977535248,0.7411320209503174,0.7272528409957886
1630070184368,0.2400383204221725,0.4781313240528106,0.7559505701065063,0.7272528409957886
1630070184414,0.2400383204221725,0.482360303401947,0.7362462282180786,0.7272528409957886
1630070184524,0.2400383204221725,0.4750710129737854,0.6218181252479553,0.7272528409957886
1630070184617,-0.0004229519399814,0.3850332200527191,0.1697079539299011,0.7139219045639038
1630070184711,-0.0086369207128882,0.3654232919216156,0.1425396502017974,0.7152434587478638
1630070184805,-0.0103029934689402,0.335438460111618,0.1154810190200805,0.7015132904052734
1630070184930,-0.0155068980529904,0.3015537559986114,0.0885463207960128,0.6806519031524658
1630070185055,-0.0297202710062265,0.2684023976325989,0.064729057252407,0.6543452143669128
1630070185102,-0.0433041714131832,0.2374111860990524,0.0415626242756843,0.6220706701278687
1630070185227,-0.045305386185646,0.2091488689184188,0.019777188077569,0.5944607853889465
1630070185383,-0.045305386185646,0.0359677970409393,0.0019481718773022,0.5944607853889465
1630070185430,-0.045305386185646,-0.0374462753534317,-0.0125735783949494,0.5944607853889465
1630070185580,-0.045305386185646,-0.0621929764747619,-0.0276489481329917,0.5944607853889465
1630070185721,-0.045305386185646,-0.0903781279921531,-0.0454306565225124,0.5944607853889465
1630070185799,-0.045305386185646,-0.1242854818701744,-0.0999642014503479,0.5944607853889465
1630070185861,-0.0764584466814994,-0.1740991473197937,-0.154598131775856,0.590599536895752
1630070185949,-0.0809282064437866,-0.2522961497306824,-0.2027287036180496,0.573063313961029
1630070186027,-0.0802979692816734,-0.3692378401756286,-0.2333687543869018,0.5368180871009827
1630070186198,-0.0780303627252578,-0.5147648453712463,-0.2355751991271972,0.4914929866790771
1630070186245,-0.0853577554225921,-0.6373949646949768,-0.2049410492181778,0.4265642464160919
1630070186339,-0.1037439256906509,-0.700196385383606,-0.1556248217821121,0.3584096133708954
1630070186448,-0.0136907696723937,-0.7081961631774902,-0.1087545379996299,0.3584096133708954
1630070186558,0.102189265191555,-0.690648078918457,-0.0783595442771911,0.3584096133708954
1630070186651,0.102189265191555,-0.6583610773086548,-0.0474149584770202,0.3584096133708954
1630070186745,0.102189265191555,-0.5657360553741455,0.0457037389278411,0.3584096133708954
1630070186901,0.102189265191555,-0.3575330674648285,0.2549903988838196,0.3584096133708954
1630070187026,0.102189265191555,-0.0362334586679935,0.2755975127220154,0.3584096133708954
1630070187089,0.102189265191555,0.2699596285820007,0.2993553280830383,0.3584096133708954
1630070187161,0.102189265191555,0.494755357503891,0.3278058469295501,0.3584096133708954
1630070187270,0.102189265191555,0.6351567506790161,0.3610137104988098,0.3584096133708954
1630070187401,0.102189265191555,0.7116633653640747,0.3984495401382446,0.3584096133708954
1630070187464,0.102189265191555,0.7441174387931824,0.4383976757526397,0.3584096133708954
1630070187573,0.102189265191555,0.7610943913459778,0.4774262905120849,0.3584096133708954
1630070187651,0.102189265191555,0.7831110954284668,0.5152274966239929,0.3584096133708954
1630070187808,0.102189265191555,0.8063527941703796,0.5512109398841858,0.3584096133708954
1630070187869,0.102189265191555,0.8268803358078003,0.5893150568008423,0.3584096133708954
1630070188013,0.102189265191555,0.841489851474762,0.8587654232978821,0.81406569480896
1630070188076,0.102189265191555,0.849933922290802,0.9410187005996704,0.8424692153930664
1630070188169,0.7792643904685974,0.8545964360237122,0.9526621699333192,0.7967890501022339
1630070188263,0.7267318367958069,0.8555802702903748,0.921903431415558,0.7322072982788086
1630070188388,0.6736642718315125,0.8484864234924316,0.8042654395103455,0.6793627738952637
1630070188482,0.6297281980514526,0.8198710680007935,0.7396475076675415,0.6349698305130005
1630070188593,0.5925906300544739,0.7541084289550781,0.6865614652633667,0.5975345373153687
1630070188719,0.5560762286186218,0.6456055641174316,0.6439710259437561,0.5616231560707092
1630070188813,0.5197973251342773,0.5100365877151489,0.6072292923927307,0.528133749961853
1630070188907,0.4837564826011657,0.3832660913467407,0.5799674391746521,0.4959425032138824
1630070188969,0.4505077600479126,0.3088215589523315,0.5632187724113464,0.464873343706131
1630070189063,0.4213594496250152,0.2655838429927826,0.552196204662323,0.439659982919693
1630070189266,0.3961023688316345,0.1972949504852295,0.5391743183135986,0.4234589040279388
1630070189329,0.3771877288818359,0.1048454716801643,0.5204938650131226,0.4163760542869568
1630070189407,0.2958531081676483,-0.001760303042829,0.4975341260433197,0.3355001807212829
1630070189516,0.2001587152481079,-0.0958136916160583,0.2903890311717987,0.2617070972919464
1630070189594,0.1308581829071045,-0.1483676582574844,0.1609364598989486,0.2136045545339584
1630070189707,0.1057633906602859,-0.1650449931621551,0.1617639660835266,0.1999366134405136
1630070189910,0.1071433946490287,-0.1706294566392898,0.2232963293790817,0.2114961594343185
1630070189941,0.1206814721226692,-0.1804131269454956,0.2815900146961212,0.2326394021511078
1630070190035,0.1194375529885292,-0.1917272955179214,0.3247541487216949,0.254416674375534
1630070190097,0.1060326471924781,-0.1944550275802612,0.3527278304100036,0.2698776125907898
1630070190191,0.0943954735994339,-0.1848238706588745,0.3672350645065307,0.2732986807823181
1630070190331,0.0894448235630989,-0.1662710160017013,0.3718928396701813,0.2741748690605163
1630070190456,0.0910120531916618,-0.1544989794492721,0.3652853071689605,0.2830685675144195
1630070190503,0.0925499722361564,-0.1570977568626403,0.3472887873649597,0.3070064485073089
1630070190612,0.0912171602249145,-0.1744070649147033,0.3219412267208099,0.333378404378891
1630070190745,0.0884473472833633,-0.196866825222969,0.2995420694351196,0.3611187934875488
1630070190823,0.0855286717414856,-0.215885192155838,0.2910881042480469,0.3893268406391144
1630070190886,0.0854052230715751,-0.2290374636650085,0.2951918542385101,0.4195061922073364
1630070191057,0.0804613083600997,-0.2405227422714233,0.3018689155578613,0.4509052634239197
1630070191134,0.0628896057605743,-0.2587414979934692,0.2976778745651245,0.4773556590080261
1630070191276,0.0258549265563488,-0.2867752015590668,0.2726930379867553,0.4903695583343506
1630070191308,-0.0216106958687305,-0.3172322511672973,0.2243784666061401,0.4900700151920318
1630070191403,-0.0674436166882515,-0.3429604172706604,0.1551415473222732,0.4786770045757293
1630070191511,-0.0984120368957519,-0.3639402985572815,0.0803531557321548,0.4639805853366852
1630070191669,-0.1087548807263374,-0.3856256306171417,0.0151602569967508,0.4535579681396484
1630070191756,-0.1013747304677963,-0.4113614559173584,-0.0344614014029502,0.4550158679485321
1630070191842,-0.0814228355884552,-0.4359718859195709,-0.0633629858493805,0.4615870416164398
1630070191949,-0.0529877245426178,-0.4455136358737945,-0.0780342817306518,0.4663483798503876
1630070192059,-0.0280734300613403,-0.4422106146812439,-0.0875113829970359,0.463945597410202
1630070192125,-0.011272151954472,-0.4387800395488739,-0.0938964560627937,0.4628773927688598
1630070192269,-0.0039755585603415,-0.443775475025177,-0.0974092409014701,0.4605131149291992
1630070192348,-0.0115122869610786,-0.4521403014659881,-0.1079554855823516,0.4531449973583221
1630070192444,-0.0309691615402698,-0.4589338898658752,-0.1263690441846847,0.4440398216247558
1630070192538,-0.0532937422394752,-0.464905172586441,-0.1440801322460174,0.4332584142684936
1630070192628,-0.0695816501975059,-0.4003526568412781,-0.1634132862091064,0.4053549170494079
1630070192706,-0.0827989876270294,-0.2398809045553207,-0.1588493436574936,0.386131227016449
1630070192876,-0.0905274152755737,0.0280410517007112,-0.105893462896347,0.3844578266143799
1630070192973,-0.0914132893085479,0.3048661649227142,0.0019235864747315,0.396013468503952
1630070193066,-0.0802623629570007,0.5172282457351685,0.118909902870655,0.4155496060848236
1630070193144,-0.0662683397531509,0.6516170501708984,0.2125425487756729,0.4372073411941528
1630070193238,-0.0605317503213882,0.7208876609802246,0.2716400623321533,0.4611593186855316
1630070193368,-0.0744256973266601,0.7481779456138611,0.3070265650749206,0.487044095993042
1630070193509,-0.1173730120062828,0.755885899066925,0.3309292495250702,0.5163319110870361
1630070193539,-0.1703861206769943,0.7562139630317688,0.3518164157867431,0.5508277416229248
1630070193665,-0.2148241996765136,0.7564235329627991,0.3692685663700104,0.5797704458236694
1630070193774,-0.2148241996765136,0.7569352388381958,0.3832773566246032,0.5797704458236694
1630070193869,-0.2148241996765136,0.7572857141494751,0.3938199579715729,0.5797704458236694
1630070193976,-0.2148241996765136,0.7567908763885498,0.4018716216087341,0.5797704458236694
1630070194070,-0.2148241996765136,0.7555999159812927,0.4101065397262573,0.5797704458236694
1630070194226,-0.0948271006345748,0.7497376203536987,0.4216921627521515,0.8521981835365295
1630070194273,-0.0948271006345748,0.7398093342781067,0.4351515173912048,0.8521981835365295
1630070194367,-0.0948271006345748,0.7198646664619446,0.4436453878879547,0.8521981835365295
1630070194541,-0.0948271006345748,0.7097899317741394,0.4609602987766266,0.8521981835365295
1630070194588,-0.0948271006345748,0.7487317323684692,0.5021883249282837,0.8521981835365295
1630070194729,-0.0948271006345748,0.8409900665283203,0.5581997036933899,0.8521981835365295
1630070194807,-0.0948271006345748,0.8186960816383362,0.6113393306732178,0.8521981835365295
1630070194901,-0.0948271006345748,0.8243786692619324,0.6466751098632812,0.8521981835365295
1630070194963,-0.0948271006345748,0.8489066958427429,0.664645791053772,0.8521981835365295
1630070195072,-0.0948271006345748,0.8836185932159424,0.6728410124778748,0.8521981835365295
1630070195151,-0.0948271006345748,0.9227930307388306,0.6820483207702637,0.8521981835365295
1630070195322,-0.0948271006345748,0.9668335318565368,0.6910912394523621,0.8521981835365295
1630070195432,-0.0948271006345748,0.969512104988098,0.6988385319709778,0.8521981835365295
1630070195526,-0.0948271006345748,0.9741795659065248,0.7032246589660645,0.8521981835365295
1630070195619,-0.0948271006345748,0.9797691106796264,0.7017282247543335,0.8521981835365295
1630070195729,-0.0948271006345748,0.9844006299972534,0.6951919794082642,0.8521981835365295
1630070195799,-0.2512487173080444,0.9816797375679016,0.6840733289718628,0.6890425086021423
1630070195926,-0.2152528017759323,0.9623276591300964,0.6687271595001221,0.7348297834396362
1630070196067,-0.1805075109004974,0.8907635807991028,0.6362857818603516,0.760086715221405
1630070196083,-0.1518444120883941,0.6880334615707397,0.5755301117897034,0.7612309455871582
1630070196239,-0.1339911222457885,-0.1418129652738571,0.4872686266899109,0.7380529046058655
1630070196301,-0.1276902705430984,-0.1492991298437118,0.3864009976387024,0.70139080286026
1630070196426,-0.1280704736709594,-0.1607924699783325,0.2977226376533508,0.6609370112419128
1630070196520,-0.1320642679929733,-0.1776217669248581,0.234155386686325,0.6234386563301086
1630070196676,-0.1320642679929733,-0.187842845916748,0.1920197755098343,0.5989862680435181
1630070196723,-0.1320642679929733,-0.1634821146726608,0.1607282012701034,0.5989862680435181
1630070196832,-0.1320642679929733,-0.0403897128999233,0.1579876691102981,0.5989862680435181
1630070196946,-0.1320642679929733,0.2149685174226761,0.2108320444822311,0.5989862680435181
1630070197008,-0.1154532581567764,0.2251003235578537,0.3104712963104248,0.600099503993988
1630070197129,-0.1015537977218627,0.2334046810865402,0.4147654473781585,0.5946126580238342
1630070197254,-0.0884167253971099,0.245552197098732,0.4865727424621582,0.5815913081169128
1630070197333,-0.0762499719858169,0.2676454782485962,0.5262314677238464,0.5458244681358337
1630070197427,-0.0731574594974517,0.3010078072547912,0.5462906956672668,0.4668593406677246
1630070197521,-0.0802720338106155,0.3415432274341583,0.5609815716743469,0.3400535583496094
1630070197583,-0.0994790494441986,0.3848492801189422,0.5733690857887268,0.1623465269804
1630070197739,-0.0994790494441986,0.3942400515079498,0.5817615389823914,-0.0115665365010499
1630070197865,-0.0994790494441986,0.3988703787326813,0.5847808122634888,-0.0115665365010499
1630070197931,-0.0994790494441986,0.4044416844844818,0.5854660272598267,-0.0115665365010499
1630070198010,-0.0994790494441986,0.411072164773941,0.5870983600616455,-0.0115665365010499
1630070198119,-0.0994790494441986,0.4148697853088379,0.5916070938110352,-0.0115665365010499
1630070198228,-0.466520220041275,0.4022045433521271,0.5955047607421875,0.4644575417041778
1630070198353,-0.3194461166858673,0.3218684196472168,0.594354510307312,0.4588038027286529
1630070198478,-0.1856838166713714,-0.1271519660949707,0.5740900635719299,0.4645941853523254
1630070198588,-0.0970165655016899,-0.0947517529129982,0.5286020040512085,0.4685573577880859
1630070198681,-0.0517274774610996,-0.0530911237001419,0.4646545350551605,0.45682093501091
1630070198744,-0.0468772463500499,-0.0173622667789459,0.4076037406921386,0.4316909611225128
1630070198822,-0.0606728233397007,0.0106207486242055,0.3712921440601349,0.4106101095676422
1630070198950,-0.079479843378067,0.0365726612508297,0.3539117574691772,0.3952098190784454
1630070199090,-0.0931776911020279,0.0616174153983593,0.340545117855072,0.3825338184833526
1630070199137,-0.1030896306037902,0.0778278559446334,0.3205277919769287,0.373181402683258
1630070199262,-0.1139755249023437,0.0826523229479789,0.2985574305057525,0.3693415522575378
1630070199340,-0.1246654987335205,0.0768068358302116,0.2820636630058288,0.364587128162384
1630070199434,-0.1128704324364662,0.0641503259539604,0.2733276784420013,0.3588537275791168
1630070199575,-0.0963039472699165,0.049638919532299,0.2698369324207306,0.3602098822593689
1630070199700,-0.0814379677176475,0.0381802171468734,0.258513480424881,0.375935822725296
1630070199778,-0.0783837512135505,0.0329903215169906,0.2312964797019958,0.3820440173149109
1630070199897,-0.093308687210083,0.0306824762374162,0.1872123330831527,0.384157657623291
1630070199944,-0.1297353357076645,0.0251115895807743,0.1383130848407745,0.3870158195495605
1630070200038,-0.1768277734518051,0.0100221177563071,0.0889136046171188,0.400708258152008
1630070200210,-0.2224785536527633,-0.0174341257661581,0.0438759289681911,0.421926885843277
1630070200257,-0.2484141588211059,-0.0542469322681427,0.0143818575888872,0.4495899677276611
1630070200370,-0.246267631649971,-0.1003368943929672,0.0099509935826063,0.469099223613739
1630070200481,-0.2268389761447906,-0.1612625420093536,0.0138423210009932,0.4804730713367462
1630070200607,-0.2004951387643814,-0.2443963140249252,0.0139788864180445,0.4961779117584228
1630070200638,-0.1704927235841751,-0.3350271880626678,0.0222703740000724,0.5181537866592407
1630070200767,-0.1331658363342285,-0.4015592336654663,0.0446433760225772,0.5372015833854675
1630070200943,-0.0928591340780258,-0.4340410530567169,0.0851195007562637,0.5576272010803223
1630070200973,-0.0592718981206417,-0.4389970600605011,0.1460390239953994,0.5702028274536133
1630070201096,-0.0429516695439815,-0.4300524294376373,0.2139230519533157,0.5736534595489502
1630070201171,-0.0436535105109214,-0.4228941798210144,0.276470422744751,0.5642650127410889
1630070201303,-0.0506042838096618,-0.4119498431682586,0.3275241553783417,0.5568671226501465
1630070201423,-0.0573877952992916,-0.3860873579978943,0.3656080365180969,0.5434844493865967
1630070201503,-0.0632641911506652,-0.3427197337150574,0.3923398852348327,0.5230239629745483
1630070201596,-0.0699319317936897,-0.2916438579559326,0.409676730632782,0.4939743876457214
1630070201676,-0.0753761157393455,-0.250230461359024,0.4154102206230163,0.4608746170997619
1630070201755,-0.0783314108848571,-0.2264635115861892,0.4096550345420837,0.4286808669567108
1630070201843,-0.0894222557544708,-0.2092320173978805,0.3942927122116089,0.4061998426914215
1630070202037,-0.1109094843268394,-0.1877461969852447,0.3768073320388794,0.3986964821815491
1630070202130,-0.1460983455181121,-0.1675091832876205,0.3623929917812347,0.3935592472553253
1630070202209,-0.1698403805494308,-0.1416253894567489,0.3530491292476654,0.3988335728645324
1630070202318,-0.2084643542766571,-0.0787771418690681,0.3461999595165252,0.376176506280899
1630070202414,-0.2674776911735534,0.0562277622520923,0.341764897108078,0.3460878431797027
1630070202492,-0.3481428325176239,0.2888390123844147,0.3464354872703552,0.3129091262817383
1630070202617,-0.4253841340541839,0.5394403338432312,0.3662813305854797,0.2774218618869781
1630070202746,-0.4689869284629822,0.7364010214805603,0.3953301012516022,0.2539324462413788
1630070202791,-0.4861132502555847,0.863400936126709,0.4184997975826263,0.2459950447082519
1630070202915,-0.500302255153656,0.9302282333374025,0.428400844335556,0.2611625790596008
1630070202978,-0.5119728446006775,0.9554827213287354,0.4266490042209625,0.2904103398323059
1630070203071,-0.5226764678955078,0.9602728486061096,0.4240716695785522,0.3230770230293274
1630070203259,-0.5403100252151489,0.959499180316925,0.4337756037712097,0.3748995363712311
1630070203290,-0.5403100252151489,0.9593433737754822,0.4492820203304291,0.4365800321102142
1630070203432,-0.5403100252151489,0.9600531458854676,0.466668039560318,0.4365800321102142
1630070203525,-0.5403100252151489,0.9610662460327148,0.4795691072940826,0.4365800321102142
1630070203588,-0.5403100252151489,0.9622136354446412,0.4847884178161621,0.4365800321102142
1630070203697,-0.5403100252151489,0.962326169013977,0.4822350144386291,0.4365800321102142
1630070203857,-0.3700805008411407,0.958612620830536,0.4753590822219848,0.6394426822662354
1630070203936,-0.3570279479026794,0.9449617862701416,0.4635232985019684,0.6244942545890808
1630070204076,-0.3399665057659149,0.9037606716156006,0.4368587732315063,0.6046887040138245
1630070204139,-0.2970186769962311,0.8125356435775757,0.3881334066390991,0.583147406578064
1630070204217,-0.2471415698528289,0.6532173752784729,0.3251738250255584,0.568895161151886
1630070204326,-0.2066550403833389,0.419678658246994,0.2692271769046783,0.5608869194984436
1630070204435,-0.1864836513996124,0.136688157916069,0.2316111177206039,0.5535722374916077
1630070204592,-0.1670570522546768,-0.1028098762035369,0.211357370018959,0.552283763885498
1630070204685,-0.1491273194551468,-0.2214770317077636,0.195788949728012,0.5516698956489563
1630070204732,-0.1328431665897369,-0.2740769386291504,0.1730407625436782,0.5502321720123291
1630070204810,-0.128422200679779,-0.3209048807621002,0.1533806025981903,0.5445929169654846
1630070204908,-0.1373043209314346,-0.3668354749679565,0.1353196948766708,0.5372681617736816
1630070205048,-0.1463275551795959,-0.4134920537471771,0.121959164738655,0.4796493053436279
1630070205142,-0.1506094485521316,-0.4464312791824341,0.1181274428963661,0.4680010676383972
1630070205298,-0.1483106166124344,-0.4659880399703979,0.1221947371959686,0.4702968001365661
1630070205345,-0.1381546854972839,-0.4775693416595459,0.1237918585538864,0.4583500027656555
1630070205470,-0.1214838400483131,-0.4817512333393097,0.1178736016154289,0.4419340491294861
1630070205563,-0.0988731831312179,-0.4827581644058227,0.1077498942613601,0.4444015026092529
1630070205657,-0.0868580639362335,-0.4704510569572449,0.1009846776723861,0.4669911861419678
1630070205829,-0.0798642039299011,-0.4346045851707458,0.0983014777302742,0.4954516887664795
1630070205859,-0.0885937288403511,-0.3618555665016174,0.1033030450344085,0.4957767426967621
1630070205956,-0.0927637740969657,-0.2152156829833984,0.1257631331682205,0.4968540370464325
1630070206034,-0.1004842221736908,0.0190037172287702,0.1788052171468734,0.4931329786777496
1630070206144,-0.1121598407626152,0.2713842093944549,0.262057900428772,0.4881101846694946
1630070206284,-0.1287396401166916,0.4771449863910675,0.3535321056842804,0.4834001660346985
1630070206362,-0.1351805478334427,0.6139531135559082,0.4288711845874786,0.4855325818061828
1630070206487,-0.1195724308490753,0.6875325441360474,0.4784125387668609,0.4931597709655761
1630070206596,-0.0800031945109367,0.7171424627304077,0.5027228593826294,0.5054593682289124
1630070206692,-0.0358542092144489,0.7234274744987488,0.5209308862686157,0.5209475159645081
1630070206739,0.0062528261914849,0.7271113991737366,0.5535458922386169,0.5526055097579956
1630070206895,0.0404030196368694,0.7409645915031433,0.6405296325683594,0.6034858226776123
1630070206974,0.0404030196368694,0.7686319351196289,0.7732296586036682,0.6034858226776123
1630070207083,0.0404030196368694,0.8059630393981934,0.9129636883735656,0.6034858226776123
1630070207161,0.0404030196368694,0.8422529101371765,1.0288633108139038,0.6034858226776123
1630070207317,0.0404030196368694,0.8701500296592712,1.0531020164489746,0.6034858226776123
1630070207333,0.0404030196368694,0.8866981863975525,1.078091740608215,0.6034858226776123
1630070207505,0.0404030196368694,0.8885965347290039,1.104535698890686,0.6034858226776123
1630070207633,0.0404030196368694,0.8708767890930176,1.1310654878616333,0.6034858226776123
1630070207680,0.0404030196368694,0.8280675411224365,1.1555726528167725,0.6034858226776123
1630070207774,0.0404030196368694,0.7599107623100281,1.178382158279419,0.6034858226776123
1630070207899,0.0404030196368694,0.6825210452079773,1.2046602964401243,0.6034858226776123
1630070207961,0.0404030196368694,0.6348325610160828,1.2415885925292969,0.6034858226776123
1630070208102,0.0404030196368694,0.6439613699913025,1.2954463958740234,0.6034858226776123
1630070208195,0.0404030196368694,0.696075439453125,1.364011526107788,0.6034858226776123
1630070208274,0.0404030196368694,0.7507059574127197,1.4430782794952393,0.6034858226776123
1630070208398,0.0404030196368694,0.785416305065155,1.4430782794952393,0.6034858226776123
1630070208461,0.0404030196368694,0.7940250635147095,1.4430782794952393,0.6034858226776123
1630070208570,0.0404030196368694,0.7871506810188293,1.4430782794952393,0.6034858226776123
1630070208742,0.0404030196368694,0.7794184684753418,1.4430782794952393,0.6034858226776123
1630070208851,0.0404030196368694,0.7820721864700317,1.4430782794952393,0.6034858226776123
1630070208893,0.0404030196368694,0.8278310298919678,1.4430782794952393,0.6034858226776123
1630070209021,0.0404030196368694,0.9147264361381532,1.4430782794952393,0.6034858226776123
1630070209117,0.0404030196368694,0.9369746446609496,1.4430782794952393,0.6034858226776123
1630070209192,0.0404030196368694,1.017019748687744,1.4430782794952393,0.6034858226776123
1630070209319,0.0404030196368694,1.0586340427398682,1.4430782794952393,0.6034858226776123
1630070209445,0.0404030196368694,1.070883870124817,1.4430782794952393,0.6034858226776123
1630070209540,0.0404030196368694,1.065220594406128,1.4430782794952393,0.6034858226776123
1630070209602,0.0404030196368694,1.0475436449050903,1.4430782794952393,0.6034858226776123
1630070209697,0.0404030196368694,1.0201152563095093,1.4430782794952393,0.6034858226776123
1630070209780,0.0404030196368694,0.9884227514266968,1.4430782794952393,0.6034858226776123
1630070209922,0.0404030196368694,0.9596123099327089,1.4430782794952393,0.6034858226776123
1630070209986,0.0404030196368694,0.9376850128173828,1.4430782794952393,0.6034858226776123
1630070210098,-0.1415176093578338,0.9170696139335632,0.2509947121143341,0.6034858226776123
1630070210197,-0.1548806279897689,0.8923906683921814,0.2464248538017273,0.6832420229911804
1630070210322,-0.1757594496011734,0.860590398311615,0.2329430133104324,0.6673698425292969
1630070210416,-0.1840259432792663,0.7888221144676208,0.2123505771160125,0.6416056752204895
1630070210572,-0.1549943536520004,0.6356073617935181,0.1851156502962112,0.6087173223495483
1630070210650,-0.0977696776390075,0.6071926951408386,0.1555890887975692,0.5679008960723877
1630070210760,-0.0977696776390075,0.3610243201255798,0.1288677155971527,0.5355181694030762
1630070210822,-0.0977696776390075,0.0727515146136283,0.1729657649993896,0.5355181694030762
1630070210931,-0.0977696776390075,-0.0829101800918579,0.3126555979251861,0.5355181694030762
1630070211041,-0.0977696776390075,0.0550273247063159,0.3126555979251861,0.5355181694030762
1630070211166,-0.0977696776390075,0.3376143872737884,0.3126555979251861,0.5355181694030762
1630070211244,-0.0977696776390075,0.3595418334007263,0.3126555979251861,0.5355181694030762
1630070211353,-0.0929672345519065,0.378387451171875,0.3207435607910156,0.5355181694030762
1630070211463,-0.0827718451619148,0.3929890990257263,0.3298525512218475,0.4759206175804138
1630070211556,-0.0758159682154655,0.4094836115837097,0.3350168764591217,0.4342803657054901
1630070211637,-0.0656908154487609,0.4332000613212585,0.3404863178730011,0.4054669737815857
1630070211777,-0.0355529487133026,0.4671503007411957,0.3544549942016601,0.3653858304023742
1630070211871,-0.0355529487133026,0.5118821859359741,0.3799815475940704,0.2810549437999725
1630070211965,-0.0355529487133026,0.5316564440727234,0.5660564303398132,0.2810549437999725
1630070212043,-0.0355529487133026,0.546623945236206,0.6524250507354736,0.2810549437999725
1630070212152,-0.0355529487133026,0.5571205019950867,0.6823152899742126,0.2810549437999725
1630070212246,-0.0355529487133026,0.5618250966072083,0.697287380695343,0.2810549437999725
1630070212340,-0.1000518947839737,0.563044011592865,0.6796631217002869,0.8271164894104004
1630070212449,-0.1328199356794357,0.5384495854377747,0.5709357261657715,0.7749791741371155
1630070212543,-0.1328199356794357,0.4270741641521454,0.5395210385322571,0.7749791741371155
1630070212715,-0.1328199356794357,-0.1208146587014198,0.5585103034973145,0.7749791741371155
1630070212762,-0.1328199356794357,-0.0046173236332833,0.5585103034973145,0.7749791741371155
1630070212824,-0.1328199356794357,0.2370049506425857,0.5585103034973145,0.7749791741371155
1630070212980,-0.1328199356794357,0.4886322319507599,0.5585103034973145,0.7749791741371155
1630070213074,-0.1328199356794357,0.6811538338661194,0.5585103034973145,0.7749791741371155
1630070213199,-0.1328199356794357,0.8063783049583435,0.5585103034973145,0.7749791741371155
1630070213293,-0.1328199356794357,0.8754510283470154,0.5585103034973145,0.7749791741371155
1630070213340,-0.1328199356794357,0.9084640741348268,0.5585103034973145,0.7749791741371155
1630070213418,-0.1328199356794357,0.9444250464439392,0.457947164773941,0.7749791741371155
1630070213578,-0.2480042725801468,0.9710493683815002,0.3800562620162964,0.7048247456550598
1630070213672,-0.2480042725801468,0.9830425977706908,0.3747152388095855,0.7048247456550598
1630070213765,-0.2480042725801468,0.9878162145614624,0.4090625941753387,0.7048247456550598
1630070213860,-0.2480042725801468,0.9907286763191224,0.4090625941753387,0.7048247456550598
1630070213956,-0.2480042725801468,0.9959405660629272,0.4090625941753387,0.7048247456550598
1630070214097,-0.2480042725801468,1.0025733709335327,0.4090625941753387,0.7048247456550598
1630070214191,-0.2480042725801468,1.0178574323654177,0.4090625941753387,0.7048247456550598
1630070214300,-0.2480042725801468,1.0432448387145996,0.4090625941753387,0.7048247456550598
1630070214362,-0.2480042725801468,1.066249966621399,0.4090625941753387,0.7048247456550598
1630070214457,-0.2480042725801468,1.0696090459823608,1.0199872255325315,0.7048247456550598
1630070214598,-0.2480042725801468,1.045067310333252,0.9912140369415284,0.7048247456550598
1630070214678,-0.2480042725801468,0.9965691566467284,0.941536009311676,0.7048247456550598
1630070214818,-0.2480042725801468,0.9405273795127868,0.8902642130851746,0.7048247456550598
1630070214928,-0.2480042725801468,0.8898321986198425,0.861896812915802,0.7048247456550598
1630070214975,-0.2480042725801468,0.8541396260261536,0.861896812915802,0.7048247456550598
1630070215116,-0.2480042725801468,0.8332709670066833,0.861896812915802,0.7048247456550598
1630070215178,-0.2480042725801468,0.8479031324386597,0.861896812915802,0.7048247456550598
1630070215319,-0.2480042725801468,0.8882052302360535,0.861896812915802,0.7048247456550598
1630070215459,-0.2480042725801468,0.93492990732193,0.861896812915802,0.7048247456550598
1630070215491,-0.2480042725801468,0.9737533926963806,0.861896812915802,0.7048247456550598
1630070215600,-0.2480042725801468,0.9992750287055968,0.861896812915802,0.7048247456550598
1630070215681,-0.2480042725801468,1.0148042440414429,0.8657611012458801,0.7048247456550598
1630070215806,-0.2480042725801468,1.0090404748916626,0.8290091753005981,0.7048247456550598
1630070215916,-0.2480042725801468,0.9849662184715272,0.7430592179298401,0.7048247456550598
1630070216009,-0.2480042725801468,0.9526005387306212,0.6107837557792664,0.7048247456550598
1630070216134,-0.2480042725801468,0.9297181963920592,0.6107837557792664,0.7048247456550598
1630070216197,-0.2480042725801468,0.9319518208503724,0.6107837557792664,0.7048247456550598
1630070216369,-0.2480042725801468,0.957752525806427,0.6107837557792664,0.7048247456550598
1630070216400,-0.2480042725801468,0.9582913517951964,0.6107837557792664,0.7048247456550598
1630070216540,-0.2480042725801468,0.9476463794708252,0.6107837557792664,0.7048247456550598
1630070216653,-0.2480042725801468,0.9249171614646912,0.6107837557792664,0.7048247456550598
1630070216715,-0.2480042725801468,0.8755576610565186,0.6107837557792664,0.7048247456550598
1630070216809,-0.2480042725801468,0.7885711193084717,0.6107837557792664,0.7048247456550598
1630070216934,-0.2480042725801468,0.6608762145042419,0.6107837557792664,0.7048247456550598
1630070216996,-0.2480042725801468,0.488667219877243,0.6107837557792664,0.7048247456550598
1630070217106,-0.2480042725801468,0.2817870080471039,0.2586190402507782,0.7048247456550598
1630070217231,0.2731992900371551,-0.1612974852323532,0.259687066078186,0.5951246619224548
1630070217324,0.2063121497631073,-0.1734263449907302,0.2368687689304351,0.6007713675498962
1630070217449,0.1513627022504806,-0.1832644343376159,0.2115925103425979,0.6012303829193115
1630070217527,0.1099967211484909,-0.1916615664958953,0.1871801167726516,0.5994686484336853
1630070217597,0.0890974849462509,-0.2040427923202514,0.1882987022399902,0.6017088294029236
1630070217753,0.0954514518380165,-0.2198372185230255,0.216706708073616,0.6090549826622009
1630070217847,0.1194328516721725,-0.2321491539478302,0.2512431144714355,0.621046781539917
1630070217957,0.1461052298545837,-0.3222287595272064,0.2776978313922882,0.6259982585906982
1630070218019,0.1653394848108291,-0.3373739123344421,0.2872667610645294,0.6168392896652222
1630070218144,0.1812923103570938,-0.3329780995845794,0.2850058376789093,0.5986382961273193
1630070218222,0.1812923103570938,-0.310785561800003,0.2778837978839874,0.5986382961273193
1630070218331,0.1812923103570938,-0.2270581424236297,0.2736287415027618,0.5986382961273193
1630070218472,0.1477639228105545,-0.0078463042154908,0.2764976322650909,0.5989159345626831
1630070218566,0.1226101517677307,0.3180117905139923,0.2757981419563293,0.6004791855812073
1630070218644,0.1190943270921707,0.6141088604927063,0.2821890115737915,0.6032694578170776
1630070218831,0.1332376599311828,0.8265172839164734,0.2989688813686371,0.6001908779144287
1630070218894,0.1648898124694824,0.9557019472122192,0.3263544738292694,0.5972998142242432
1630070218956,0.2054005414247512,1.021073341369629,0.3524116277694702,0.5964041948318481
1630070219066,0.251932293176651,1.04584538936615,0.3691542744636535,0.5976676344871521
1630070219206,0.297244518995285,1.053820252418518,0.3688506484031677,0.5936799049377441
1630070219284,0.3285147845745086,1.058663249015808,0.3490314483642578,0.5742451548576355
1630070219378,0.3285147845745086,1.0629026889801023,0.3159191608428955,0.5742451548576355
1630070219503,0.3285147845745086,1.066199541091919,0.2797938287258148,0.5742451548576355
1630070219534,0.3285147845745086,1.0683724880218506,0.2613639533519745,0.5742451548576355
1630070219662,0.3285147845745086,1.0697790384292605,0.2647241652011871,0.5742451548576355
1630070219787,0.3285147845745086,1.0705199241638184,0.2833656668663025,0.5742451548576355
1630070219881,0.689585268497467,1.068257212638855,0.3003860414028168,0.9435592889785768
1630070219943,0.6602558493614197,1.054391860961914,0.3032417297363281,0.9277642369270324
1630070220084,0.6271613240242004,1.010444164276123,0.2885394394397735,0.9205511212348938
1630070220162,0.5962072014808655,0.914675772190094,0.259901762008667,0.9193865060806274
1630070220287,0.5652574300765991,0.750983715057373,0.2261297404766082,0.9179111123085022
1630070220412,0.526323139667511,0.5216214060783386,0.1873922944068908,0.9175377488136292
1630070220475,0.4858355820178985,0.2678572833538055,0.1623113453388214,0.9241507649421692
1630070220600,0.4532384574413299,0.0885229110717773,0.1847327202558517,0.926378607749939
1630070220727,0.4391147494316101,0.0124432733282446,0.2942430377006531,0.9341191649436952
1630070220774,0.4501203298568725,-0.0180032551288604,0.4651567935943603,0.9551767110824584
1630070220899,0.4501203298568725,-0.0212596375495195,0.488250732421875,1.005570411682129
1630070220977,0.4501203298568725,0.0422638654708862,0.5138394236564636,1.0863096714019775
1630070221087,0.4117984771728515,0.1889776587486267,0.5355408191680908,1.2076077461242676
1630070221196,0.3680396974086761,0.3727913498878479,0.551604688167572,1.3576043844223022
1630070221274,0.3241049945354461,0.5293629169464111,0.5623697638511658,1.4946074485778809
1630070221383,0.2781608700752258,0.6267669796943665,0.5776833295822144,1.5166316032409668
1630070221540,0.2361987233161926,0.6744232773780823,0.6056373715400696,1.5419522523880005
1630070221602,0.2049376517534256,0.7030280828475952,0.8191981911659241,1.5693328380584717
1630070221696,0.1772449761629104,0.7398485541343689,0.968299925327301,1.5990747213363647
1630070221774,0.1613156199455261,0.7923295497894287,1.0971392393112185,1.6323614120483398
1630070221915,0.2048152089118957,0.8524208664894104,1.1505542993545532,1.6697213649749756
1630070222008,0.2048152089118957,0.9029703736305236,1.209920883178711,1.7109123468399048
1630070222118,0.2048152089118957,0.9366312623023988,1.2736623287200928,1.759429693222046
1630070222196,0.2048152089118957,0.9545614719390868,1.3312257528305054,1.8151538372039795
1630070222305,0.2048152089118957,0.9606693983078004,1.3312257528305054,1.8783783912658687
1630070222383,0.2048152089118957,0.9587215781211852,1.3312257528305054,1.946108102798462
1630070222477,0.2048152089118957,0.9486311078071594,1.2536884546279907,1.946108102798462
1630070222586,0.2048152089118957,0.925015151500702,1.163557767868042,1.946108102798462
1630070222743,0.2048152089118957,0.8817278146743774,1.0910485982894895,1.946108102798462
1630070222899,0.2048152089118957,0.8228278160095215,1.039233684539795,1.946108102798462
1630070222930,0.2048152089118957,0.7691853046417236,1.006749153137207,1.946108102798462
1630070222992,0.2048152089118957,0.7372937798500061,0.9871659278869628,1.946108102798462
1630070223117,0.7866907715797424,0.7189773321151733,0.908328115940094,1.0371580123901367
1630070223227,0.9377609491348268,0.6973762512207031,0.8166718482971191,1.086390495300293
1630070223352,1.0334416627883911,0.6608786582946777,0.6831457018852234,1.1059722900390625
1630070223430,1.0795152187347412,0.6067476272583008,0.7596955299377441,1.1310758590698242
1630070223555,1.0795152187347412,0.5627427101135254,0.8468813300132751,1.1310758590698242
1630070223636,1.0795152187347412,0.5533469319343567,0.9234320521354676,1.1310758590698242
1630070223698,1.0795152187347412,0.5685599446296692,0.9809669852256776,1.1310758590698242
1630070223808,1.0795152187347412,0.5910565853118896,1.0104358196258545,1.1310758590698242
1630070223917,1.0795152187347412,0.6192270517349243,1.0238691568374634,1.1310758590698242
1630070224042,1.0795152187347412,0.6468226313591003,1.0566365718841553,1.1310758590698242
1630070224167,1.0795152187347412,0.6722659468650818,1.083905577659607,1.1310758590698242
1630070224230,1.0795152187347412,0.7003980278968811,1.1111681461334229,1.1310758590698242
1630070224323,1.137803077697754,0.7284263372421265,1.1370060443878174,1.1675833463668823
1630070224433,1.1971603631973269,0.7563784718513489,1.160324215888977,1.197032451629639
1630070224542,1.2553342580795288,0.785495936870575,1.1825079917907717,1.2193666696548462
1630070224670,1.2553342580795288,0.8082288503646851,1.2053388357162476,1.2193666696548462
1630070224732,1.2553342580795288,0.8131418824195862,1.2274309396743774,1.2193666696548462
1630070224857,1.2553342580795288,0.803661584854126,1.2459712028503418,1.2193666696548462
1630070224982,1.2553342580795288,0.7874087691307068,1.2581409215927124,1.2193666696548462
1630070225013,1.2553342580795288,0.7786861658096313,1.2513209581375122,1.2193666696548462
1630070225201,1.2553342580795288,0.7890267372131348,1.2239372730255127,1.2193666696548462
1630070225294,1.2553342580795288,0.8164511322975159,1.175459861755371,1.2193666696548462
1630070225341,1.2553342580795288,0.8463944792747498,1.175459861755371,1.2193666696548462
1630070225451,1.2553342580795288,0.8607785701751709,1.175459861755371,1.2193666696548462
1630070225529,1.2553342580795288,0.8588674664497375,1.175459861755371,1.2193666696548462
1630070225622,1.2553342580795288,0.8473666906356812,1.175459861755371,1.2193666696548462
1630070225841,1.2553342580795288,0.8273611664772034,1.175459861755371,1.2193666696548462
1630070225888,1.2553342580795288,0.7995467185974121,1.175459861755371,1.2193666696548462
1630070225997,1.2553342580795288,0.7652982473373413,1.175459861755371,1.2193666696548462
1630070226044,1.2553342580795288,0.7249940633773804,0.0397969000041484,1.2193666696548462
1630070226138,1.2553342580795288,0.6853457689285278,0.1187535896897316,1.2193666696548462
1630070226247,1.2184691429138184,0.6586146950721741,0.1880369186401367,1.2193666696548462
1630070226388,1.2088301181793213,0.64280104637146,0.2549706399440765,1.3959499597549438
1630070226482,1.1808751821517944,0.6317969560623169,0.3129617571830749,1.324848175048828
1630070226560,1.1438748836517334,0.6023746728897095,0.362845629453659,1.266767501831055
1630070226669,1.1058140993118286,0.532057523727417,0.3950212895870209,1.2305638790130615
1630070226794,1.0667365789413452,0.4165515303611755,0.4170762002468109,1.2087377309799194
1630070226857,1.0290158987045288,0.265404462814331,0.4332262873649597,1.190089464187622
1630070227013,1.0290158987045288,0.1261660456657409,0.4485543370246887,1.190089464187622
1630070227107,1.0290158987045288,0.0463031493127346,0.4615808427333832,1.190089464187622
1630070227231,1.0290158987045288,0.0413122251629829,0.4757154881954193,1.190089464187622
1630070227294,1.0290158987045288,0.1395997107028961,0.530537486076355,1.190089464187622
1630070227419,1.0290158987045288,0.3294274508953094,0.6088639497756958,1.190089464187622
1630070227544,0.9954380989074708,0.5161289572715759,0.6923158168792725,1.190089464187622
1630070227591,0.9622322916984558,0.65105140209198,0.7570356726646423,1.0892226696014404
1630070227684,0.9129462838172911,0.7280696034431458,0.7961636185646057,0.9904980659484864
1630070227763,0.8320778012275696,0.7606196999549866,0.8114068508148193,0.9254499077796936
1630070227922,0.7166217565536499,0.7678064703941345,0.8109810948371887,0.901778757572174
1630070228000,0.5996795892715454,0.7653799653053284,0.802964448928833,0.9266601204872132
1630070228078,0.5996795892715454,0.7584884166717529,0.791406512260437,0.9266601204872132
1630070228234,0.5996795892715454,0.7506264448165894,0.7799652218818665,0.9266601204872132
1630070228312,0.5996795892715454,0.743706226348877,0.771364152431488,0.9266601204872132
1630070228437,0.5996795892715454,0.748506486415863,0.7776891589164734,0.9266601204872132
1630070228500,0.5996795892715454,0.7782559990882874,0.8212175965309143,0.9266601204872132
1630070228609,0.5996795892715454,0.8027336001396179,0.8333101272583008,0.9266601204872132
1630070228687,0.5996795892715454,0.825459897518158,0.8453122973442078,0.9266601204872132
1630070228812,0.5996795892715454,0.8324783444404602,0.8467336893081665,0.9266601204872132
1630070228874,0.5996795892715454,0.8021500706672668,0.824404239654541,0.9266601204872132
1630070229046,0.5996795892715454,0.7183086276054382,0.7734290361404419,0.9266601204872132
1630070229140,0.5996795892715454,0.5789898633956909,0.7064976096153259,0.9266601204872132
1630070229202,0.5996795892715454,0.4806009232997894,0.6473321318626404,0.9266601204872132
1630070229343,0.5996795892715454,0.4100657701492309,0.6586084961891174,0.9266601204872132
1630070229446,0.5996795892715454,0.3938434422016144,0.6509029865264893,0.9266601204872132
1630070229525,0.5996795892715454,0.3935863375663757,0.6365899443626404,0.9266601204872132
1630070229604,0.5996795892715454,0.3979212045669555,0.6211478114128113,0.9266601204872132
1630070229714,0.5996795892715454,0.3969640731811523,0.6075375080108643,0.9266601204872132
1630070229806,0.5996795892715454,0.3908351361751556,0.5872503519058228,1.2617416381835938
1630070229921,0.8166654109954834,0.3460439443588257,0.5192431807518005,1.2396142482757568
1630070230061,0.8412753939628601,0.1621884703636169,0.2316128760576248,1.2156044244766235
1630070230158,0.846548318862915,0.1579657793045044,0.2045753002166748,1.2156044244766235
1630070230239,0.8722484707832336,0.203622967004776,0.1952083259820938,1.2156044244766235
1630070230319,0.9783446788787842,0.3864788115024566,0.20575712621212,1.2156044244766235
1630070230439,1.168817162513733,0.6504837870597839,0.2280940860509872,1.2156044244766235
1630070230513,1.363613486289978,0.8745598196983337,0.2562124133110046,1.2156044244766235
1630070230638,1.5014492273330688,1.023037075996399,0.2839201390743255,1.2156044244766235
1630070230731,1.5746636390686035,1.0352073907852173,0.3037058413028717,1.2156044244766235
1630070230847,1.5746636390686035,1.0598924160003662,0.2350454777479171,1.2156044244766235
1630070230926,1.5746636390686035,1.090556263923645,0.2189941853284835,1.2156044244766235
1630070231011,1.5746636390686035,1.126120924949646,0.2198289036750793,1.2106354236602783
1630070231120,1.6073120832443235,1.1657520532608032,0.2242359220981598,1.1789511442184448
1630070231261,1.6057902574539185,1.166289210319519,0.2380755394697189,1.1789511442184448
1630070231355,1.6030818223953247,1.1665964126586914,0.265076220035553,1.1789511442184448
1630070231448,1.598619818687439,1.1668119430541992,0.2954326570034027,1.1789511442184448
1630070231589,1.5937550067901611,1.166822075843811,0.3168011903762817,1.1789511442184448
1630070231636,1.5890332460403442,1.1635611057281494,0.3244956135749817,1.208980917930603
1630070231714,1.5808178186416626,1.154748797416687,0.3170938491821289,1.2165518999099731
1630070231854,1.558684468269348,1.1206278800964355,0.3002030551433563,1.2268061637878418
1630070231964,1.533427596092224,1.0240718126296997,0.2878907918930053,1.2268061637878418
1630070232042,1.4318745136260986,0.8108871579170227,0.2860335409641266,1.2268061637878418
1630070232136,1.194769024848938,0.3882500231266022,0.3086980581283569,1.2268061637878418
1630070232261,0.5283827781677246,0.6443900465965271,0.3706843554973602,1.2268061637878418
1630070232370,0.5283827781677246,0.6443900465965271,0.4546082019805908,1.2268061637878418
1630070232479,0.5283827781677246,0.6443900465965271,0.5337880849838257,1.2268061637878418
1630070232557,0.5283827781677246,0.6443900465965271,0.5981075763702393,1.2268061637878418
1630070232682,0.5283827781677246,0.7181183099746704,0.6431280374526978,1.2268061637878418
1630070232776,0.5201202630996704,0.7629808187484741,0.6741263270378113,1.2268061637878418
1630070232854,0.500326931476593,0.7866917848587036,0.688633143901825,1.2534997463226318
1630070232964,0.4598715305328369,0.8071188926696777,0.6952395439147949,1.2662726640701294
1630070233089,0.4598715305328369,0.8252304196357727,0.7047953605651855,1.2662726640701294
1630070233167,0.4598715305328369,0.8444889783859253,0.7252351641654968,1.2662726640701294
1630070233307,0.4598715305328369,0.8654319643974304,0.7533748149871826,1.2662726640701294
1630070233385,0.4598715305328369,0.8814864158630371,0.7788927555084229,1.2662726640701294
1630070233479,0.4598715305328369,0.8828256726264954,0.7952225804328918,1.2662726640701294
1630070233604,0.4598715305328369,0.8633783459663391,0.8036443591117859,1.2662726640701294
1630070233713,0.4598715305328369,0.8092429637908936,0.8081786036491394,1.2662726640701294
1630070233791,0.4598715305328369,0.6941132545471191,0.8087926506996155,1.2662726640701294
1630070233930,0.4598715305328369,0.720461905002594,0.8106241226196289,1.2662726640701294
1630070233993,0.4598715305328369,0.7498517632484436,0.8130598664283752,1.2662726640701294
1630070234055,0.4598715305328369,0.7669495940208435,0.8221960067749023,1.2662726640701294
1630070234180,0.4598715305328369,0.72658371925354,0.8528743982315063,1.2662726640701294
1630070234290,0.4598715305328369,0.7097707390785217,0.8996684551239014,1.2662726640701294
1630070234430,0.4598715305328369,0.7060843706130981,0.9432108402252196,1.2662726640701294
1630070234540,0.4598715305328369,0.6992685794830322,0.9700408577919006,1.2662726640701294
1630070234633,0.4598715305328369,0.6886812448501587,0.9801579713821412,1.2662726640701294
1630070234680,0.4598715305328369,0.6721943616867065,0.9756852388381958,1.2662726640701294
1630070234774,0.4598715305328369,0.6514474153518677,0.9631579518318176,1.2662726640701294
1630070234899,0.4598715305328369,0.6322499513626099,0.9469618201255798,1.1318364143371582
1630070235008,0.4598715305328369,0.6191833019256592,0.931819498538971,1.0466638803482056
1630070235102,0.4598715305328369,0.6114109754562378,0.9168652296066284,0.9756866097450256
1630070235243,0.4598715305328369,0.5938724875450134,0.8975041508674622,0.9159340858459472
1630070235289,0.4598715305328369,0.5487111806869507,0.8707671165466309,0.8673900961875916
1630070235383,-0.0088030565530061,0.4713110625743866,0.8334010243415833,0.8301665782928467
1630070235524,-0.0049287034198641,0.360464334487915,0.791492760181427,0.8044466376304626
1630070235602,-0.020263435319066,0.2365195751190185,0.7422713041305542,0.7878121733665466
1630070235711,-0.0533611588180065,0.1238492429256439,0.6650841236114502,0.7747076153755188
1630070235828,-0.0928170159459114,0.0280270986258983,0.5391728281974792,0.7626015543937683
1630070235987,-0.127849668264389,-0.074922427535057,0.3735219240188598,0.7479947209358215
1630070236034,-0.1574283391237259,-0.172915831208229,0.2040698081254959,0.7308029532432556
1630070236175,-0.1755399852991104,-0.2506029903888702,0.0638792663812637,0.5512279272079468
1630070236237,-0.1719661951065063,-0.3048570454120636,-0.0276992060244083,0.4275990128517151
1630070236347,-0.1461566835641861,-0.3634884357452392,-0.0798209980130195,0.3632235527038574
1630070236440,-0.1122609451413154,-0.436512291431427,-0.0725696235895156,0.3464260399341583
1630070236487,-0.0839881747961044,-0.4929647445678711,-0.0389350429177284,0.3646791577339172
1630070236643,-0.0720855891704559,-0.5176664590835571,0.0102559095248579,0.3958382308483124
1630070236721,-0.0807542726397514,-0.5147597193717957,0.0522599034011364,0.4352844655513763
1630070236831,-0.1084494367241859,-0.4970278143882751,0.0688022300601005,0.4795721769332886
1630070236909,-0.1399195939302444,-0.4802280068397522,0.0691274628043174,0.527040421962738
1630070237065,-0.152925044298172,-0.4195499122142792,0.0642050430178642,0.5315443277359009
1630070237143,-0.156728520989418,-0.2864688634872436,0.0607236474752426,0.528200626373291
1630070237206,-0.144802525639534,-0.1069180518388748,0.0610189288854599,0.52201908826828
1630070237409,-0.1208683177828788,0.0712846145033836,0.0651254653930664,0.5160614252090454
1630070237471,-0.092407003045082,0.2176249772310257,0.0777370631694793,0.518344521522522
1630070237534,-0.0605422928929328,0.3188298046588897,0.098294623196125,0.5321652889251709
1630070237693,-0.0311879198998212,0.3794722259044647,0.1307632476091385,0.5539215207099915
1630070237787,-0.0182499960064888,0.4110379517078399,0.1795888096094131,0.5899291634559631
1630070237818,-0.0375370234251022,0.4276077151298523,0.2283560931682586,0.6338133215904236
1630070237965,-0.0993862450122833,0.4526638388633728,0.2570371329784393,0.6786909699440002
1630070238043,-0.2171906977891922,0.4940649271011352,0.262626051902771,0.7190280556678772
1630070238184,-0.2171906977891922,0.5463701486587524,0.262626051902771,0.7190280556678772
1630070238215,-0.2171906977891922,0.5959213376045227,0.262626051902771,0.7190280556678772
1630070238324,-0.2171906977891922,0.6356673240661621,0.262626051902771,0.7190280556678772
1630070238434,-0.2171906977891922,0.664954662322998,0.262626051902771,0.7190280556678772
1630070238590,1.036644458770752,0.6835298538208008,0.262626051902771,0.9908495545387268
1630070238684,0.9722496271133424,0.6900300979614258,0.262626051902771,1.0111716985702517
1630070238746,0.9722496271133424,0.6856951713562012,0.262626051902771,1.0111716985702517
1630070238824,0.9722496271133424,0.6730231642723083,0.262626051902771,1.0111716985702517
1630070238937,0.9722496271133424,0.6778485178947449,1.0364837646484375,1.0111716985702517
1630070239031,0.9722496271133424,0.7216359972953796,1.086046576499939,1.0111716985702517
1630070239156,0.9722496271133424,0.7881379127502441,1.1312416791915894,1.0111716985702517
1630070239312,0.9722496271133424,0.8474031686782837,1.1646265983581543,1.0111716985702517
1630070239359,0.9722496271133424,0.8839173316955566,1.1753740310668943,1.0111716985702517
1630070239468,0.9722496271133424,0.894378125667572,1.1662733554840088,1.0111716985702517
1630070239577,0.9722496271133424,0.886510968208313,1.1456378698349,1.0111716985702517
1630070239690,0.9722496271133424,0.8714309930801392,1.129815936088562,1.0111716985702517
1630070239831,0.8655985593795776,0.8626667261123657,1.124051213264465,1.0071558952331543
1630070239877,0.8655985593795776,0.8789615035057068,1.145950198173523,1.0071558952331543
1630070240018,0.8655985593795776,0.916757881641388,1.145950198173523,1.0071558952331543
1630070240080,0.8655985593795776,0.9583139419555664,1.145950198173523,1.0071558952331543
1630070240159,0.8655985593795776,0.9865379929542542,1.1605093479156494,1.0071558952331543
1630070240268,0.8655985593795776,0.9961611032485962,1.1762624979019165,1.0071558952331543
1630070240393,0.8655985593795776,0.9914632439613342,1.1846213340759275,1.0071558952331543
1630070240471,0.8655985593795776,0.973077118396759,1.1869564056396484,1.0071558952331543
1630070240580,0.8655985593795776,0.942941665649414,1.1795856952667236,1.0071558952331543
1630070240705,0.8655985593795776,0.9079509377479552,1.1581727266311646,1.0071558952331543
1630070240797,0.8655985593795776,0.881036102771759,1.12309467792511,1.0071558952331543
1630070240878,0.8655985593795776,0.8683242201805115,1.125647783279419,1.0071558952331543
1630070241020,0.8655985593795776,0.864922821521759,1.1250072717666626,1.0071558952331543
1630070241097,1.15298330783844,0.8636481761932373,1.1167315244674685,0.4463855028152466
1630070241207,1.0716710090637207,0.8580042123794556,1.0856479406356812,0.4213322699069977
1630070241268,1.0025423765182495,0.8412517309188843,1.0226606130599976,0.4064817726612091
1630070241393,0.9449366927146912,0.7975793480873108,0.8411350250244141,0.3957731127738952
1630070241486,0.9449366927146912,0.7221940159797668,0.7848769426345825,0.3857834637165069
1630070241628,0.9449366927146912,0.622666597366333,0.7544392943382263,0.4330511689186096
1630070241722,0.9449366927146912,0.5315595269203186,0.7619195580482483,0.5711303353309631
1630070241807,0.9449366927146912,0.4873909950256347,0.8357659578323364,0.8103863596916199
1630070241895,0.9449366927146912,0.4968359768390655,0.9519122242927552,1.0587903261184692
1630070242004,0.9449366927146912,0.5209634900093079,0.9519122242927552,1.2451454401016235
1630070242082,0.9449366927146912,0.5198143720626831,0.9519122242927552,1.361655831336975
1630070242222,0.9449366927146912,0.4872069358825683,0.9519122242927552,1.4218499660491943
1630070242316,0.8028998374938965,0.4286502301692962,0.9519122242927552,1.46533465385437
1630070242407,0.6025815606117249,0.3837469220161438,0.905596137046814,1.4872232675552368
1630070242501,0.3749034404754638,0.3945013582706451,0.8808181881904602,1.5047162771224976
1630070242611,0.3749034404754638,0.4630675911903381,0.889660656452179,1.5242712497711182
1630070242673,0.3749034404754638,0.5486321449279785,0.9256990551948548,1.5428260564804075
1630070242845,0.3749034404754638,0.6314226984977722,0.981580913066864,1.5576215982437134
1630070242954,0.3749034404754638,0.7100646495819092,1.0557737350463867,1.5681968927383425
1630070243048,0.3749034404754638,0.7381190061569214,1.144688844680786,1.5965646505355835
1630070243110,0.3749034404754638,0.7679920196533203,1.144688844680786,1.6248468160629272
1630070243204,0.3749034404754638,0.7978871464729309,1.144688844680786,1.649299383163452
1630070243345,0.3749034404754638,0.8235597014427185,1.144688844680786,1.6587237119674685
1630070243517,0.3749034404754638,0.8422373533248901,1.144688844680786,1.638500690460205
1630070243563,0.3749034404754638,0.8569236397743225,1.144688844680786,1.5820634365081787
1630070243673,0.3749034404754638,0.8755613565444946,1.144688844680786,1.4956486225128174
1630070243704,0.3749034404754638,0.9187302589416504,1.144688844680786,1.4008641242980957
1630070243845,0.3749034404754638,0.9287492632865906,1.144688844680786,1.340564250946045
1630070243941,0.3749034404754638,0.9216622710227966,1.144688844680786,1.325963258743286
1630070244050,0.3749034404754638,0.8991572260856628,1.144688844680786,1.3232015371322632
1630070244128,0.3749034404754638,0.8502463698387146,1.144688844680786,1.3232015371322632
1630070244269,0.3749034404754638,0.7865123748779297,0.6978938579559326,1.3232015371322632
1630070244331,0.3749034404754638,0.7637528777122498,0.6905961632728577,1.3232015371322632
1630070244472,0.3749034404754638,0.6783437728881836,0.6743979454040527,1.3232015371322632
1630070244534,0.3749034404754638,0.6783437728881836,0.6419354677200317,1.3232015371322632
1630070244709,0.3749034404754638,0.6783437728881836,0.6056807637214661,1.3232015371322632
1630070244740,0.3749034404754638,0.6783437728881836,0.5725285410881042,1.3232015371322632
1630070244865,0.3749034404754638,0.6783437728881836,0.5423427820205688,1.3232015371322632
1630070244943,0.3749034404754638,0.6783437728881836,0.5121030211448669,1.3232015371322632
1630070245037,0.3749034404754638,0.6783437728881836,0.4832800924777984,1.3232015371322632
1630070245162,0.3749034404754638,0.6783437728881836,0.4576475620269775,1.3232015371322632
1630070245293,0.3749034404754638,0.5305588245391846,0.4346516132354736,1.3232015371322632
1630070245387,0.3749034404754638,0.4500689208507538,0.4126713573932647,1.3232015371322632
1630070245449,0.3749034404754638,0.4076526165008545,0.3405730128288269,1.3232015371322632
1630070245543,0.3749034404754638,0.3730165064334869,0.2925842702388763,1.3232015371322632
1630070245637,0.3786207139492035,0.343807578086853,0.2380345612764358,0.5682066082954407
1630070245730,0.304591417312622,0.276574969291687,0.1763694733381271,0.4986641108989715
1630070245887,0.249131828546524,-0.1829476654529571,0.1090202033519744,0.4276175200939178
1630070246012,0.2145841270685196,-0.2062962502241134,0.0450275130569934,0.3691814839839935
1630070246105,0.1988964974880218,-0.224590003490448,0.0059980670921504,0.3315179944038391
1630070246152,0.1885445415973663,-0.2417326420545578,-0.0200677756220102,0.3085944652557373
1630070246246,0.175391212105751,-0.2627954483032226,-0.0490607134997844,0.2924102544784546
1630070246387,0.1546207666397094,-0.2886331379413605,-0.0791551545262336,0.278229296207428
1630070246511,0.1281552016735077,-0.3135199546813965,-0.0963200703263282,0.2619105279445648
1630070246605,0.0991286784410476,-0.3300394415855407,-0.0964879095554351,0.2516768276691437
1630070246715,0.0746648088097572,-0.3384144306182861,-0.0807266011834144,0.249650701880455
1630070246762,0.0746648088097572,-0.3234404325485229,-0.0359226539731025,0.249650701880455
1630070246861,-0.036011379212141,-0.2229743748903274,0.0298528391867876,0.1950646787881851
1630070246970,-0.1078764572739601,0.0302394554018974,0.1382064521312713,0.1247745752334594
1630070247111,-0.1403346061706543,0.335852712392807,0.2806152999401092,0.051508542150259
1630070247220,-0.1511160731315612,0.5863506197929382,0.4188301563262939,0.0032764689531177
1630070247314,-0.1384090334177017,0.7561931014060974,0.5257927179336548,0.0054221521131694
1630070247392,-0.1265467554330825,0.854373574256897,0.5913329124450684,0.0421341322362422
1630070247470,-0.1330330669879913,0.901458740234375,0.6196728348731995,0.0841774120926857
1630070247610,-0.1783528327941894,0.9192386269569396,0.6333993673324585,0.1090333387255668
1630070247720,-0.2622538805007934,0.9254510998725892,0.6543081402778625,0.1179092153906822
1630070247845,-0.3844830691814422,0.9298481345176696,0.6933367848396301,0.1196630001068115
