timestamp,TP9,AF7,AF8,TP10
1630678967001,0.5891963243484497,0.1600290238857269,-0.1233659535646438,0.5003188252449036
1630678967126,0.5891963243484497,0.1600290238857269,-0.1233659535646438,0.5003188252449036
1630678967329,0.5891963243484497,0.1600290238857269,-0.1233659535646438,0.5003188252449036
1630678967344,0.5891963243484497,0.1600290238857269,-0.1233659535646438,0.5003188252449036
1630678967423,0.5891963243484497,0.1600290238857269,-0.1233659535646438,0.5003188252449036
1630678967501,0.5891963243484497,0.1600290238857269,-0.1233659535646438,0.5003188252449036
1630678967628,0.5891963243484497,0.1600290238857269,-0.1233659535646438,0.5003188252449036
1630678967690,0.5891963243484497,0.1600290238857269,-0.1233659535646438,0.5003188252449036
1630678967815,0.5891963243484497,0.1600290238857269,-0.1233659535646438,0.5003188252449036
1630678967956,0.5891963243484497,0.1600290238857269,-0.1233659535646438,0.5003188252449036
1630678968034,0.5891963243484497,0.1600290238857269,-0.1778995096683502,0.5003188252449036
1630678968190,0.5891963243484497,0.1085259914398193,-0.1426212787628173,0.5003188252449036
1630678968221,0.5891963243484497,0.1129349991679191,-0.1045152097940445,0.5003188252449036
1630678968362,0.5891963243484497,0.1161664426326751,-0.0704667791724205,0.5003188252449036
1630678968440,0.5891963243484497,0.1236405745148658,-0.0464180521667003,0.5003188252449036
1630678968596,0.5891963243484497,0.1317528635263443,-0.0327927581965923,0.5003188252449036
1630678968643,0.5891963243484497,0.1342176347970962,-0.02708026394248,0.5003188252449036
1630678968724,0.5891963243484497,0.1276067346334457,-0.0268403347581625,0.5003188252449036
1630678968833,0.5891963243484497,0.1126003339886665,-0.0296223554760217,0.5003188252449036
1630678968911,0.5891963243484497,0.0923426300287246,-0.0320442430675029,0.5003188252449036
1630678969114,0.5891963243484497,0.0709489211440086,-0.033122032880783,0.5003188252449036
1630678969192,0.5891963243484497,0.0517055578529834,-0.0351148508489131,0.5003188252449036
1630678969349,0.5891963243484497,0.0359059572219848,-0.0329364500939846,0.5003188252449036
1630678969380,0.5891963243484497,0.0230698473751544,-0.0318454653024673,0.5003188252449036
1630678969462,0.5891963243484497,0.0033719048369675,-0.0284043103456497,0.5003188252449036
1630678969540,0.5891963243484497,-0.0223095081746578,-0.0230667870491743,0.5003188252449036
1630678969649,0.5891963243484497,-0.0382929965853691,-0.0229443423449993,0.5003188252449036
1630678969743,0.5891963243484497,-0.0544159561395645,-0.0293925236910581,0.5003188252449036
1630678969915,0.5891963243484497,-0.0742606595158577,-0.0422692224383354,0.5003188252449036
1630678969946,0.5891963243484497,-0.1044519990682601,-0.0583719946444034,0.5003188252449036
1630678970040,0.5891963243484497,-0.1476037800312042,-0.0742323324084281,0.5003188252449036
1630678970259,0.5891963243484497,-0.1987617164850235,-0.0877841338515281,0.5003188252449036
1630678970321,0.5891963243484497,-0.2461797147989273,-0.0976360514760017,0.5003188252449036
1630678970399,0.5891963243484497,-0.2771161496639251,-0.1039692312479019,0.5003188252449036
1630678970462,0.5891963243484497,-0.2852652668952942,-0.1128250285983085,0.5003188252449036
1630678970556,0.5891963243484497,-0.2762329280376434,-0.1308517158031463,0.5003188252449036
1630678970712,0.5891963243484497,-0.262826144695282,-0.1308517158031463,0.5003188252449036
1630678970853,0.5891963243484497,-0.262826144695282,-0.1308517158031463,0.5003188252449036
1630678970899,0.5891963243484497,-0.262826144695282,-0.1308517158031463,0.5003188252449036
1630678971040,0.5891963243484497,-0.262826144695282,-0.1308517158031463,0.5003188252449036
1630678971134,0.5891963243484497,-0.262826144695282,-0.1308517158031463,0.5003188252449036
1630678971212,0.5891963243484497,-0.262826144695282,-0.1308517158031463,0.5003188252449036
1630678971446,0.5891963243484497,-0.262826144695282,-0.1308517158031463,0.5003188252449036
1630678971527,0.5891963243484497,-0.262826144695282,-0.1308517158031463,0.5003188252449036
1630678971744,0.5891963243484497,-0.262826144695282,-0.1308517158031463,0.5003188252449036
1630678971744,0.5891963243484497,-0.262826144695282,-0.1308517158031463,0.5003188252449036
1630678971884,0.5891963243484497,-0.262826144695282,-0.1308517158031463,0.5003188252449036
1630678971884,0.5891963243484497,-0.262826144695282,-0.1308517158031463,0.5003188252449036
1630678971947,0.5891963243484497,-0.262826144695282,-0.1308517158031463,0.5003188252449036
1630678972072,0.5891963243484497,-0.262826144695282,-0.1308517158031463,0.5003188252449036
1630678972150,0.5891963243484497,-0.262826144695282,-0.1308517158031463,0.5003188252449036
1630678972244,0.5891963243484497,-0.262826144695282,-0.1308517158031463,0.5003188252449036
1630678972306,0.5891963243484497,-0.262826144695282,-0.1308517158031463,0.5003188252449036
1630678972369,0.5891963243484497,-0.262826144695282,-0.1308517158031463,0.5003188252449036
1630678972463,0.5891963243484497,-0.262826144695282,-0.1308517158031463,0.5003188252449036
1630678972622,0.5891963243484497,-0.262826144695282,-0.1308517158031463,0.5003188252449036
1630678972716,0.5891963243484497,-0.262826144695282,-0.1308517158031463,0.5003188252449036
1630678972841,0.5891963243484497,-0.262826144695282,-0.1308517158031463,0.5003188252449036
1630678972919,0.5891963243484497,-0.262826144695282,-0.1308517158031463,0.5003188252449036
1630678973028,0.5891963243484497,-0.262826144695282,-0.1308517158031463,0.5003188252449036
1630678973122,0.5891963243484497,-0.262826144695282,-0.1308517158031463,0.5003188252449036
1630678973169,0.5891963243484497,-0.262826144695282,-0.1308517158031463,0.5003188252449036
1630678973388,0.5891963243484497,-0.262826144695282,-0.1308517158031463,0.5003188252449036
1630678973450,0.5891963243484497,-0.262826144695282,-0.1308517158031463,0.5003188252449036
1630678973497,0.9637707471847534,0.7477361559867859,-0.1308517158031463,0.5003188252449036
1630678973704,0.9637707471847534,0.7341341376304626,-0.1308517158031463,0.5003188252449036
1630678973782,0.9637707471847534,0.7137753963470459,-0.1308517158031463,0.5003188252449036
1630678973844,0.9637707471847534,0.6887484788894653,-0.1308517158031463,0.5003188252449036
1630678973985,0.9637707471847534,0.6648770570755005,-0.1308517158031463,0.5003188252449036
1630678974094,0.9637707471847534,0.6452297568321228,-0.1308517158031463,0.5003188252449036
1630678974204,0.9637707471847534,0.6266889572143555,-0.1308517158031463,0.5003188252449036
1630678974360,0.9637707471847534,0.607124924659729,-0.1308517158031463,0.5003188252449036
1630678974407,0.9637707471847534,0.607124924659729,-0.1308517158031463,0.5003188252449036
1630678974532,0.9637707471847534,0.607124924659729,-0.1308517158031463,0.5003188252449036
1630678974629,0.9637707471847534,0.607124924659729,-0.1308517158031463,0.5003188252449036
1630678974910,0.9637707471847534,0.607124924659729,-0.1308517158031463,0.5003188252449036
1630678975098,0.9637707471847534,0.5885342359542847,-0.1308517158031463,0.5003188252449036
1630678975238,0.9637707471847534,0.5638834238052368,-0.1308517158031463,0.5003188252449036
1630678975332,0.9637707471847534,0.5345011353492737,-0.1308517158031463,0.5003188252449036
1630678975441,0.9637707471847534,0.500068724155426,-0.1308517158031463,0.5003188252449036
1630678975472,0.9637707471847534,0.4192426800727844,-0.1308517158031463,0.5003188252449036
1630678975613,0.9637707471847534,0.3816522359848022,-0.1308517158031463,0.5003188252449036
1630678975693,0.9637707471847534,0.3541989028453827,-0.1308517158031463,0.5003188252449036
1630678975802,0.9637707471847534,0.3277778625488281,-0.1308517158031463,0.5003188252449036
1630678975818,0.9637707471847534,0.2941352128982544,-0.1308517158031463,0.5003188252449036
1630678976005,0.9637707471847534,0.2930415868759155,-0.1308517158031463,0.5003188252449036
1630678976115,0.9637707471847534,0.315983384847641,-0.1308517158031463,0.5003188252449036
1630678976256,0.9637707471847534,0.3248262107372284,-0.1308517158031463,0.5003188252449036
1630678976333,0.9637707471847534,0.3145996630191803,-0.1308517158031463,0.5003188252449036
1630678976365,0.9637707471847534,0.2950101494789123,-0.1308517158031463,0.5003188252449036
1630678976411,0.9637707471847534,0.2735308408737182,-0.1308517158031463,0.5003188252449036
1630678976490,0.9637707471847534,0.2533144950866699,-0.1308517158031463,0.5003188252449036
1630678976712,0.9637707471847534,0.2343093901872635,-0.1308517158031463,0.5003188252449036
1630678976806,0.9637707471847534,0.2167223989963531,-0.1308517158031463,0.5003188252449036
1630678976868,0.9637707471847534,0.2010458260774612,-0.1308517158031463,0.5003188252449036
1630678976978,0.9637707471847534,0.2161061763763427,-0.1308517158031463,0.5003188252449036
1630678977040,0.9637707471847534,0.2161061763763427,-0.1308517158031463,0.5003188252449036
1630678977150,0.9637707471847534,0.2161061763763427,-0.1308517158031463,0.5003188252449036
1630678977368,0.9637707471847534,0.2161061763763427,-0.1308517158031463,0.5003188252449036
1630678977684,0.9637707471847534,0.202606976032257,-0.1308517158031463,0.5003188252449036
1630678977902,0.9637707471847534,0.1726213246583938,-0.1308517158031463,0.5003188252449036
1630678978089,0.9637707471847534,0.129702940583229,-0.1308517158031463,0.5003188252449036
1630678978105,0.9637707471847534,0.0843901261687278,-0.1308517158031463,0.5003188252449036
1630678978308,0.9637707471847534,0.0468663051724433,-0.1308517158031463,0.5003188252449036
1630678978511,0.9637707471847534,0.0217919871211051,-0.1308517158031463,0.5003188252449036
1630678978542,0.9637707471847534,0.0049949800595641,-0.1308517158031463,0.5003188252449036
1630678978733,0.9637707471847534,0.0049949800595641,-0.1308517158031463,0.5003188252449036
1630678978827,0.9637707471847534,0.0049949800595641,-0.1308517158031463,0.5003188252449036
1630678979077,0.9637707471847534,0.0049949800595641,-0.1308517158031463,0.5003188252449036
1630678979092,0.9637707471847534,0.0049949800595641,-0.1308517158031463,0.5003188252449036
1630678979264,0.9637707471847534,0.0049949800595641,-0.1308517158031463,0.5003188252449036
1630678979264,0.9637707471847534,0.0049949800595641,-0.1308517158031463,0.5003188252449036
1630678979327,0.9637707471847534,0.0049949800595641,-0.1308517158031463,0.5003188252449036
1630678979467,0.9637707471847534,0.0049949800595641,-0.1308517158031463,0.5003188252449036
1630678979579,0.9637707471847534,0.0049949800595641,-0.1308517158031463,0.5003188252449036
1630678979672,0.9637707471847534,1.4188929796218872,-0.1308517158031463,0.5003188252449036
1630678979735,0.9637707471847534,1.4188929796218872,-0.1308517158031463,0.5003188252449036
1630678979735,0.9637707471847534,1.4188929796218872,-0.1308517158031463,0.5003188252449036
1630678979750,0.9637707471847534,1.4188929796218872,-0.1308517158031463,0.5003188252449036
1630678979782,0.9637707471847534,1.384669065475464,-0.1308517158031463,0.5003188252449036
1630678979829,0.9637707471847534,1.3072572946548462,-0.1308517158031463,0.5003188252449036
1630678979875,0.9637707471847534,1.3593398332595823,-0.1308517158031463,0.5003188252449036
1630678979891,0.9637707471847534,1.3140263557434082,-0.1308517158031463,0.5003188252449036
1630678980000,0.9637707471847534,1.2898722887039185,-0.1308517158031463,0.5003188252449036
1630678980016,0.9637707471847534,1.2898722887039185,-0.1308517158031463,0.5003188252449036
1630678980047,0.9637707471847534,1.2898722887039185,-0.1308517158031463,0.5003188252449036
1630678980079,0.9637707471847534,1.2898722887039185,-0.1308517158031463,0.5003188252449036
1630678980125,0.9637707471847534,1.2944737672805786,-0.1308517158031463,0.5003188252449036
1630678980157,0.9637707471847534,1.3040049076080322,-0.1308517158031463,0.5003188252449036
1630678980219,0.9637707471847534,1.253654718399048,-0.1308517158031463,0.5003188252449036
1630678980282,0.9637707471847534,1.1491671800613403,-0.1308517158031463,0.5003188252449036
1630678980344,0.9637707471847534,1.1491671800613403,-0.1308517158031463,0.5003188252449036
1630678980407,0.9637707471847534,1.1491671800613403,-0.1308517158031463,0.5003188252449036
1630678980578,0.9637707471847534,1.1491671800613403,-0.1308517158031463,0.5003188252449036
1630678980657,0.9637707471847534,1.131909966468811,-0.1308517158031463,0.5003188252449036
1630678980751,0.9637707471847534,1.131909966468811,-0.1308517158031463,0.5003188252449036
1630678980832,0.9637707471847534,1.131909966468811,-0.1308517158031463,0.5003188252449036
1630678980926,0.9637707471847534,1.131909966468811,-0.1308517158031463,0.5003188252449036
1630678981035,0.9637707471847534,1.131909966468811,-0.1308517158031463,0.5003188252449036
1630678981239,0.9637707471847534,1.131909966468811,-0.1308517158031463,0.5003188252449036
1630678981457,0.9637707471847534,1.131909966468811,-0.1308517158031463,0.5003188252449036
1630678981505,0.9637707471847534,1.131909966468811,-0.1308517158031463,0.5003188252449036
1630678981553,0.9637707471847534,1.131909966468811,-0.1308517158031463,0.5003188252449036
1630678981756,0.9637707471847534,1.131909966468811,-0.1308517158031463,0.5003188252449036
1630678981772,0.9637707471847534,1.131909966468811,-0.1308517158031463,0.5003188252449036
1630678981819,0.9637707471847534,1.131909966468811,-0.1308517158031463,0.5003188252449036
1630678981897,0.9637707471847534,1.131909966468811,-0.1308517158031463,0.5003188252449036
1630678981959,0.9637707471847534,1.131909966468811,-0.1308517158031463,0.5003188252449036
1630678982038,0.9637707471847534,1.131909966468811,-0.1308517158031463,0.5003188252449036
1630678982256,0.9637707471847534,1.131909966468811,-0.1308517158031463,0.5003188252449036
1630678982444,0.9637707471847534,0.0458674095571041,-0.1308517158031463,0.5003188252449036
1630678982537,0.9637707471847534,0.0642736032605171,-0.1308517158031463,0.5003188252449036
1630678982571,0.9637707471847534,0.0737387314438819,0.3350244462490082,0.5003188252449036
1630678982649,0.9637707471847534,0.0698068365454673,0.3511724770069122,0.5003188252449036
1630678982649,0.9637707471847534,0.0750724226236343,0.339491069316864,0.5003188252449036
1630678982816,0.9637707471847534,0.0604267939925193,0.3661845326423645,0.5003188252449036
1630678982941,0.9637707471847534,0.047960989177227,0.3779768347740173,0.5003188252449036
1630678982972,0.9637707471847534,0.0342371091246604,0.3831520080566406,0.5003188252449036
1630678983081,0.9637707471847534,0.0237631537020206,0.3831520080566406,0.5003188252449036
1630678983222,0.9637707471847534,0.0221236124634742,0.3831520080566406,0.5003188252449036
1630678983472,0.9637707471847534,0.039119366556406,0.3831520080566406,0.5003188252449036
1630678983487,0.9637707471847534,0.028906974941492,0.3831520080566406,0.5003188252449036
1630678983550,0.9637707471847534,0.0577038526535034,0.3831520080566406,0.5003188252449036
1630678983631,0.9637707471847534,0.0736395493149757,0.3831520080566406,0.5003188252449036
1630678983693,0.9637707471847534,0.0909811630845069,0.3878570199012756,0.5003188252449036
1630678983943,0.9637707471847534,0.1109241992235183,0.3940626084804535,0.5003188252449036
1630678983990,0.9637707471847534,0.1308563798666,0.4040848910808563,0.5003188252449036
1630678984037,0.9637707471847534,0.1481710970401764,0.4181486368179321,0.5003188252449036
1630678984115,0.9637707471847534,0.161195695400238,0.4321977794170379,0.5003188252449036
1630678984209,0.9637707471847534,0.1690035760402679,0.4321977794170379,0.5003188252449036
1630678984524,0.9637707471847534,0.1799463182687759,0.4321977794170379,0.5003188252449036
1630678984745,0.9637707471847534,0.1949016451835632,0.4321977794170379,0.5003188252449036
1630678984823,0.9637707471847534,0.2137061208486557,0.4321977794170379,0.5003188252449036
1630678984869,0.9637707471847534,0.2340542376041412,0.4321977794170379,0.5003188252449036
1630678984901,0.9637707471847534,0.2516718804836273,0.4321977794170379,0.5003188252449036
1630678985276,0.9637707471847534,0.2650070786476135,0.4321977794170379,0.5003188252449036
1630678985307,0.9637707471847534,0.2763734757900238,0.4321977794170379,0.5003188252449036
1630678985416,0.9637707471847534,0.2869505286216736,0.4321977794170379,0.5003188252449036
1630678985479,0.9637707471847534,0.2952291071414947,0.4321977794170379,0.5003188252449036
1630678985494,0.9637707471847534,0.2965530455112457,0.4321977794170379,0.5003188252449036
1630678985510,0.9637707471847534,0.285574346780777,0.4321977794170379,0.5003188252449036
1630678985510,0.9637707471847534,0.285574346780777,0.4321977794170379,0.5003188252449036
1630678985697,0.9637707471847534,0.285574346780777,0.4321977794170379,0.5003188252449036
1630678985729,0.9637707471847534,0.285574346780777,0.4321977794170379,0.5003188252449036
1630678985729,0.9637707471847534,0.285574346780777,0.4321977794170379,0.5003188252449036
1630678985807,0.9637707471847534,0.285574346780777,0.4321977794170379,0.5003188252449036
1630678986010,0.9637707471847534,0.285574346780777,0.4321977794170379,0.5003188252449036
1630678986025,0.9637707471847534,0.285574346780777,0.4321977794170379,0.5003188252449036
1630678986228,0.9637707471847534,0.285574346780777,0.4321977794170379,0.5003188252449036
1630678986291,0.9637707471847534,0.285574346780777,0.4321977794170379,0.5003188252449036
1630678986369,0.9637707471847534,0.285574346780777,0.4321977794170379,0.5003188252449036
1630678986419,0.9637707471847534,0.285574346780777,0.4321977794170379,0.5003188252449036
1630678986591,0.9637707471847534,0.285574346780777,0.4321977794170379,0.5003188252449036
1630678986685,0.9637707471847534,0.285574346780777,0.4321977794170379,0.5003188252449036
1630678986763,0.9637707471847534,0.285574346780777,0.4321977794170379,0.5003188252449036
1630678986825,0.9637707471847534,0.285574346780777,0.4321977794170379,0.5003188252449036
1630678986935,0.9637707471847534,0.285574346780777,0.4321977794170379,0.5003188252449036
1630678987122,0.9637707471847534,0.285574346780777,0.4321977794170379,0.5003188252449036
1630678987154,0.9637707471847534,0.285574346780777,0.4321977794170379,0.5003188252449036
1630678987294,0.9637707471847534,0.285574346780777,0.4321977794170379,0.5003188252449036
1630678987357,0.9637707471847534,0.285574346780777,0.4321977794170379,0.5003188252449036
1630678987420,0.9637707471847534,0.285574346780777,0.4321977794170379,0.5003188252449036
1630678987563,0.9637707471847534,0.285574346780777,0.4321977794170379,0.5003188252449036
1630678987641,0.9637707471847534,0.285574346780777,0.4321977794170379,0.5003188252449036
1630678987719,0.9637707471847534,0.285574346780777,0.4321977794170379,0.5003188252449036
1630678987844,0.9637707471847534,0.285574346780777,0.4321977794170379,0.5003188252449036
1630678988016,0.9637707471847534,0.285574346780777,0.4321977794170379,0.5003188252449036
1630678988141,0.9637707471847534,0.285574346780777,0.4321977794170379,0.5003188252449036
1630678988141,0.9637707471847534,0.285574346780777,0.4321977794170379,0.5003188252449036
1630678988282,0.9637707471847534,0.285574346780777,0.4321977794170379,0.5003188252449036
1630678988344,0.9637707471847534,0.285574346780777,0.4321977794170379,0.5003188252449036
1630678988422,0.9637707471847534,0.285574346780777,0.4321977794170379,0.5003188252449036
1630678988551,0.9637707471847534,0.285574346780777,0.4321977794170379,0.5003188252449036
1630678988723,0.9637707471847534,0.285574346780777,0.4321977794170379,0.5003188252449036
1630678988879,0.9637707471847534,0.285574346780777,0.4321977794170379,0.5003188252449036
1630678989020,0.9637707471847534,0.285574346780777,0.4321977794170379,0.5003188252449036
1630678989067,0.9637707471847534,0.285574346780777,0.4321977794170379,0.5003188252449036
1630678989098,0.9637707471847534,0.285574346780777,0.4321977794170379,0.5003188252449036
1630678989301,0.9637707471847534,0.285574346780777,0.4321977794170379,0.5003188252449036
1630678989441,0.9637707471847534,0.285574346780777,0.4321977794170379,0.5003188252449036
1630678989473,0.9637707471847534,0.285574346780777,0.4321977794170379,0.5003188252449036
1630678989835,0.9637707471847534,0.285574346780777,0.4321977794170379,0.5003188252449036
1630678989898,0.9637707471847534,0.285574346780777,0.4321977794170379,0.5003188252449036
1630678989992,0.9637707471847534,0.285574346780777,0.4321977794170379,0.5003188252449036
1630678990179,0.9637707471847534,0.0046427678316831,0.4321977794170379,0.5003188252449036
1630678990257,0.9637707471847534,0.0202768519520759,0.4321977794170379,0.5003188252449036
1630678990398,0.9637707471847534,0.0181535854935646,0.4321977794170379,0.5003188252449036
1630678990445,0.9637707471847534,0.0080288220196962,0.4321977794170379,0.5003188252449036
1630678990491,0.9637707471847534,0.00731116021052,0.4321977794170379,0.5003188252449036
1630678990491,0.9637707471847534,0.0014590329956263,0.4321977794170379,0.5003188252449036
1630678990538,0.9637707471847534,0.0280073806643486,0.4321977794170379,0.5003188252449036
1630678990728,0.9637707471847534,0.0543771125376224,0.4321977794170379,0.5003188252449036
1630678990885,0.9637707471847534,0.0543771125376224,0.4321977794170379,0.5003188252449036
1630678991010,0.9637707471847534,0.0543771125376224,0.4321977794170379,0.5003188252449036
1630678991056,0.9637707471847534,0.0543771125376224,0.4321977794170379,0.5003188252449036
1630678991103,0.9637707471847534,0.0543771125376224,0.4321977794170379,0.5003188252449036
1630678991213,0.9637707471847534,0.0725424215197563,0.4321977794170379,0.5003188252449036
1630678991291,0.9637707471847534,0.0826989039778709,0.4321977794170379,0.5003188252449036
1630678991353,0.9637707471847534,0.0804323852062225,0.4321977794170379,0.5003188252449036
1630678991353,0.9637707471847534,0.0839569121599197,0.4321977794170379,0.5003188252449036
1630678991478,0.9637707471847534,0.0808815285563469,0.4321977794170379,0.5003188252449036
1630678991603,0.9637707471847534,0.0941990986466407,0.4321977794170379,0.5003188252449036
1630678991681,0.9637707471847534,0.1252056360244751,0.4321977794170379,0.5003188252449036
1630678991759,0.9637707471847534,0.1252056360244751,0.4321977794170379,0.5003188252449036
1630678991806,0.9637707471847534,0.1252056360244751,0.4321977794170379,0.5003188252449036
1630678991962,0.9637707471847534,0.1252056360244751,0.4321977794170379,0.5003188252449036
1630678992041,0.9637707471847534,0.1252056360244751,0.4321977794170379,0.5003188252449036
1630678992087,0.9637707471847534,0.1252056360244751,0.4321977794170379,0.5003188252449036
1630678992228,0.9637707471847534,0.1252056360244751,0.4321977794170379,0.5003188252449036
1630678992353,0.9637707471847534,0.1252056360244751,0.4321977794170379,0.5003188252449036
1630678992480,0.9637707471847534,0.1252056360244751,0.4321977794170379,0.5003188252449036
1630678992527,0.9637707471847534,0.1252056360244751,0.4321977794170379,0.5003188252449036
1630678992636,0.9637707471847534,0.1252056360244751,0.4321977794170379,0.5003188252449036
1630678992683,0.9637707471847534,0.1252056360244751,0.4321977794170379,0.5003188252449036
1630678992902,0.9637707471847534,0.1252056360244751,0.4321977794170379,0.5003188252449036
1630678992949,0.9637707471847534,0.1252056360244751,0.4321977794170379,0.5003188252449036
1630678993027,0.9637707471847534,0.1252056360244751,0.4321977794170379,0.5003188252449036
1630678993167,0.9637707471847534,0.1252056360244751,0.4321977794170379,0.5003188252449036
1630678993308,0.9637707471847534,0.1252056360244751,0.4321977794170379,0.5003188252449036
1630678993437,0.9637707471847534,0.1252056360244751,0.4321977794170379,0.5003188252449036
1630678993469,0.9637707471847534,0.1252056360244751,0.4321977794170379,0.5003188252449036
1630678993609,0.9637707471847534,0.1252056360244751,0.4321977794170379,0.5003188252449036
1630678993656,0.9637707471847534,0.1252056360244751,0.4321977794170379,0.5003188252449036
1630678993721,0.9637707471847534,0.1252056360244751,0.4321977794170379,0.5003188252449036
1630678993846,0.9637707471847534,0.1252056360244751,0.4321977794170379,0.5003188252449036
1630678994017,0.9637707471847534,0.6325075030326843,0.4321977794170379,0.5003188252449036
1630678994189,0.9637707471847534,0.6117992401123047,0.4321977794170379,0.5003188252449036
1630678994252,0.9637707471847534,0.6149044632911682,0.4321977794170379,0.5003188252449036
1630678994314,0.9637707471847534,0.6301289200782776,0.4321977794170379,0.5003188252449036
1630678994567,0.9637707471847534,0.6410655975341797,0.4321977794170379,0.5003188252449036
1630678994692,0.9637707471847534,0.6396852731704712,0.4321977794170379,0.5003188252449036
1630678994801,0.9637707471847534,0.6271675229072571,0.4321977794170379,0.5003188252449036
1630678995051,0.9637707471847534,0.6271675229072571,0.4321977794170379,0.5003188252449036
1630678995238,0.9637707471847534,0.6271675229072571,0.4321977794170379,0.5003188252449036
1630678995238,0.9637707471847534,0.606117844581604,0.4321977794170379,0.5003188252449036
1630678995285,0.9637707471847534,0.5864052176475525,0.4321977794170379,0.5003188252449036
1630678995348,0.9637707471847534,0.6586295962333679,0.4321977794170379,0.5003188252449036
1630678995348,0.9637707471847534,0.6242099404335022,0.4321977794170379,0.5003188252449036
1630678995395,0.9637707471847534,0.5936024188995361,0.4321977794170379,0.5003188252449036
1630678995410,0.9637707471847534,0.5713014006614685,0.4321977794170379,0.5003188252449036
1630678995473,0.9637707471847534,0.5779693722724915,0.4321977794170379,0.5003188252449036
1630678995569,0.9637707471847534,0.5830783247947693,0.4321977794170379,0.5003188252449036
1630678995709,0.9637707471847534,0.5780829191207886,0.4321977794170379,0.5003188252449036
1630678995787,0.9637707471847534,0.5603379607200623,0.4321977794170379,0.5003188252449036
1630678996084,0.9637707471847534,0.5372654795646667,0.4321977794170379,0.5003188252449036
1630678996209,0.9637707471847534,0.5225175023078918,0.4321977794170379,0.5003188252449036
1630678996256,0.9637707471847534,0.5270119905471802,0.4321977794170379,0.5003188252449036
1630678996318,0.9637707471847534,0.5270119905471802,0.4321977794170379,0.5003188252449036
1630678996350,0.9637707471847534,0.5270119905471802,0.4321977794170379,0.5003188252449036
1630678996412,0.9637707471847534,0.5601183772087097,0.4321977794170379,0.5003188252449036
1630678996506,0.9637707471847534,0.6093625426292419,0.4321977794170379,0.5003188252449036
1630678996634,0.9637707471847534,0.6093625426292419,0.4321977794170379,0.5003188252449036
1630678996743,0.9637707471847534,0.6093625426292419,0.4321977794170379,0.5003188252449036
1630678996853,0.9637707471847534,0.6093625426292419,0.4321977794170379,0.5003188252449036
1630678997040,0.9637707471847534,0.6093625426292419,0.4321977794170379,0.5003188252449036
1630678997071,0.9637707471847534,0.6093625426292419,0.4321977794170379,0.5003188252449036
1630678997306,0.9637707471847534,0.6093625426292419,0.4321977794170379,0.5003188252449036
1630678997306,0.9637707471847534,0.6093625426292419,0.4321977794170379,0.5003188252449036
1630678997431,0.9637707471847534,0.6093625426292419,0.4321977794170379,0.5003188252449036
1630678997525,0.9637707471847534,0.6093625426292419,0.4321977794170379,0.5003188252449036
1630678997606,0.9637707471847534,-0.2570873200893402,0.4321977794170379,0.5003188252449036
1630678997809,0.9637707471847534,-0.2652902901172638,0.4321977794170379,0.5003188252449036
1630678998059,0.9637707471847534,-0.2405795753002166,0.4321977794170379,0.5003188252449036
1630678998185,0.9637707471847534,-0.2405795753002166,0.4321977794170379,0.5003188252449036
1630678998516,0.9637707471847534,-0.2405795753002166,0.4321977794170379,0.5003188252449036
1630678998769,0.9637707471847534,-0.2405795753002166,0.4321977794170379,0.5003188252449036
1630678998940,0.9637707471847534,-0.2405795753002166,0.4321977794170379,0.5003188252449036
1630678999003,0.9637707471847534,-0.2405795753002166,0.4321977794170379,0.5003188252449036
1630678999081,0.9637707471847534,-0.2405795753002166,0.4321977794170379,0.5003188252449036
1630678999081,0.9637707471847534,-0.2405795753002166,0.4321977794170379,0.5003188252449036
1630678999112,0.9637707471847534,-0.2405795753002166,0.4321977794170379,0.5003188252449036
1630678999128,0.9637707471847534,-0.2405795753002166,0.4321977794170379,0.5003188252449036
1630678999128,0.9637707471847534,-0.2722305655479431,0.4321977794170379,0.5003188252449036
1630678999206,0.9637707471847534,-0.2788856625556946,0.4321977794170379,0.5003188252449036
1630678999269,0.9637707471847534,-0.2788856625556946,0.4321977794170379,0.5003188252449036
1630678999300,0.9637707471847534,-0.2788856625556946,0.4321977794170379,0.5003188252449036
1630678999331,0.9637707471847534,-0.2788856625556946,0.4321977794170379,0.5003188252449036
1630678999362,0.9637707471847534,-0.2788856625556946,0.4321977794170379,0.5003188252449036
1630678999409,0.9637707471847534,-0.2788856625556946,0.4321977794170379,0.5003188252449036
1630678999503,0.9637707471847534,-0.2788856625556946,0.4321977794170379,0.5003188252449036
1630678999662,0.9637707471847534,-0.2788856625556946,0.4321977794170379,0.5003188252449036
1630678999740,0.9637707471847534,-0.2788856625556946,0.4321977794170379,0.5003188252449036
1630678999802,0.9637707471847534,-0.2788856625556946,0.4321977794170379,0.5003188252449036
1630678999865,0.9637707471847534,-0.2788856625556946,0.4321977794170379,0.5003188252449036
1630678999959,0.9637707471847534,-0.2788856625556946,0.4321977794170379,0.5003188252449036
1630679000052,0.9637707471847534,-0.2788856625556946,0.4321977794170379,0.5003188252449036
1630679000146,0.9637707471847534,-0.2788856625556946,0.4321977794170379,0.5003188252449036
1630679000271,0.9637707471847534,-0.2788856625556946,0.4321977794170379,0.5003188252449036
1630679000318,0.9637707471847534,-0.2788856625556946,0.4321977794170379,0.5003188252449036
1630679000443,0.9637707471847534,-0.2788856625556946,0.4321977794170379,0.5003188252449036
1630679000568,0.9637707471847534,-0.2788856625556946,0.4321977794170379,0.5003188252449036
1630679000662,0.9637707471847534,-0.2788856625556946,0.4321977794170379,0.5003188252449036
1630679000742,0.9637707471847534,-0.2788856625556946,0.4321977794170379,0.5003188252449036
1630679000821,0.9637707471847534,-0.2788856625556946,0.4321977794170379,0.5003188252449036
1630679001024,0.9637707471847534,0.5147912502288818,0.8329441547393799,0.5003188252449036
1630679001149,0.9637707471847534,0.5030504465103149,0.8270321488380432,0.5003188252449036
1630679001196,0.9637707471847534,0.4885535836219787,0.8066570162773132,0.5003188252449036
1630679001227,0.9637707471847534,0.4745339453220367,0.7823168039321899,0.5003188252449036
1630679001383,0.9637707471847534,0.4637229442596435,0.7625627517700195,0.5003188252449036
1630679001511,0.9637707471847534,0.4555090665817261,0.7502604722976685,0.5003188252449036
1630679001589,0.9637707471847534,0.4467201232910156,0.7502604722976685,0.5003188252449036
1630679001699,0.9637707471847534,0.4351708889007568,0.7502604722976685,0.5003188252449036
1630679001808,0.9637707471847534,0.422050416469574,0.7502604722976685,0.5003188252449036
1630679001871,0.9637707471847534,0.422050416469574,0.7502604722976685,0.5003188252449036
1630679002027,0.9637707471847534,0.422050416469574,0.7502604722976685,0.5003188252449036
1630679002074,0.9637707471847534,0.422050416469574,0.7502604722976685,0.5003188252449036
1630679002230,0.9637707471847534,0.4164439737796783,0.7530022263526917,0.5003188252449036
1630679002261,0.9637707471847534,0.4017204046249389,0.7415999174118042,0.5003188252449036
1630679002370,0.9637707471847534,0.3836810290813446,0.7126240134239197,0.5003188252449036
1630679002482,0.9637707471847534,0.3670121133327484,0.6705020666122437,0.5003188252449036
1630679002623,0.9637707471847534,0.353277176618576,0.6301010251045227,0.5003188252449036
1630679002733,0.9637707471847534,0.3434894382953644,0.6301010251045227,0.5003188252449036
1630679003029,0.9637707471847534,0.3359519243240356,0.6301010251045227,0.5003188252449036
1630679003076,0.9637707471847534,0.3243698477745056,0.6301010251045227,0.5003188252449036
1630679003107,0.9637707471847534,0.3243698477745056,0.6301010251045227,0.5003188252449036
1630679003154,0.9637707471847534,0.3243698477745056,0.6301010251045227,0.5003188252449036
1630679003531,0.9637707471847534,0.3243698477745056,0.6301010251045227,0.5003188252449036
1630679003719,0.9637707471847534,0.3243698477745056,-0.1668105572462082,0.5003188252449036
1630679003859,0.9637707471847534,0.3243698477745056,-0.1668105572462082,0.5003188252449036
1630679004062,0.9637707471847534,0.3243698477745056,-0.1668105572462082,0.5003188252449036
1630679004312,0.9637707471847534,0.3243698477745056,-0.1668105572462082,0.5003188252449036
1630679004390,0.9637707471847534,0.4597757756710052,-0.1668105572462082,0.5003188252449036
1630679004643,0.9637707471847534,0.4597757756710052,-0.2008825242519378,0.5003188252449036
1630679004814,0.9637707471847534,0.4597757756710052,-0.2265909612178802,0.5003188252449036
1630679004955,0.9637707471847534,0.4597757756710052,-0.2330374270677566,0.5003188252449036
1630679005158,0.9637707471847534,0.4597757756710052,-0.2107434272766113,0.5003188252449036
1630679005189,0.9637707471847534,0.4597757756710052,0.2746082842350006,0.5003188252449036
1630679005283,0.9637707471847534,0.4597757756710052,0.4500394165515899,0.5003188252449036
1630679005361,0.9637707471847534,0.4597757756710052,0.4275146424770355,0.5003188252449036
1630679005583,0.9637707471847534,0.4597757756710052,0.4340035319328308,0.5003188252449036
1630679005677,0.9637707471847534,0.4597757756710052,0.6171767115592957,0.5003188252449036
1630679005677,0.9637707471847534,0.4597757756710052,0.4357505738735199,0.5003188252449036
1630679005692,0.9637707471847534,0.4597757756710052,0.6148372888565063,0.5003188252449036
1630679005833,0.9637707471847534,0.4597757756710052,0.5812764167785645,0.5003188252449036
1630679005833,0.9637707471847534,0.4597757756710052,0.5502204895019531,0.5003188252449036
1630679005833,0.9637707471847534,0.4597757756710052,0.6066758632659912,0.5003188252449036
1630679005911,0.9637707471847534,0.4597757756710052,0.5811281800270081,0.5003188252449036
1630679006192,0.9637707471847534,0.4597757756710052,0.5825390815734863,0.5003188252449036
1630679006208,0.9637707471847534,2.1140472888946533,0.5833258032798767,0.5003188252449036
1630679006380,0.9637707471847534,2.025127649307251,0.7444260120391846,0.5003188252449036
1630679006426,0.9949890971183776,1.9800522327423096,0.7313617467880249,0.5003188252449036
1630679006426,0.9637707471847534,2.02998948097229,0.7415518164634705,0.5003188252449036
1630679006489,0.9158644080162048,1.933111310005188,0.6682038307189941,0.5003188252449036
1630679006647,1.7064120769500732,1.933111310005188,0.7909970879554749,0.5003188252449036
1630679006647,1.7064120769500732,1.933111310005188,0.6628967523574829,0.5003188252449036
1630679006647,1.7064120769500732,1.933111310005188,0.7289130091667175,0.5003188252449036
1630679006772,1.7064120769500732,1.933111310005188,0.7118855714797974,0.5003188252449036
1630679006882,1.7064120769500732,1.8906275033950808,0.7129992842674255,0.5003188252449036
1630679006944,1.7064120769500732,1.845399260520935,0.7404701709747314,0.5003188252449036
1630679007085,1.7064120769500732,1.845399260520935,0.7704379558563232,0.5003188252449036
1630679007132,1.7064120769500732,1.7920300960540771,0.7415304780006409,0.5003188252449036
1630679007210,1.7064120769500732,1.3889533281326294,0.7755066752433777,0.5003188252449036
1630679007319,1.7064120769500732,1.3638099431991575,0.8128409385681152,0.5003188252449036
1630679007397,1.7843235731124878,1.3644804954528809,0.8551328778266907,0.5003188252449036
1630679007616,1.8405020236968996,1.3992085456848145,0.6781957745552063,0.5003188252449036
1630679007647,1.8405020236968996,1.0170224905014038,0.7329657077789307,0.5003188252449036
1630679007728,1.8405020236968996,0.8659228682518005,0.665190577507019,0.5003188252449036
1630679007805,1.8405020236968996,0.6877148747444153,0.6667191386222839,0.5003188252449036
1630679007931,1.8405020236968996,0.6877148747444153,0.6697186827659607,0.5003188252449036
1630679008040,1.8405020236968996,0.6877148747444153,0.4451508820056915,0.5003188252449036
1630679008055,1.8405020236968996,0.6877148747444153,-0.1402643769979477,0.5003188252449036
1630679008149,1.8405020236968996,0.6877148747444153,-0.1628343164920807,0.5003188252449036
1630679008227,1.8405020236968996,0.6877148747444153,-0.1628343164920807,0.5003188252449036
1630679008305,1.8405020236968996,0.6877148747444153,-0.005902636796236,0.5003188252449036
1630679008399,1.8405020236968996,0.6003689765930176,0.2899960577487945,0.5003188252449036
1630679008524,1.8405020236968996,0.6003689765930176,0.2517552375793457,0.5003188252449036
1630679008649,1.8405020236968996,0.6003689765930176,0.2193978428840637,0.5003188252449036
1630679008664,1.8405020236968996,0.6003689765930176,0.2193978428840637,0.5003188252449036
1630679008714,1.8405020236968996,0.6003689765930176,0.2193978428840637,0.5003188252449036
1630679008902,1.8405020236968996,0.6003689765930176,0.2193978428840637,0.5003188252449036
1630679009339,1.8405020236968996,0.6003689765930176,0.2193978428840637,0.5003188252449036
1630679009417,1.8405020236968996,0.6003689765930176,0.2193978428840637,0.5003188252449036
1630679009636,1.8405020236968996,0.6003689765930176,0.2707317471504211,0.5003188252449036
1630679009748,1.8405020236968996,0.6003689765930176,0.3261477649211883,0.5003188252449036
1630679010076,1.8405020236968996,0.6003689765930176,0.3801881670951843,0.5003188252449036
1630679010076,1.8405020236968996,0.6003689765930176,0.3801881670951843,0.5003188252449036
1630679010107,1.8405020236968996,0.6003689765930176,0.3801881670951843,0.5003188252449036
1630679010154,1.8405020236968996,0.6003689765930176,0.3801881670951843,0.5003188252449036
1630679010201,1.8405020236968996,0.6003689765930176,0.3801881670951843,0.5003188252449036
1630679010513,1.8405020236968996,0.6003689765930176,0.3801881670951843,0.5003188252449036
1630679010654,1.8405020236968996,0.6003689765930176,0.3801881670951843,0.5003188252449036
1630679010890,1.8405020236968996,0.6003689765930176,0.3801881670951843,0.5003188252449036
1630679010906,1.8405020236968996,0.6003689765930176,0.3801881670951843,0.5003188252449036
1630679010953,1.8405020236968996,0.6003689765930176,0.3801881670951843,0.5003188252449036
1630679011031,1.8405020236968996,0.6003689765930176,0.3801881670951843,0.5003188252449036
1630679011249,1.8405020236968996,0.6003689765930176,0.3801881670951843,0.5003188252449036
1630679011367,1.8405020236968996,0.6003689765930176,0.3801881670951843,0.5003188252449036
1630679011698,1.8405020236968996,0.6003689765930176,0.3801881670951843,0.5003188252449036
1630679011794,1.8405020236968996,0.6003689765930176,0.3801881670951843,0.5003188252449036
1630679011841,1.8405020236968996,0.6003689765930176,0.3801881670951843,0.5003188252449036
1630679011841,1.8405020236968996,0.6003689765930176,0.3801881670951843,0.5003188252449036
1630679011857,1.8405020236968996,0.6003689765930176,0.873231053352356,0.5003188252449036
1630679011857,1.8405020236968996,0.6003689765930176,1.0187804698944092,0.5003188252449036
1630679011997,1.8405020236968996,0.6003689765930176,1.0339865684509275,0.5003188252449036
1630679012013,1.8405020236968996,0.6003689765930176,1.0215860605239868,0.5003188252449036
1630679012091,1.8405020236968996,0.6003689765930176,0.9657114148139954,0.5003188252449036
1630679012154,1.8405020236968996,0.6003689765930176,0.963973104953766,0.5003188252449036
1630679012372,1.8405020236968996,0.6003689765930176,1.22791588306427,0.5003188252449036
1630679012372,1.8405020236968996,0.6003689765930176,1.1718531847000122,0.5003188252449036
1630679012372,1.8405020236968996,0.6003689765930176,1.16865336894989,0.5003188252449036
1630679012388,1.8405020236968996,0.6003689765930176,1.2184828519821167,0.5003188252449036
1630679012435,1.8405020236968996,0.6003689765930176,1.494511604309082,0.5003188252449036
1630679012544,1.8405020236968996,0.6003689765930176,1.4711188077926636,0.5003188252449036
1630679012638,1.8405020236968996,0.6003689765930176,1.4366225004196167,0.5003188252449036
1630679012638,1.8405020236968996,0.6003689765930176,1.418379545211792,0.5003188252449036
1630679012781,1.8405020236968996,0.6003689765930176,1.3810594081878662,0.5003188252449036
1630679012781,1.8405020236968996,0.6003689765930176,1.3994295597076416,0.5003188252449036
1630679012797,1.8405020236968996,0.6003689765930176,1.353670597076416,0.5003188252449036
1630679013047,1.8405020236968996,0.6003689765930176,1.3670682907104492,0.5003188252449036
1630679013109,1.8405020236968996,0.6003689765930176,1.3875279426574707,0.5003188252449036
1630679013156,1.8405020236968996,0.6003689765930176,1.4217976331710815,0.5003188252449036
1630679013188,1.8405020236968996,0.6003689765930176,1.4591288566589355,0.5003188252449036
1630679013532,1.8405020236968996,0.6003689765930176,1.4322201013565063,0.5003188252449036
1630679013674,1.8405020236968996,0.6003689765930176,1.4340298175811768,0.5003188252449036
1630679013753,1.8405020236968996,0.6003689765930176,1.4844646453857422,0.5003188252449036
1630679014065,1.8405020236968996,0.6003689765930176,1.4725242853164673,0.5003188252449036
1630679014174,1.8405020236968996,0.6003689765930176,0.7445275783538818,0.5003188252449036
1630679014299,1.8405020236968996,0.6003689765930176,0.638323187828064,0.5003188252449036
1630679014473,1.8405020236968996,0.6003689765930176,0.7308686971664429,0.5003188252449036
1630679014535,1.8405020236968996,0.6003689765930176,0.7308686971664429,0.5003188252449036
1630679014585,1.8405020236968996,0.6003689765930176,0.7308686971664429,0.5003188252449036
1630679014632,1.8405020236968996,0.6003689765930176,0.7308686971664429,0.5003188252449036
1630679014647,1.8405020236968996,0.6003689765930176,0.7308686971664429,0.5003188252449036
1630679014647,1.8405020236968996,0.6003689765930176,0.7308686971664429,0.5003188252449036
1630679014741,1.8405020236968996,0.6003689765930176,0.7308686971664429,0.5003188252449036
1630679014788,1.8405020236968996,0.6003689765930176,0.7308686971664429,0.5003188252449036
1630679014851,1.8405020236968996,1.7354321479797363,0.7308686971664429,0.5003188252449036
1630679014913,1.8405020236968996,1.7354321479797363,0.7308686971664429,0.5003188252449036
1630679015022,1.8405020236968996,1.7354321479797363,0.7308686971664429,0.5003188252449036
1630679015179,1.8405020236968996,1.7354321479797363,0.7308686971664429,0.5003188252449036
1630679015350,1.8405020236968996,1.7354321479797363,0.7308686971664429,0.5003188252449036
1630679015382,1.8405020236968996,1.7354321479797363,0.7308686971664429,0.5003188252449036
1630679015460,1.8405020236968996,1.7354321479797363,0.7308686971664429,0.5003188252449036
1630679015602,1.8405020236968996,1.7354321479797363,0.7308686971664429,0.5003188252449036
1630679015602,1.8405020236968996,1.7354321479797363,0.7308686971664429,0.5003188252449036
1630679015665,1.8405020236968996,1.7354321479797363,0.7308686971664429,0.5003188252449036
1630679015728,1.8405020236968996,1.7354321479797363,0.7308686971664429,0.5003188252449036
1630679015853,1.8405020236968996,1.6571811437606812,0.7308686971664429,0.5003188252449036
1630679015962,1.8405020236968996,0.8036180138587952,0.7308686971664429,0.5003188252449036
1630679016040,1.8405020236968996,0.73760986328125,-0.3999638557434082,0.5003188252449036
1630679016040,1.8405020236968996,0.7398300170898438,0.7308686971664429,0.5003188252449036
1630679016165,1.8405020236968996,0.4119661152362823,-0.3734761476516723,0.5003188252449036
1630679016321,1.8405020236968996,0.4119661152362823,-0.3734761476516723,0.5003188252449036
1630679016384,1.8405020236968996,0.4119661152362823,-0.3734761476516723,0.5003188252449036
1630679016496,1.8405020236968996,0.4119661152362823,-0.3734761476516723,0.5003188252449036
1630679016496,1.8405020236968996,0.4119661152362823,-0.3734761476516723,0.5003188252449036
1630679016543,1.8405020236968996,0.4119661152362823,-0.3734761476516723,0.5003188252449036
1630679016574,1.8405020236968996,0.3471544682979584,-0.3734761476516723,0.5003188252449036
1630679016590,1.8405020236968996,0.3471544682979584,-0.3734761476516723,0.5003188252449036
1630679016746,1.8405020236968996,0.3471544682979584,-0.3734761476516723,0.5003188252449036
1630679016808,1.8405020236968996,0.3471544682979584,-0.3734761476516723,0.5003188252449036
1630679016918,1.8405020236968996,0.3471544682979584,-0.3734761476516723,0.5003188252449036
1630679016980,1.8405020236968996,-0.4057429730892181,-0.3941357731819153,0.5003188252449036
1630679017121,1.8405020236968996,-0.4057429730892181,-0.3941357731819153,0.5003188252449036
1630679017482,1.8405020236968996,-0.4057429730892181,-0.3941357731819153,0.5003188252449036
1630679017607,1.8405020236968996,-0.4057429730892181,-0.3941357731819153,0.5003188252449036
1630679017810,1.8405020236968996,-0.4057429730892181,-0.3941357731819153,0.5003188252449036
1630679017889,1.8405020236968996,-0.4057429730892181,-0.3941357731819153,0.5003188252449036
1630679017920,1.8405020236968996,-0.4057429730892181,-0.3941357731819153,0.5003188252449036
1630679018045,1.8405020236968996,-0.4057429730892181,-0.3941357731819153,0.5003188252449036
1630679018138,1.8405020236968996,-0.4057429730892181,-0.3941357731819153,0.5003188252449036
1630679018201,1.8405020236968996,-0.4057429730892181,-0.3941357731819153,0.5003188252449036
1630679018248,1.8405020236968996,-0.4057429730892181,-0.3941357731819153,0.5003188252449036
1630679018405,1.8405020236968996,-0.4057429730892181,-0.3941357731819153,0.5003188252449036
1630679018453,1.8405020236968996,-0.4057429730892181,-0.3941357731819153,0.5003188252449036
1630679018485,1.8405020236968996,-0.4057429730892181,-0.3941357731819153,0.5003188252449036
1630679018547,1.8405020236968996,-0.4057429730892181,-0.3941357731819153,0.5003188252449036
1630679018703,1.8405020236968996,-0.4057429730892181,-0.3941357731819153,0.5003188252449036
1630679018766,1.8405020236968996,-0.4057429730892181,-0.3941357731819153,0.5003188252449036
1630679018859,1.8405020236968996,-0.4057429730892181,-0.3941357731819153,0.5003188252449036
1630679018906,1.8405020236968996,-0.4057429730892181,-0.3941357731819153,0.5003188252449036
1630679018938,1.8405020236968996,-0.4057429730892181,-0.3941357731819153,0.5003188252449036
1630679019047,1.8405020236968996,-0.4057429730892181,-0.3941357731819153,0.5003188252449036
1630679019125,1.8405020236968996,-0.4057429730892181,-0.3941357731819153,0.5003188252449036
1630679019219,1.8405020236968996,-0.4057429730892181,-0.3941357731819153,0.5003188252449036
1630679019359,1.8405020236968996,-0.4057429730892181,-0.3941357731819153,0.5003188252449036
1630679019422,1.8405020236968996,-0.4057429730892181,-0.3941357731819153,0.5003188252449036
1630679019520,1.8405020236968996,-0.4057429730892181,-0.3941357731819153,0.5003188252449036
1630679019692,1.8405020236968996,-0.4057429730892181,-0.3941357731819153,0.5003188252449036
1630679019801,1.8405020236968996,-0.4057429730892181,-0.3941357731819153,0.5003188252449036
1630679019879,1.8405020236968996,-0.4057429730892181,-0.3941357731819153,0.5003188252449036
1630679019974,1.8405020236968996,-0.4057429730892181,-0.3941357731819153,0.5003188252449036
1630679020068,1.8405020236968996,-0.4057429730892181,-0.3941357731819153,0.5003188252449036
1630679020145,1.8405020236968996,-0.4057429730892181,-0.3941357731819153,0.5003188252449036
1630679020270,1.8405020236968996,-0.4057429730892181,-0.3941357731819153,0.5003188252449036
1630679020364,1.8405020236968996,-0.4057429730892181,-0.3941357731819153,0.5003188252449036
1630679020442,1.8405020236968996,-0.4057429730892181,-0.3941357731819153,0.5003188252449036
1630679020616,1.8405020236968996,-0.4057429730892181,-0.3941357731819153,0.5003188252449036
1630679020632,1.8405020236968996,-0.4057429730892181,-0.3941357731819153,0.5003188252449036
1630679020772,1.8405020236968996,-0.4057429730892181,-0.3941357731819153,0.5003188252449036
1630679020850,1.8405020236968996,-0.4057429730892181,-0.3941357731819153,0.5003188252449036
1630679020960,1.8405020236968996,-0.4057429730892181,-0.3941357731819153,0.5003188252449036
1630679021132,1.8405020236968996,-0.4057429730892181,-0.3941357731819153,0.5003188252449036
1630679021210,1.8405020236968996,-0.4057429730892181,-0.3941357731819153,0.5003188252449036
1630679021225,1.8405020236968996,-0.4057429730892181,-0.3941357731819153,0.5003188252449036
1630679021382,1.8405020236968996,-0.4057429730892181,-0.3941357731819153,0.5003188252449036
1630679021681,1.8405020236968996,-0.4057429730892181,0.2405367344617843,0.5003188252449036
1630679021837,1.8405020236968996,-0.4057429730892181,0.219676673412323,0.5003188252449036
1630679021869,1.8405020236968996,-0.4057429730892181,0.2022828161716461,0.5003188252449036
1630679021900,1.8405020236968996,-0.4057429730892181,0.1817021816968917,0.5003188252449036
1630679022009,1.8405020236968996,-0.4057429730892181,0.1817021816968917,0.5003188252449036
1630679022056,1.8405020236968996,-0.4057429730892181,0.1817021816968917,0.5003188252449036
1630679022462,1.8405020236968996,-0.4057429730892181,0.1610470414161682,0.5003188252449036
1630679023075,1.8405020236968996,-0.4057429730892181,0.1610470414161682,0.5003188252449036
1630679023231,1.8405020236968996,-0.4057429730892181,0.1610470414161682,0.5003188252449036
1630679023372,1.8405020236968996,-0.4057429730892181,0.1610470414161682,0.5003188252449036
1630679023465,1.8405020236968996,-0.4057429730892181,0.0951388850808143,0.5003188252449036
1630679023655,1.8405020236968996,-0.4057429730892181,0.0533875972032547,0.5003188252449036
1630679023671,1.8405020236968996,-0.4057429730892181,0.0533875972032547,0.5003188252449036
1630679023874,1.8405020236968996,-0.4057429730892181,0.0636739581823349,0.5003188252449036
1630679023874,1.8405020236968996,-0.4057429730892181,0.0533875972032547,0.5003188252449036
1630679023874,1.8405020236968996,-0.4057429730892181,0.0659855604171752,0.5003188252449036
1630679023889,1.8405020236968996,-0.4057429730892181,0.0636739581823349,0.5003188252449036
1630679023921,1.8405020236968996,-0.4057429730892181,0.0636739581823349,0.5003188252449036
1630679024092,1.8405020236968996,-0.4057429730892181,0.0636739581823349,0.5003188252449036
1630679024155,1.8405020236968996,-0.4057429730892181,0.0636739581823349,0.5003188252449036
1630679024170,1.8405020236968996,-0.4057429730892181,0.0636739581823349,0.5003188252449036
1630679024170,1.8405020236968996,-0.4057429730892181,0.0636739581823349,0.5003188252449036
1630679024217,1.8405020236968996,-0.4057429730892181,0.0636739581823349,0.5003188252449036
1630679024264,1.8405020236968996,-0.4057429730892181,0.0636739581823349,0.5003188252449036
1630679024295,1.8405020236968996,-0.4057429730892181,0.0636739581823349,0.5003188252449036
1630679024295,1.8405020236968996,-0.4057429730892181,0.0636739581823349,0.5003188252449036
1630679024295,1.8405020236968996,-0.4057429730892181,0.0636739581823349,0.5003188252449036
1630679024499,1.8405020236968996,-0.4057429730892181,0.0636739581823349,0.5003188252449036
1630679024689,1.8405020236968996,-0.4057429730892181,0.0636739581823349,0.5003188252449036
1630679024814,1.8405020236968996,-0.4057429730892181,0.0636739581823349,0.5003188252449036
1630679024860,1.8405020236968996,-0.4057429730892181,0.0636739581823349,0.5003188252449036
1630679025048,1.8405020236968996,-0.4057429730892181,0.0636739581823349,0.5003188252449036
1630679025142,1.8405020236968996,0.8852446675300598,0.5912153124809265,0.5003188252449036
1630679025329,1.8405020236968996,0.9820408821105956,0.8120790123939514,0.5003188252449036
1630679025610,1.8405020236968996,0.9086796045303344,0.7480527758598328,0.5003188252449036
1630679025928,1.8405020236968996,0.8464108109474182,0.6963725090026855,0.5003188252449036
1630679026193,1.8405020236968996,0.8619628548622131,0.7044781446456909,0.5003188252449036
1630679026193,1.8405020236968996,0.9048277735710144,0.7044781446456909,0.5003188252449036
1630679026255,1.8405020236968996,0.9048277735710144,0.7044781446456909,0.5003188252449036
1630679026287,1.8405020236968996,0.9048277735710144,0.7044781446456909,0.5003188252449036
1630679026333,1.8405020236968996,0.9048277735710144,0.7044781446456909,0.5003188252449036
1630679026333,1.8405020236968996,0.9048277735710144,0.7044781446456909,0.5003188252449036
1630679026445,1.8405020236968996,0.9048277735710144,0.7044781446456909,0.5003188252449036
1630679026492,1.8405020236968996,0.9048277735710144,0.7044781446456909,0.5003188252449036
1630679026523,1.8405020236968996,0.9305140376091005,0.6470478773117065,0.5003188252449036
1630679026523,1.8405020236968996,0.8740537166595459,0.5914514660835266,0.5003188252449036
1630679026523,1.8405020236968996,0.9950348734855652,0.7134238481521606,0.5003188252449036
1630679026726,1.8405020236968996,0.919882357120514,0.7942288517951965,0.5003188252449036
1630679027023,1.8405020236968996,0.7837988138198853,0.7942288517951965,0.5003188252449036
1630679027117,1.8405020236968996,0.7837988138198853,0.7942288517951965,0.5003188252449036
1630679027320,1.8405020236968996,0.7837988138198853,0.7942288517951965,0.5003188252449036
1630679027320,1.8405020236968996,0.7837988138198853,0.7942288517951965,0.5003188252449036
1630679027336,1.8405020236968996,0.7837988138198853,0.7942288517951965,0.5003188252449036
1630679027367,1.8405020236968996,0.7837988138198853,0.7942288517951965,0.5003188252449036
1630679027398,1.8405020236968996,0.7837988138198853,0.7942288517951965,0.5003188252449036
1630679027414,1.8405020236968996,0.7837988138198853,0.7942288517951965,0.5003188252449036
1630679027445,1.8405020236968996,0.7837988138198853,0.7942288517951965,0.5003188252449036
1630679027495,1.8405020236968996,0.7837988138198853,0.7942288517951965,0.5003188252449036
1630679027589,1.8405020236968996,0.7837988138198853,0.7942288517951965,0.5003188252449036
1630679027729,1.8405020236968996,0.7837988138198853,0.7942288517951965,0.5003188252449036
1630679027917,1.8405020236968996,0.7837988138198853,0.7942288517951965,0.5003188252449036
1630679028073,1.8405020236968996,0.7837988138198853,0.7942288517951965,0.5003188252449036
1630679028136,1.8405020236968996,0.7837988138198853,0.7942288517951965,0.5003188252449036
1630679028183,1.8405020236968996,0.7837988138198853,0.7942288517951965,0.5003188252449036
1630679028261,1.8405020236968996,0.7837988138198853,0.7942288517951965,0.5003188252449036
1630679028417,1.8405020236968996,0.7837988138198853,0.7942288517951965,0.5003188252449036
1630679028684,1.8405020236968996,0.7837988138198853,0.7942288517951965,0.5003188252449036
1630679028935,1.065536379814148,0.7837988138198853,0.7942288517951965,0.5003188252449036
1630679029043,1.005337119102478,0.3077406585216522,0.7942288517951965,0.5003188252449036
1630679029122,1.005337119102478,0.2870750725269317,0.7942288517951965,0.5003188252449036
1630679029481,1.005337119102478,0.2689419388771057,0.7942288517951965,0.5003188252449036
1630679029481,1.005337119102478,0.4839277267456054,0.7942288517951965,0.5003188252449036
1630679029703,1.005337119102478,0.4485799670219421,0.7942288517951965,0.5003188252449036
1630679029719,1.005337119102478,0.5866445302963257,0.7942288517951965,0.5003188252449036
1630679029875,1.005337119102478,0.5866445302963257,0.7942288517951965,0.5003188252449036
1630679029891,1.005337119102478,0.5866445302963257,0.7942288517951965,0.5003188252449036
1630679030063,1.005337119102478,0.5866445302963257,0.7942288517951965,0.5003188252449036
1630679030125,1.005337119102478,0.6538344621658325,0.7942288517951965,0.5003188252449036
1630679030141,0.7591722011566162,1.0019645690917969,0.7942288517951965,0.5003188252449036
1630679030141,1.005337119102478,0.6997226476669312,0.7942288517951965,0.5003188252449036
1630679030266,0.7591722011566162,0.994444727897644,0.7942288517951965,0.5003188252449036
1630679030297,0.7591722011566162,1.0377057790756226,0.7942288517951965,0.5003188252449036
1630679030313,0.7591722011566162,1.144998550415039,0.7942288517951965,0.5003188252449036
1630679030313,0.7591722011566162,1.042205810546875,0.7942288517951965,0.5003188252449036
1630679030453,1.3368608951568604,1.1755197048187256,0.7942288517951965,0.5003188252449036
1630679030500,1.3368608951568604,1.173348307609558,0.7942288517951965,0.5003188252449036
1630679030531,1.3368608951568604,1.149665355682373,0.7942288517951965,0.5003188252449036
1630679030627,1.3368608951568604,1.148550510406494,0.7428036332130432,0.5003188252449036
1630679030627,1.3368608951568604,1.1535892486572266,0.7428036332130432,0.5003188252449036
1630679030721,1.3368608951568604,1.1535892486572266,0.7428036332130432,0.5003188252449036
1630679030815,1.3368608951568604,1.1535892486572266,0.7428036332130432,0.5003188252449036
1630679030830,1.3368608951568604,1.1535892486572266,0.7428036332130432,0.5003188252449036
1630679030987,1.3368608951568604,1.165388822555542,0.7428036332130432,0.5003188252449036
1630679031174,1.3368608951568604,1.1803100109100342,0.7428036332130432,0.5003188252449036
1630679031205,1.3368608951568604,0.9473671913146972,0.7428036332130432,0.5003188252449036
1630679031221,1.3368608951568604,1.0024503469467163,0.7428036332130432,0.5003188252449036
1630679031283,1.3368608951568604,0.95818430185318,0.7428036332130432,0.5003188252449036
1630679031346,1.3368608951568604,1.0337331295013428,0.7428036332130432,0.5003188252449036
1630679031439,1.3368608951568604,0.5945297479629517,0.7428036332130432,0.5003188252449036
1630679031517,1.3368608951568604,0.5945297479629517,0.7428036332130432,0.5003188252449036
1630679031660,1.3368608951568604,0.5945297479629517,0.7428036332130432,0.5003188252449036
1630679031738,1.3368608951568604,0.5945297479629517,0.7428036332130432,0.5003188252449036
1630679031926,1.3368608951568604,0.5945297479629517,0.7428036332130432,0.5003188252449036
1630679032129,1.3368608951568604,0.5945297479629517,0.7428036332130432,0.5003188252449036
1630679032160,1.3368608951568604,0.5945297479629517,0.7428036332130432,0.5003188252449036
1630679032238,1.3368608951568604,0.5945297479629517,0.7428036332130432,0.5003188252449036
1630679032285,1.3368608951568604,0.5945297479629517,0.7428036332130432,0.5003188252449036
1630679032316,1.3368608951568604,0.5945297479629517,0.7428036332130432,0.5003188252449036
1630679032488,1.3368608951568604,0.5945297479629517,0.7428036332130432,0.5003188252449036
1630679032566,1.3368608951568604,0.5945297479629517,0.7428036332130432,0.5003188252449036
1630679032660,1.3368608951568604,0.5945297479629517,0.7428036332130432,0.5003188252449036
1630679032725,1.3368608951568604,0.5945297479629517,0.7428036332130432,0.5003188252449036
1630679032912,1.3368608951568604,0.5945297479629517,0.7428036332130432,0.5003188252449036
1630679032959,1.3368608951568604,0.5945297479629517,0.7428036332130432,0.5003188252449036
1630679033053,1.3368608951568604,0.5945297479629517,0.7428036332130432,0.5003188252449036
1630679033162,1.3368608951568604,0.5945297479629517,0.7428036332130432,0.5003188252449036
1630679033256,1.3368608951568604,0.5945297479629517,-0.0043732449412345,0.5003188252449036
1630679033396,1.3368608951568604,0.5945297479629517,0.0023587555624544,0.5003188252449036
1630679033490,1.3368608951568604,0.5945297479629517,0.0088198697194457,0.5003188252449036
1630679033663,0.7200061082839966,0.5945297479629517,0.0098348520696163,0.5003188252449036
1630679033805,0.6814601421356201,-0.0956291779875755,0.0086277276277542,0.5003188252449036
1630679033946,0.6506418585777283,-0.0930414870381355,0.010086977854371,0.5003188252449036
1630679033961,0.6319200396537781,-0.0742967277765274,0.0132911372929811,0.5003188252449036
1630679033977,0.623934268951416,-0.0456517338752746,0.0125803323462605,0.5003188252449036
1630679034117,0.6226991415023804,-0.0168358795344829,0.004463315475732,0.5003188252449036
1630679034165,0.6228452920913696,0.0039620040915906,-0.0098333116620779,0.5003188252449036
1630679034320,0.6228452920913696,0.012231832370162,-0.0250894725322723,0.5003188252449036
1630679034383,0.6228452920913696,0.0114780366420745,-0.0250894725322723,0.5003188252449036
1630679034494,0.6228452920913696,0.0114780366420745,-0.0315483883023262,0.5003188252449036
1630679034557,0.6228452920913696,0.0114780366420745,-0.0329783707857131,0.5003188252449036
1630679034697,0.6228452920913696,0.0114780366420745,-0.032060120254755,0.5003188252449036
1630679034806,0.6022931337356567,0.0114780366420745,-0.0336608104407787,0.5003188252449036
1630679034869,0.5746973752975464,0.0167985688894987,-0.0411230474710464,0.5003188252449036
1630679034962,0.5507470369338989,0.026361595839262,-0.0523804873228073,0.5003188252449036
1630679035041,0.5434131026268005,0.042164146900177,-0.0630698204040527,0.5003188252449036
1630679035204,0.5550665259361267,0.0625897720456123,-0.0745493695139885,0.5003188252449036
1630679035297,0.5775002241134644,0.0827139988541603,-0.0966225937008857,0.5003188252449036
1630679035438,0.5775002241134644,0.0960784330964088,-0.1391592919826507,0.5003188252449036
1630679035504,0.5775002241134644,0.0963069871068,-0.1391592919826507,0.5003188252449036
1630679035675,0.5775002241134644,0.0963069871068,-0.1391592919826507,0.5003188252449036
1630679035691,0.5775002241134644,0.0963069871068,-0.1391592919826507,0.5003188252449036
1630679035896,0.5775002241134644,0.0963069871068,-0.1391592919826507,0.5003188252449036
1630679035928,0.5775002241134644,0.0963069871068,-0.1391592919826507,0.5003188252449036
1630679036022,0.5775002241134644,0.0963069871068,-0.1391592919826507,0.5003188252449036
1630679036209,0.5775002241134644,0.0963069871068,-0.1391592919826507,0.5003188252449036
1630679036302,0.5775002241134644,0.0963069871068,-0.1391592919826507,0.5003188252449036
1630679036302,0.5775002241134644,0.0963069871068,-0.1391592919826507,0.5003188252449036
1630679036443,0.5775002241134644,0.0963069871068,-0.1391592919826507,0.5003188252449036
1630679036505,0.5775002241134644,0.0963069871068,-0.1391592919826507,0.5003188252449036
1630679036696,0.5775002241134644,0.0963069871068,-0.1391592919826507,0.5003188252449036
1630679036820,0.5775002241134644,0.0963069871068,-0.1391592919826507,0.5003188252449036
1630679036914,0.5775002241134644,0.0963069871068,-0.1391592919826507,0.5003188252449036
1630679037226,0.5775002241134644,0.0963069871068,-0.1391592919826507,0.5003188252449036
1630679037351,0.5775002241134644,0.0963069871068,-0.1391592919826507,0.5003188252449036
1630679037398,0.5775002241134644,0.0963069871068,-0.1391592919826507,0.5003188252449036
1630679037492,0.5775002241134644,0.0963069871068,-0.1391592919826507,0.5003188252449036
1630679037667,0.5775002241134644,0.0963069871068,-0.1391592919826507,0.5003188252449036
1630679037760,0.5775002241134644,0.0963069871068,-0.1391592919826507,0.5003188252449036
1630679037901,0.5775002241134644,0.0963069871068,-0.1391592919826507,0.5003188252449036
1630679037979,0.5775002241134644,0.0963069871068,-0.1391592919826507,0.5003188252449036
1630679038229,0.5775002241134644,0.0963069871068,-0.1391592919826507,0.5003188252449036
1630679038229,0.5775002241134644,0.0963069871068,-0.1391592919826507,0.5003188252449036
1630679038338,0.5775002241134644,0.0963069871068,-0.1391592919826507,0.5003188252449036
1630679038432,0.5775002241134644,0.0963069871068,-0.1391592919826507,0.5003188252449036
1630679038447,0.5775002241134644,0.0963069871068,-0.1391592919826507,0.5003188252449036
1630679038463,0.5775002241134644,0.0963069871068,-0.1391592919826507,0.5003188252449036
1630679038494,0.5775002241134644,0.0963069871068,-0.1391592919826507,0.5003188252449036
1630679038525,0.5775002241134644,0.7445463538169861,0.0950387641787529,0.5003188252449036
1630679038603,0.5775002241134644,0.6730940937995911,0.145477756857872,0.5003188252449036
1630679038809,0.5775002241134644,0.6142470836639404,0.1568604707717895,0.5003188252449036
1630679038856,0.5775002241134644,0.5625351071357727,0.1232592910528183,0.5003188252449036
1630679038966,0.6735613346099854,0.5157822370529175,0.0975056961178779,0.5003188252449036
1630679039153,0.6379677057266235,0.4733138978481293,0.0748910531401634,0.5003188252449036
1630679039372,0.6045464277267456,0.4343898892402649,0.0525886267423629,0.5003188252449036
1630679039497,0.6045464277267456,0.5290898084640503,0.3414497077465057,0.5003188252449036
1630679039559,0.6045464277267456,0.4955324530601501,0.3187807500362396,0.5003188252449036
1630679039575,0.6045464277267456,0.4655940532684326,0.3081763684749603,0.5003188252449036
1630679039622,0.5687596201896667,0.4389487206935882,0.3021343946456909,0.5003188252449036
1630679039655,0.5387527346611023,0.4147608280181885,0.2925574481487274,0.5003188252449036
1630679039953,0.5178571343421936,0.1566096097230911,0.2778530418872833,0.5003188252449036
1630679040109,0.5065949559211731,0.1406058222055435,0.2626602947711944,0.5003188252449036
1630679040234,0.5031380653381348,0.1234269067645073,0.2525104880332947,0.8563228845596313
1630679040343,0.5043177604675293,0.1071855649352073,0.2477608025074005,0.828145444393158
1630679040455,0.488966703414917,0.0933287516236305,0.2515153288841247,0.812224805355072
1630679040486,0.4638619422912597,0.0838592499494552,0.2612031996250152,0.812224805355072
1630679040486,0.4321019649505615,0.0801464021205902,0.2707147002220154,0.812224805355072
1630679040830,0.4027097523212433,0.0826450437307357,0.2755336463451385,0.812224805355072
1630679040892,0.5339343547821045,0.3117328584194183,0.2763907015323639,0.812224805355072
1630679040955,0.5242676138877869,0.3179613947868347,0.275949627161026,0.812224805355072
1630679041033,0.5119797587394714,0.165641650557518,0.0853210389614105,0.812224805355072
1630679041236,0.5086816549301147,0.171277642250061,0.077679343521595,0.812224805355072
1630679041345,0.5093470215797424,0.174639418721199,0.0634150803089141,0.812224805355072
1630679041454,0.5204667448997498,0.1773922890424728,0.0503551289439201,0.812224805355072
1630679041534,0.5350857973098755,0.1809508502483368,0.0486598052084445,0.7717256546020508
1630679041691,0.548826277256012,0.4256995916366577,0.3560742735862732,0.7303845882415771
1630679041737,0.5598041415214539,0.4289000928401947,0.3642511069774627,0.7303845882415771
1630679041784,0.6556532382965088,0.5413198471069336,0.3705057501792907,0.7303845882415771
1630679041816,0.7450793981552124,0.6353001594543457,0.3722925186157226,0.7303845882415771
1630679041894,0.7518947124481201,0.639248251914978,0.3689837157726288,0.7303845882415771
1630679041925,0.834419846534729,0.7171028256416321,0.3620648980140686,0.9137007594108582
1630679041941,0.8496483564376831,0.718754231929779,0.3552016317844391,0.8713880777359009
1630679041987,0.8629013299942017,0.7189790606498718,0.3524693250656128,0.836860716342926
1630679042050,0.8071255087852478,0.6441975235939026,0.3557482063770294,0.8106348514556885
1630679042081,0.8088599443435669,0.6430564522743225,0.363976240158081,0.7914258241653442
1630679042269,0.8252541422843933,0.6672753095626831,0.4196663498878479,0.8436158895492554
1630679042347,0.8163949847221375,0.6680169105529785,0.4253503978252411,0.8221604824066162
1630679042487,0.8060438632965088,0.6695154905319214,0.425261914730072,0.8019988536834717
1630679042519,0.797378659248352,0.6708822846412659,0.419623851776123,0.7847511768341064
1630679042706,0.771366536617279,0.6714489459991455,0.4114335179328918,0.7706880569458008
1630679042768,0.8108381032943726,0.6409460306167603,0.1510744839906692,0.7587409019470215
1630679042831,0.7900631427764893,0.6393624544143677,0.1437465548515319,0.7479934096336365
1630679042893,0.7359468936920166,0.5516971945762634,0.1386797428131103,0.7401933073997498
1630679043018,0.6683849692344666,0.4341945052146911,0.1319832801818847,0.6607310175895691
1630679043159,0.6691222190856934,0.4286798536777496,0.1228521019220352,0.6566708087921143
1630679043237,0.5801925659179688,0.2656018137931824,0.1137523204088211,0.6570023894309998
1630679043315,0.5663659572601318,0.2649348080158233,0.1062802150845527,0.6642221212387085
1630679043456,0.5545743107795715,0.2663391828536987,0.0986120030283927,0.6759921908378601
1630679043534,0.5509467124938965,0.2692967355251312,0.0872554332017898,0.6877365112304688
1630679043616,0.5568328499794006,0.2744067013263702,0.0706422552466392,0.6967946290969849
1630679043788,0.5385732650756836,0.2177172005176544,-0.0651383846998214,0.6467225551605225
1630679043928,0.5554032325744629,0.2223127782344818,-0.0863115936517715,0.6524212956428528
1630679043991,0.5719214081764221,0.2239430844783783,-0.0973438546061515,0.6610016822814941
1630679044038,0.5860332250595093,0.2260818779468536,-0.0988106504082679,0.670413076877594
1630679044163,0.5971412658691406,0.2319531142711639,-0.0968947485089302,0.6797012686729431
1630679044225,0.5072466731071472,-0.0354898869991302,-0.0984851717948913,0.6898040771484375
1630679044350,0.5138553977012634,-0.0203532520681619,-0.1043035686016082,0.7020646333694458
1630679044475,0.5155298709869385,-0.0088801123201847,-0.1086092740297317,0.7158614993095398
1630679044553,0.5107342600822449,0.0016673130448907,-0.106186494231224,0.7305097579956055
1630679044824,0.4998674988746643,0.0178249198943376,-0.098487988114357,0.744300365447998
1630679044887,0.4875482022762298,0.0434562638401985,-0.0919772386550903,0.7543649077415466
1630679044980,0.4801257252693176,0.0733938887715339,-0.0898667052388191,0.7281613349914551
1630679045043,0.4807664752006531,0.0970743298530578,-0.0896249562501907,0.691471517086029
1630679045090,0.4862673282623291,0.1060635298490524,-0.0877180472016334,0.6417940258979797
1630679045136,0.4908150136470794,0.099919818341732,-0.0827760621905326,0.5893887281417847
1630679045261,0.4912610054016113,0.085890032351017,-0.0767240151762962,0.5644218921661377
1630679045386,0.4881070852279663,0.0713269710540771,-0.0721025839447975,0.5974027514457703
1630679045449,0.4835410118103027,0.0576950870454311,-0.0709074065089225,0.6334101557731628
1630679045543,0.4785874187946319,0.040988452732563,-0.0739987269043922,0.6616095304489136
1630679045718,0.4730798900127411,0.018350651487708,-0.0806592181324958,0.6818362474441528
1630679045843,0.4671481847763061,-0.0070824068970978,-0.0907429978251457,0.6970085501670837
1630679045921,0.4595648050308227,-0.0288882423192262,-0.1054506450891494,0.7066284418106079
1630679045999,0.4484444856643677,-0.0444975271821022,-0.1242768391966819,0.7098530530929565
1630679046155,0.4339504241943359,-0.0592754259705543,-0.1430047899484634,0.7099615335464478
1630679046421,0.4191112816333771,-0.0860565975308418,-0.1555050611495971,0.7137751579284668
1630679046483,0.4088906645774841,-0.1351436227560043,-0.1568809449672699,0.7248578667640686
1630679046577,0.4049203395843506,-0.2038956880569458,-0.1469239592552185,0.7470482587814331
1630679046690,0.4039972126483917,-0.2735907435417175,-0.1295083165168762,0.7676472067832947
1630679046690,0.4066545069217682,-0.3208600878715515,-0.1108593046665191,0.786575973033905
1630679046783,0.4154204726219177,-0.3391567170619964,-0.096965305507183,0.8048404455184937
1630679046955,0.4275530874729156,-0.3402157723903656,-0.0893861204385757,0.8190382719039917
1630679047049,0.435025691986084,-0.3341886699199676,-0.0849043950438499,0.8239026069641113
1630679047111,0.43350350856781,-0.3242295682430267,-0.0785154923796653,0.8181200623512268
1630679047267,0.4265515208244324,-0.3111309707164764,-0.0680868700146675,0.8046798706054688
1630679047330,0.42239710688591,-0.2922910153865814,-0.0546038597822189,0.7882865071296692
1630679047580,0.4261468350887298,-0.2625897228717804,-0.0369464606046676,0.7739253044128418
1630679047810,0.4385054111480713,-0.2187729179859161,-0.0049984729848802,0.7698909044265747
1630679048013,0.4575623273849487,-0.1627280563116073,0.0525732114911079,0.7841088175773621
1630679048154,0.4780902862548828,-0.104673646390438,0.1280667632818222,0.8144233226776123
1630679048378,0.4942975342273712,-0.0571222193539142,0.1977222710847854,0.8487796187400818
1630679048533,0.6023644804954529,0.244072750210762,0.4076789617538452,0.8748225569725037
1630679048721,0.6041093468666077,0.2506408989429474,0.4216022491455078,0.8725464344024658
1630679048820,0.6012072563171387,0.4493962228298187,0.4208127856254577,0.8716850280761719
1630679048828,0.6034778356552124,0.4492049813270569,0.4235293269157409,0.8708613514900208
1630679048862,0.6635981798171997,0.5400469899177551,0.5136565566062927,0.8505938649177551
1630679049014,0.6609810590744019,0.5425168871879578,0.5116356611251831,0.8244001865386963
1630679049024,0.7216534614562988,0.6251970529556274,0.5103698968887329,0.8710021376609802
1630679049127,0.8031847476959229,0.7217035293579102,0.5109502673149109,0.9349676370620728
1630679049130,0.7225203514099121,0.6266123652458191,0.510023295879364,0.8600013852119446
1630679049189,0.8480963706970215,0.7805781364440918,0.6044014096260071,0.9798895120620728
1630679049250,0.8841696381568909,0.8293218612670898,0.6735228896141052,0.9788004159927368
1630679049339,0.8748515248298645,0.8273309469223022,0.6693271398544312,0.9852595329284668
1630679049448,0.8984171748161316,0.9000497460365295,0.7108070850372314,0.9900665879249572
1630679049542,0.8850521445274353,0.8953222036361694,0.691516101360321,0.9812412261962892
1630679049683,0.8635046482086182,0.883798360824585,0.649204671382904,0.9052912592887878
1630679049683,0.8738099932670593,0.8903595209121704,0.6699311137199402,0.9593430161476136
1630679049729,0.9042962193489076,0.9251563549041748,0.698034942150116,0.9052912592887878
1630679049870,0.8995085954666138,0.869818925857544,0.6996340155601501,0.9052912592887878
1630679050011,0.8938496112823486,0.8722794651985168,0.7033349275588989,0.9052912592887878
1630679050120,0.8929784297943115,0.881045401096344,0.7181733250617981,1.0032087564468384
1630679050151,0.8882889151573181,0.9369168877601624,0.721676766872406,1.042543888092041
1630679050585,0.8441259860992432,0.9412513971328736,0.7279009222984314,1.055730223655701
1630679050585,0.8446329832077026,0.900231659412384,0.7250504493713379,1.0214375257492063
1630679051021,0.7724685668945312,0.8872625231742859,0.7296739816665649,1.012915849685669
1630679051144,0.7173752188682556,0.8422449231147766,0.664037823677063,0.9916555881500244
1630679051177,0.7560665607452393,0.8477046489715576,0.7041157484054565,1.087187886238098
1630679051194,0.9208735823631288,1.1033620834350586,0.7068276405334473,1.1093991994857788
1630679051236,0.9446812272071838,1.0807600021362305,0.8314869403839111,1.1093991994857788
1630679051236,0.9143969416618348,1.0563613176345823,0.7805595397949219,1.1093991994857788
1630679051347,0.9462741017341614,1.0804539918899536,0.8344108462333679,1.1093991994857788
1630679051451,0.9458236694335938,1.0772193670272827,0.8395895957946777,1.1495933532714844
1630679051529,0.8949634432792664,1.047175049781799,0.8005314469337463,1.0992560386657717
1630679051578,1.0773236751556396,1.2706314325332642,0.8639547824859619,1.1163740158081057
1630679051578,0.9537436366081238,1.086369514465332,0.8650011420249939,1.1173739433288574
1630679051695,1.0452780723571775,1.251468300819397,0.8140937685966492,1.0503982305526731
1630679051849,1.3076618909835815,1.310952067375183,0.8527802228927612,1.335480809211731
1630679051958,1.3478537797927856,1.3244681358337402,0.9466273784637452,1.3588436841964722
1630679052037,1.3454256057739258,1.3077062368392944,0.9444917440414428,1.3870824575424194
1630679052121,1.3429954051971436,1.3073724508285522,0.942034900188446,1.405443549156189
1630679052183,1.3587757349014282,1.337185263633728,0.9750614762306212,1.4157578945159912
1630679052246,1.3502848148345947,1.3371728658676147,0.9581831693649292,1.3971043825149536
1630679052456,1.287541747093201,1.206066608428955,0.955269694328308,1.355108618736267
1630679052518,1.272078275680542,1.2834171056747437,0.8683485388755798,1.3140277862548828
1630679052547,1.299640655517578,1.280897617340088,0.9094594120979308,1.3194440603256226
1630679052584,1.257677435874939,1.2688080072402954,0.8123427033424377,1.2753962278366089
1630679052584,1.2734463214874268,1.2837395668029783,0.8660821914672852,1.2913360595703125
1630679052615,1.2758764028549194,1.2838596105575562,0.8094072937965393,1.2923095226287842
1630679052822,1.2537448406219482,1.2592581510543823,0.7305715084075928,1.288416624069214
1630679052826,1.187145113945007,1.127690672874451,0.7280990481376648,1.280691623687744
1630679053003,1.1865615844726562,1.1283409595489502,0.7270384430885315,1.3056583404541016
1630679053018,0.8648361563682556,0.9906020164489746,0.6744235157966614,1.069206476211548
1630679053065,0.7424591183662415,0.9610016345977784,0.4813003242015838,1.0474588871002195
1630679053112,0.7438584566116333,0.9620187878608704,0.4925840497016907,1.02588951587677
1630679053190,0.7485172748565674,0.9624804258346558,0.5043309926986694,0.9795743227005004
1630679053446,0.7431051731109619,0.9226636290550232,0.4018831849098205,0.9413522481918336
1630679053604,0.6816320419311523,0.8786182999610901,0.2461870014667511,0.8953223824501038
1630679053683,0.705931544303894,0.8819062113761902,0.2573021054267883,0.9483681917190552
1630679053901,0.5302440524101257,0.6717113852500916,0.0742598176002502,0.9464104175567628
1630679054041,0.5494868159294128,0.6060134172439575,0.0738115608692169,0.900419294834137
1630679054152,0.565456748008728,0.6160526275634766,0.0699038952589035,0.8902722597122192
1630679054258,0.5783839225769043,0.6203532218933105,0.0680641829967498,0.8736857175827026
1630679054383,0.4505894780158996,0.5517847537994385,0.071287453174591,0.8550644516944885
1630679054383,0.6804819107055664,0.6626811623573303,0.0795013830065727,0.8216835260391235
1630679054522,0.6913051009178162,0.4621034562587738,0.089872620999813,0.8160660862922668
1630679054682,0.6990455985069275,0.4645533263683319,0.0975943729281425,0.7657307386398315
1630679054853,0.7083250284194946,0.4630530476570129,0.0991825386881828,0.7755956649780273
1630679054963,0.7216196060180664,0.459024578332901,0.0937970653176307,0.7905363440513611
1630679055228,0.7391104698181152,0.4559668302536011,0.0830480977892875,0.8071578741073608
1630679055291,0.7597386240959167,0.4562677443027496,0.0689900666475296,0.8229120373725891
1630679055291,0.6950398683547974,0.3491596579551697,0.0523021556437015,0.8368827104568481
1630679055400,0.7095978856086731,0.5971174240112305,0.0339359045028686,0.8487698435783386
1630679055400,0.6887927651405334,0.59575355052948,0.0167028363794088,0.7883711457252502
1630679055447,0.6661419868469238,0.65985506772995,0.0068892464041709,0.8334949612617493
1630679055556,0.764950156211853,0.971339762210846,0.3337253332138061,0.838659942150116
1630679055629,0.7437765002250671,0.9672204852104188,0.340152382850647,0.900401771068573
1630679055654,0.7251089215278625,0.9642878770828248,0.347924530506134,0.9030347466468812
1630679055889,0.7084925174713135,0.9621400237083436,0.3527009785175323,0.9037262201309204
1630679056138,0.5951129198074341,0.9084365963935852,0.3518281280994415,0.9029998779296876
1630679056185,0.5923431515693665,0.9058449864387512,0.3458650410175323,0.9347484707832336
1630679056263,0.6772879958152771,0.97453773021698,0.5977621078491211,0.9383914470672609
1630679056263,0.6772440671920776,0.9748862981796264,0.4747432768344879,0.9319756627082824
1630679056387,0.6727752685546875,0.9750394821166992,0.5940927863121033,0.9454088807106018
1630679056497,0.663935661315918,1.1564589738845823,0.5922051072120667,0.9541768431663512
1630679056590,0.7143726348876953,1.1761679649353027,0.6571072936058044,0.9660910964012146
1630679056684,0.7085960507392883,1.1763606071472168,0.6619734168052673,0.9813708662986756
1630679056731,0.7073326110839844,1.1238951683044434,0.6685076355934143,0.9996504187583924
1630679056887,0.7082293033599854,1.1233478784561155,0.673617959022522,1.021753430366516
1630679057022,0.7076666951179504,1.0997166633605957,0.6752734184265137,0.9989193677902222
1630679057132,0.5979109406471252,0.8860662579536438,0.5540822148323059,1.0273791551589966
1630679057639,0.5985679626464844,0.8868289589881897,0.549460768699646,0.9328340888023376
1630679057954,0.6079330444335938,0.8885967135429382,0.5449309945106506,0.9049220681190492
1630679058001,0.6263992190361023,0.891106903553009,0.5421662926673889,0.8806602954864502
1630679058147,0.7448447346687317,0.9474573731422424,0.650908350944519,0.8896344900131226
1630679058323,0.7607988715171814,0.9853441119194032,0.6522188782691956,0.8896344900131226
1630679058369,0.7052915096282959,0.9181970357894896,0.5685011744499207,0.8896344900131226
1630679058385,0.7210777401924133,1.00941264629364,0.4328548610210418,0.8896344900131226
1630679058401,0.7400119304656982,1.0426232814788818,0.4373598098754883,0.8896344900131226
1630679058416,0.7616539001464844,0.922524869441986,0.4414395093917846,0.8896344900131226
1630679058528,0.6845054030418396,0.8861668109893799,0.3332298099994659,0.8896344900131226
1630679058556,0.8490275740623474,0.984002411365509,0.3233096003532409,1.5036089420318604
1630679058572,0.806154191493988,0.9572905898094176,0.3293514549732208,1.5708260536193848
1630679058572,0.8416465520858765,0.9819879531860352,0.3204323053359985,1.426641821861267
1630679058697,0.8380689024925232,0.9801111221313475,0.3237576186656952,1.363525390625
1630679058791,0.9550472497940063,1.0518454313278198,0.5955716371536255,2.015789747238159
1630679058900,0.9834641814231871,1.2021830081939695,0.702259361743927,2.134864330291748
1630679058931,1.0099385976791382,1.2308365106582642,0.7038694024085999,2.179748773574829
1630679058994,1.0341066122055054,1.328283667564392,0.7032926082611084,2.2293701171875
1630679059117,0.972420573234558,1.3197871446609497,0.6053131222724915,2.2293701171875
1630679059197,0.9969253540039062,1.3383333683013916,0.6667388081550598,2.2293701171875
1630679059260,1.0135639905929563,1.3187377452850342,0.7475337386131287,2.1877188682556152
1630679059272,0.9759302735328674,1.3376519680023191,0.6637724041938782,2.178940534591675
1630679059306,0.9709684252738952,1.3019623756408691,0.7452694177627563,2.1877188682556152
1630679059463,0.9843254089355468,1.2682050466537476,0.7425978779792786,2.1877188682556152
1630679059828,1.1896131038665771,1.3474574089050293,0.7887189984321594,2.1374545097351074
1630679059968,1.1611380577087402,1.3337210416793823,0.8291062116622925,2.133508682250977
1630679060278,1.1325466632843018,1.321696400642395,0.8276685476303101,2.1306376457214355
1630679060375,1.1834310293197632,1.3424816131591797,0.826798141002655,2.1312620639801025
1630679060575,1.206296682357788,1.344529390335083,0.8231927156448364,1.8096994161605835
1630679060578,1.1935118436813354,1.343004584312439,0.8262177109718323,2.1318395137786865
1630679060586,1.178210735321045,1.241657018661499,0.7466205954551697,1.3188680410385132
1630679060799,1.150676965713501,1.2322770357131958,0.7452717423439026,0.7939833998680115
1630679060801,1.3001092672348022,1.2641572952270508,0.8232157230377197,0.7939833998680115
1630679060802,1.1545368432998655,1.251312494277954,0.7444204092025757,0.7939833998680115
1630679060905,1.2744046449661257,1.2668511867523191,0.7794640064239502,0.8317955136299133
1630679060939,1.273346185684204,1.249763250350952,0.7790910005569458,0.7939833998680115
1630679060953,1.251581072807312,1.237737059593201,0.7001708745956421,0.7993063926696777
1630679060958,1.2714577913284302,1.259410738945007,0.7662956714630127,0.8443071246147156
1630679061061,1.3154224157333374,1.3105040788650513,0.9300280213356018,0.9389254450798036
1630679061340,1.2505626678466797,1.2395459413528442,0.9499488472938538,0.9338687658309937
1630679061461,1.2329288721084597,1.219577670097351,0.9207126498222352,0.9271485805511476
1630679061508,1.232464075088501,1.420642375946045,0.9221652150154114,0.9209691882133484
1630679061665,1.2535544633865356,1.437713861465454,0.9217832684516908,0.953154683113098
1630679061712,1.2490487098693848,1.437785506248474,0.9201495051383972,0.9876538515090942
1630679061728,1.2265558242797852,1.4252504110336304,0.8828229308128357,0.8391884565353394
1630679061757,1.246102809906006,1.425002932548523,0.937796413898468,0.9462995529174804
1630679061901,1.2606561183929443,1.425983190536499,0.9382174015045166,0.9106730222702026
1630679061928,1.256196141242981,1.3377724885940552,0.9780450463294984,0.9408409595489502
1630679062028,1.0735865831375122,1.306612253189087,0.9254297614097596,0.9093038439750672
1630679062119,1.071976900100708,1.2775037288665771,0.9260069727897644,0.9231780767440796
1630679062222,1.1007171869277954,1.2805769443511963,0.9622079133987428,0.892484724521637
1630679062269,1.1038076877593994,1.281630277633667,0.9618707299232484,0.8854550719261169
1630679062425,1.0794312953948977,1.2640763521194458,0.920805275440216,0.8313586115837097
1630679062519,0.9747679829597472,1.2239649295806885,0.753086268901825,0.6969912648200989
1630679062688,0.960722029209137,1.224957823753357,0.6872032284736633,0.7746829390525818
1630679062813,0.985706865787506,1.257706880569458,0.7084589600563049,0.7894332408905029
1630679062844,1.011690974235535,0.9105454087257384,0.7340907454490662,0.8641927242279053
1630679063000,0.9314379096031188,0.7789405584335327,0.765535831451416,0.8519870638847351
1630679063047,0.9323319792747498,0.8192954063415527,0.8024252653121948,0.8410589098930359
1630679063125,0.8612603545188904,0.7166385650634766,0.7107591032981873,0.8285155296325684
1630679063188,0.7891591787338257,0.7663673162460327,0.5723281502723694,0.7706700563430786
1630679063234,0.7260177731513977,0.6737884879112244,0.6188588738441467,0.785309910774231
1630679063362,0.6474869847297668,0.4839104413986206,0.4296464920043945,0.7396052479743958
1630679063521,0.6560282707214355,0.5613445043563843,0.487408846616745,0.7598105669021606
1630679063636,0.6604474186897278,0.5613445043563843,0.5630903840065002,0.7181498408317566
1630679063699,0.5553030371665955,0.5613445043563843,0.5630903840065002,0.7574183940887451
1630679063808,0.5509746074676514,0.5613445043563843,0.5630903840065002,0.794393002986908
1630679063808,0.5432773232460022,0.5613445043563843,0.5630903840065002,0.8188841938972473
1630679063902,0.5345922708511353,0.5613445043563843,0.5630903840065002,0.8292322754859924
1630679063917,0.4127593636512756,0.5613445043563843,0.5630903840065002,0.7586621046066284
1630679064120,0.3888841867446899,-0.0579063259065151,0.5630903840065002,0.6524061560630798
1630679064120,0.400159627199173,0.5613445043563843,0.5630903840065002,0.753401517868042
1630679064261,0.3817765116691589,-0.0125073194503784,0.2136220782995224,0.6465213894844055
1630679064324,0.3780941069126129,0.0245295092463493,0.1864237785339355,0.6451824307441711
1630679064448,0.3680030107498169,0.0448468886315822,0.1527699381113052,0.6487314105033875
1630679064558,0.3540915250778198,0.0483957640826702,0.1243879795074462,0.64296555519104
1630679064669,0.3428795039653778,0.0410287678241729,0.1098725423216819,0.6377848386764526
1630679064872,0.3386294543743133,0.0296930540353059,0.1123435273766517,0.6380313634872437
1630679064935,0.3418075740337372,0.0193578191101551,0.1271779090166092,0.6417653560638428
1630679065044,0.3497242331504822,0.0143178440630435,0.1428077816963195,0.6430833339691162
1630679065200,0.3590326905250549,0.0167233757674694,0.1495177149772644,0.624975323677063
1630679065248,0.3665499687194824,0.0241060834378004,0.1458145976066589,0.6026618480682373
1630679065461,0.3727253079414367,0.0308445524424314,0.1373989135026931,0.5894423127174377
1630679065649,0.3788413405418396,0.0394038558006286,0.1301591098308563,0.5893037915229797
1630679065758,0.3853030800819397,0.0395647287368774,0.1195610985159874,0.5946875810623169
1630679065933,0.3893256187438965,0.031377624720335,0.1056511849164962,0.596537172794342
1630679066011,0.3887075185775757,0.0312251336872577,0.0944501906633377,0.5913731455802917
1630679066136,0.534421980381012,0.0223420821130275,0.0867911726236343,0.5804367661476135
1630679066339,0.53061842918396,0.0070253973826766,0.0892206281423568,0.5674702525138855
1630679066482,0.5254440903663635,-0.0176705755293369,0.1171329095959663,0.6278590559959412
1630679066623,0.5242323279380798,-0.0170943457633256,0.1290579289197921,0.6243880391120911
1630679066717,0.5215281248092651,-0.0089558903127908,0.1287364810705185,0.7231017351150513
1630679066889,0.5147857069969177,0.0026561787817627,0.1098712980747222,0.7119780778884888
1630679066998,0.5023077726364136,0.0101676182821393,0.0752194672822952,0.805178701877594
1630679067093,0.4839362502098083,0.0029418561607599,0.0378552973270416,0.8014393448829651
1630679067248,0.4617782235145569,-0.0285758432000875,0.0429613552987575,0.8036842346191406
1630679067467,0.5413519740104675,-0.0285758432000875,0.769330620765686,0.9032622575759888
1630679067475,0.5341887474060059,-0.0285758432000875,0.5169243812561035,0.8252580165863037
1630679067480,0.547627329826355,-0.0285758432000875,0.5126082897186279,0.8117610812187195
1630679067610,0.5556560754776001,-0.0285758432000875,0.7654910087585449,0.91488116979599
1630679067610,0.5756828784942627,-0.0285758432000875,0.7085660696029663,0.93523770570755
1630679067673,0.3983657360076904,-0.0285758432000875,0.6613259315490723,0.9578873515129088
1630679067673,0.5083566308021545,-0.0285758432000875,0.7216460108757019,0.9821350574493408
1630679067688,0.6130675673484802,-0.0285758432000875,0.6827688813209534,0.9669821858406068
1630679067735,0.6066558361053467,1.1511468887329102,0.6470114588737488,0.994556725025177
1630679067782,0.6049785017967224,1.0571783781051636,0.6141794919967651,0.991598904132843
1630679068016,0.7014054656028748,1.068691611289978,0.6823986172676086,0.9573631882667542
1630679068204,0.7078008055686951,1.005245327949524,0.6550613045692444,0.9591829180717468
1630679068266,0.7788174748420715,1.0104446411132812,0.6968947649002075,0.8548627495765686
1630679068438,0.7815539836883545,0.9638242125511168,0.7612269520759583,0.8823502063751221
1630679068579,0.8606797456741333,0.9965813159942628,0.8330234289169312,0.9089179039001464
1630679068766,0.799228847026825,0.959546148777008,0.7756422162055969,0.9299089908599854
1630679068829,0.8028271794319153,0.959546148777008,0.7762998938560486,0.9998229742050172
1630679069063,0.8049614429473877,0.959546148777008,0.7177250981330872,0.8545577526092529
1630679069126,0.7884670495986938,0.959546148777008,0.7210692763328552,0.8217186331748962
1630679069251,0.8273775577545166,0.959546148777008,0.7854271531105042,0.8217186331748962
1630679069329,0.832726001739502,0.9974693059921264,0.7859674692153931,0.8217186331748962
1630679069469,0.8853759765625,0.7907528877258301,0.7367609143257141,0.8217186331748962
1630679069469,0.8455447554588318,0.7395547032356262,0.7373064756393433,0.7754049897193909
1630679069500,0.8483107089996338,0.7940447330474854,0.7380509376525879,0.7754049897193909
1630679069579,0.8473098278045654,0.795000433921814,0.7385148406028748,0.8091259002685547
1630679069672,0.7927020192146301,0.643856942653656,0.6663269400596619,0.7276102304458618
1630679069688,0.7873963713645935,0.6410858035087585,0.666354775428772,0.8972876071929932
1630679069906,0.8156099319458008,0.8693256974220276,0.5414031744003296,0.9204927682876588
1630679069906,0.8166754245758057,0.8107052445411682,0.6187959909439087,0.8953016400337219
1630679070000,0.7482426762580872,0.7481978535652161,0.3730389475822449,0.9104837775230408
1630679070062,0.7701824903488159,0.8293060064315796,0.3905471563339233,0.8726840615272522
1630679070203,0.7903615236282349,0.8293060064315796,0.4094812273979187,0.7594814896583557
1630679070359,0.7869085669517517,0.8293060064315796,0.3538931906223297,0.7464768886566162
1630679070562,0.8062683939933777,0.8293060064315796,0.3747879564762115,0.8362892270088196
1630679070644,0.722229540348053,0.8293060064315796,-0.1015768498182296,0.8069575428962708
1630679070769,0.7177916169166565,0.7404527068138123,-0.1221198588609695,0.8069575428962708
1630679070847,0.6352198123931885,0.823065996170044,-0.1412269324064254,0.8069575428962708
1630679070878,0.7310358881950378,0.8770695924758911,-0.1624099910259246,0.8440571427345276
1630679070910,0.7321045994758606,0.9410434365272522,-0.1259675770998001,0.8440571427345276
1630679071003,0.7549239993095398,0.94600111246109,-0.0529185086488723,0.8440571427345276
1630679071003,0.7408488988876343,0.9436362981796264,-0.0851390957832336,0.8440571427345276
1630679071113,0.7691918611526489,0.9475162029266356,-0.0208411999046802,0.7154677510261536
1630679071316,0.6483790874481201,0.7563650608062744,0.0076282075606286,0.7052262425422668
1630679071347,0.6551969051361084,0.7097894549369812,0.0461459830403327,0.6095589995384216
1630679071472,0.6548225283622742,0.6696123480796814,0.0755484923720359,0.5476453900337219
1630679071566,0.6290988922119141,0.635145366191864,0.0884721428155899,0.546024739742279
1630679071662,0.6872190833091736,0.6948291063308716,0.3792634010314941,0.5475731492042542
1630679071833,0.6716354489326477,0.6660599708557129,0.3524190485477447,0.552340030670166
1630679071833,0.7137575745582581,0.7023837566375732,0.4870571494102478,0.3456686437129974
1630679071958,0.7740079164505005,0.7443353533744812,0.4609201550483703,0.3410779535770416
1630679072240,0.8426873087882996,0.823458194732666,0.4393098950386047,0.3410779535770416
1630679072396,0.788313627243042,0.7689823508262634,0.4219496846199035,0.3850162029266357
1630679072583,0.7219125032424927,0.7042560577392578,0.4078491032123565,0.4049446284770965
1630679072666,0.7165406346321106,0.6233754754066467,0.4262197315692901,0.4099748134613037
1630679072823,0.7712197303771973,0.6776155829429626,0.4714266359806061,0.5552685856819153
1630679072823,0.7738631963729858,0.6488691568374634,0.4473020732402801,0.565073549747467
1630679072995,0.9950575232505798,0.7482666969299316,0.5221422910690308,0.5629410743713379
1630679072995,0.8451741933822632,0.7106677889823914,0.49709153175354,0.5589555501937866
1630679072995,1.0265154838562012,0.7902577519416809,0.546718418598175,0.7556016445159912
1630679073088,1.0297424793243408,0.8367185592651367,0.574543833732605,0.7594732642173767
1630679073244,1.0315994024276731,0.8887302279472351,0.6106277704238892,0.7655178308486938
1630679073572,1.0008134841918943,0.9180851578712464,0.5011469125747681,0.7737616300582886
1630679073572,1.0026437044143677,0.8474802374839783,0.4474822580814361,0.7716861963272095
1630679073635,0.9950503706932068,0.8908295035362244,0.028713721781969,0.7522653341293335
1630679073729,0.9811260104179382,0.8908295035362244,0.4645470678806305,0.7522653341293335
1630679073846,0.9509856104850768,0.8908295035362244,0.5284535884857178,0.7522653341293335
1630679073908,1.0625122785568235,0.8908295035362244,1.0931675434112549,0.800281286239624
1630679073908,0.983838140964508,0.8908295035362244,0.916554033756256,0.7623376250267029
1630679073924,1.02131986618042,0.8908295035362244,1.0931675434112549,0.7779751420021057
1630679074049,1.0962377786636353,0.8908295035362244,1.0931675434112549,0.75722336769104
1630679074049,1.0519412755966189,0.8908295035362244,1.0931675434112549,0.7308825850486755
1630679074174,1.0515755414962769,0.8908295035362244,1.0073273181915283,0.7784279584884644
1630679074252,0.6336868405342102,0.8908295035362244,1.009119987487793,0.8435006737709045
1630679074315,0.3202114105224609,0.8908295035362244,0.9474430680274964,0.5818249583244324
1630679074377,0.3202114105224609,0.4742540717124939,0.8942391872406006,0.57472825050354
1630679074486,0.3202114105224609,0.4032562673091888,0.8482664227485657,0.5728008151054382
1630679074611,0.3202114105224609,1.3879985809326172,0.8863118290901184,1.490323781967163
1630679074770,0.3202114105224609,1.4049302339553833,0.9893919825553894,1.5736348628997805
1630679074833,0.9614009261131288,1.348710536956787,0.9900057315826416,1.5900474786758425
1630679075005,0.8918302655220032,1.299153208732605,0.9502508640289308,1.5450801849365234
1630679075192,0.8373044729232788,1.2550387382507324,0.9151283502578736,1.505329728126526
1630679075223,0.7897005677223206,1.2153799533843994,0.8160851001739502,1.4912233352661133
1630679075239,0.7460952997207642,1.1792932748794556,0.7089245915412903,1.458086609840393
1630679075411,0.7065858840942383,1.1460232734680176,0.6803361177444458,1.427297592163086
1630679075458,0.6727365255355835,1.1151890754699707,0.6545068621635437,1.3984158039093018
1630679075553,0.6470643877983093,1.086761236190796,0.6311776041984558,1.3713783025741575
1630679075631,0.63021320104599,1.0874669551849363,0.6299195289611816,1.3679494857788086
1630679075788,0.6191971898078918,1.0642741918563845,0.5622447729110718,1.35767662525177
1630679075850,0.60887211561203,1.0659774541854858,0.5656673908233643,1.3587886095046997
1630679076006,0.59590083360672,1.0671995878219604,0.5696853399276733,1.3588413000106812
1630679076147,0.5924447774887085,1.0680571794509888,0.5749297738075256,1.3578965663909912
1630679076319,0.2861499786376953,-0.0705140903592109,0.0328515283763408,0.6694926023483276
1630679076319,0.5861672759056091,0.4544095993041992,0.4733032286167145,0.9149309396743774
1630679076444,0.2778368890285492,-0.051325038075447,0.0609735585749149,0.5895209312438965
1630679076540,0.2756856977939605,-0.0293275844305753,0.0917150825262069,0.5714936256408691
1630679076696,0.286504179239273,0.0088863624259829,0.1665275394916534,0.3704071342945099
1630679076696,0.2796594500541687,-0.008461982011795,0.127844363451004,0.5539294481277466
1630679076775,0.2916031181812286,0.0243413969874382,0.2018238753080368,0.3547421991825104
1630679076915,0.2934833467006683,0.0422976166009902,0.2304712980985641,0.348922461271286
1630679076978,0.2943048775196075,0.062186561524868,0.2522470653057098,0.3534601032733917
1630679077103,0.2953443229198456,0.0774828940629959,0.2689945101737976,0.3657442927360534
1630679077243,0.2961823642253876,0.0839846134185791,0.2823043763637543,0.383328765630722
1630679077274,0.2957576513290405,0.0850926041603088,0.2922631502151489,0.4046913385391235
1630679077337,0.2948885858058929,0.0875806286931037,0.2987589538097381,0.4258844554424286
1630679077637,0.2966772615909576,0.093220368027687,0.3020058274269104,0.4423446357250213
1630679077683,0.304194837808609,0.0984434783458709,0.3013676404953003,0.4517442882061004
1630679077855,0.3180073797702789,0.1005889102816581,0.2974886298179626,0.4549516141414642
1630679077933,0.3355231583118438,0.0992272272706031,0.2922186553478241,0.4539562165737152
1630679078089,0.3517709374427795,0.0980763882398605,0.2919932603836059,0.4508689641952514
1630679078152,0.3619480729103088,0.0955034345388412,0.2911004424095154,0.4480991959571838
1630679078324,0.3650355637073517,0.0919042527675628,0.2863264381885528,0.5828970074653625
1630679078418,0.3650581538677215,0.0892264768481254,0.2747578024864197,0.5856862664222717
1630679078670,0.3719933331012726,0.0879594832658767,0.2573487162590027,0.588782548904419
1630679078779,0.3861746788024902,0.0852216854691505,0.2383100986480713,0.5898309350013733
1630679078889,0.4134013652801513,0.0762142688035965,0.208882138133049,0.6974141001701355
1630679078889,0.402296781539917,0.079624094069004,0.2223996520042419,0.5882660150527954
1630679079014,0.4154572188854217,0.0805666521191597,0.1932202577590942,0.6918798089027405
1630679079170,0.4217535257339477,0.1018613874912262,0.167310282588005,0.7430542707443237
1630679079170,0.4232674539089203,0.0913583934307098,0.1763309687376022,0.7486656308174133
1630679079217,0.4268434643745422,0.1018613874912262,0.167310282588005,0.7390690445899963
1630679079263,0.4379145205020904,0.1018613874912262,0.167310282588005,0.7367392182350159
1630679079326,0.4505458772182464,0.1018613874912262,0.167310282588005,0.7359619140625
1630679079451,0.45872363448143,0.1018613874912262,0.167310282588005,0.7368302941322327
1630679079482,0.4110252857208252,0.1018613874912262,0.167310282588005,0.7405348420143127
1630679079498,0.4577310979366302,0.1018613874912262,0.167310282588005,0.7388772368431091
1630679079658,0.5203433632850647,0.1018613874912262,0.167310282588005,0.6774973273277283
1630679079798,0.4826367795467376,0.1018613874912262,0.4771238565444946,0.6763031482696533
1630679079939,0.4215677380561828,1.1519007682800293,0.4174882173538208,0.7410552501678467
1630679080001,0.6884521842002869,1.1712433099746704,0.3658544421195984,0.8128368258476257
1630679080095,0.6469666957855225,1.192451238632202,0.321666806936264,0.8139029741287231
1630679080142,0.6209531426429749,1.1324621438980105,0.2844932079315185,0.728469967842102
1630679080314,0.6034122109413147,1.0807126760482788,0.2526959776878357,0.7236642837524414
1630679080361,0.5932249426841736,1.0357239246368408,0.225041776895523,0.7045932412147522
1630679080517,0.6908262372016907,1.04803729057312,0.4265496134757995,0.7586596012115479
1630679080629,0.662710428237915,1.0124826431274414,0.4012797474861145,0.7529275417327881
1630679080941,0.6395250558853149,0.9801509976387024,0.380483865737915,0.7495352625846863
1630679081097,0.6266520023345947,0.950252652168274,0.362537145614624,0.7494031190872192
1630679081332,0.625100314617157,0.9224611520767212,0.3408489227294922,0.7520732879638672
1630679081522,0.6286213994026184,0.8965254426002502,0.323480874300003,0.7556361556053162
1630679081616,0.7413540482521057,0.9559944868087769,0.4970182478427887,0.7582930326461792
1630679081663,0.890974223613739,1.0358381271362305,0.7173934578895569,0.810746967792511
1630679081694,0.9313478469848632,0.9701798558235168,0.7624896168708801,0.8715815544128418
1630679081709,0.8945906162261963,1.0622191429138184,0.7135125398635864,0.8103020191192627
1630679081756,0.8797058463096619,0.9109065532684326,0.7610445022583008,0.8244320750236511
1630679081756,0.9028632640838624,0.8780934810638428,0.8101863265037537,0.8410210609436035
1630679081881,0.9257441163063048,0.8737421035766602,0.8086776733398438,0.8618940114974976
1630679081897,0.949713170528412,0.9316651821136476,0.8074294328689575,0.8876148462295532
1630679082037,0.9772875905036926,0.929045021533966,0.8067074418067932,0.8702659606933594
1630679082209,0.9571235179901124,0.8780081272125244,0.7493019700050354,0.8354547619819641
1630679082303,0.9955167174339294,0.9803616404533386,0.8764910697937012,0.8699028491973877
1630679082334,1.038150668144226,1.0165733098983765,0.8779067397117615,0.9091001152992249
1630679082430,1.0824812650680542,1.0757259130477903,0.880212128162384,0.9529761075973512
1630679082454,1.128286361694336,1.075955152511597,0.8826236724853516,1.0023179054260254
1630679082579,1.1811919212341309,1.104020118713379,0.9242360591888428,1.0612249374389648
1630679082626,1.1392087936401367,1.0927578210830688,0.9108468890190125,1.1375569105148315
1630679082782,1.1392087936401367,0.9857655167579652,0.7594913244247437,1.1375569105148315
1630679082813,1.1392087936401367,0.9475297331809998,0.7623443007469177,1.1375569105148315
1630679082907,1.1392087936401367,0.9196376204490662,0.7147452235221863,1.1375569105148315
1630679083094,1.1392087936401367,0.9188941717147828,0.7193934321403503,1.1375569105148315
1630679083126,0.0384912826120853,0.8809629082679749,0.6633951663970947,1.1375569105148315
1630679083173,0.5558189153671265,0.9263713359832764,0.6730496883392334,0.297963410615921
1630679083204,0.5120013356208801,0.870039165019989,0.6840242147445679,0.3304760158061981
1630679083438,0.485077291727066,0.8717755675315857,0.6946023106575012,0.36585533618927
1630679083550,0.6531864404678345,0.9174239635467528,0.765972912311554,0.6263078451156616
1630679083660,0.6365139484405518,0.804900586605072,0.6006432771682739,0.6218517422676086
1630679083707,0.6245293617248535,0.7475548386573792,0.601249635219574,0.6218517422676086
1630679083722,0.6245293617248535,0.6199069619178772,0.5977630615234375,0.6218517422676086
1630679083754,0.6245293617248535,0.6193256974220276,0.5937464833259583,0.6218517422676086
1630679083894,0.6245293617248535,0.5358906984329224,0.5016703605651855,0.6218517422676086
1630679083894,0.6245293617248535,0.4167792797088623,0.3695246875286102,0.6218517422676086
1630679084097,0.6564527750015259,0.4258785843849182,0.3739394545555115,0.6218517422676086
1630679084097,0.6245293617248535,0.4207497537136078,0.3720223605632782,0.6218517422676086
1630679084128,0.6971989870071411,0.4324905276298523,0.3760077953338623,0.657439649105072
1630679084332,0.7072339057922363,0.4401705265045166,0.3793000876903534,0.6607822775840759
1630679084425,0.7132608890533447,0.447201132774353,0.3822390437126159,0.6657182574272156
1630679084457,0.564238965511322,0.3022131025791168,0.3814896643161773,0.6740047931671143
1630679084662,0.5632301568984985,0.3024243116378784,0.3750188648700714,0.6826307773590088
1630679084678,0.5530877709388733,0.2986918687820434,0.3638258874416351,0.6853929162025452
1630679084896,0.2700063586235046,0.0687653943896293,0.1639071702957153,0.4846502244472503
1630679084990,0.2016254365444183,0.0632426589727401,0.1477843821048736,0.463880330324173
1630679085037,0.1206593364477157,0.0646421611309051,0.1377533078193664,0.4667829573154449
1630679085193,0.1223915144801139,0.0736017525196075,0.1345762610435485,0.4748239815235138
1630679085443,0.1401581168174743,0.0864850878715515,0.1353068351745605,0.4818256199359894
1630679085553,0.1686450690031051,0.0973470211029052,0.1362700760364532,0.4826112985610962
1630679085589,0.199231281876564,0.103956252336502,0.1351897120475769,0.4773124754428863
1630679085995,0.2261000722646713,0.1083089411258697,0.1311043053865432,0.4711544513702392
1630679086120,0.248545691370964,0.1138750985264778,0.1235333532094955,0.4688871800899505
1630679086120,0.2699605226516723,0.1208035349845886,0.1115588396787643,0.470043271780014
1630679086386,0.293622076511383,0.1276129782199859,0.0941107869148254,0.4795784652233124
1630679086448,0.3217096030712127,0.1348402798175811,0.0723763331770896,0.4842569231986999
1630679086480,0.4606941938400268,0.3072722256183624,0.2383645474910736,0.5607241988182068
1630679086495,0.4774449467658996,0.3172052800655365,0.2277397662401199,0.5920094847679138
1630679086624,0.4913873076438904,0.335212767124176,0.2328929305076599,0.5890273451805115
1630679086686,0.5041534900665283,0.3542074561119079,0.2436109781265258,0.5881980657577515
1630679086733,0.5160192251205444,0.3727709054946899,0.2586731612682342,0.5882703065872192
1630679086764,0.5371841788291931,0.3904185891151428,0.2769008576869964,0.5851696133613586
1630679086842,0.5568746328353882,0.4067397117614746,0.2965963184833526,0.5774718523025513
1630679087077,0.5738638043403625,0.4222184419631958,0.317025750875473,0.5692522525787354
1630679087201,0.5877314805984497,0.4397208392620086,0.3389762938022613,0.5655221939086914
1630679087295,0.599953293800354,0.463636189699173,0.3651408553123474,0.5745486617088318
1630679087436,0.6129217147827148,0.4971037209033966,0.3995155990123749,0.5859862565994263
1630679087545,0.6281185150146484,0.5411437153816223,0.4471826255321502,0.5962968468666077
1630679087642,0.6443365812301636,0.5983092784881592,0.5135056376457214,0.6050687432289124
1630679087674,0.6597318649291992,0.5983092784881592,0.5135056376457214,0.6151714324951172
1630679087799,0.4097096621990204,0.5983092784881592,0.5135056376457214,0.5206373929977417
1630679087799,0.6765767335891724,0.5983092784881592,0.5135056376457214,0.6290547251701355
1630679088064,0.4097096621990204,0.5983092784881592,0.5135056376457214,0.4344289302825928
1630679088267,0.4097096621990204,0.5983092784881592,0.5135056376457214,0.389563500881195
1630679088564,0.4097096621990204,0.5983092784881592,0.5135056376457214,0.3403324782848358
1630679088675,0.4097096621990204,0.5983092784881592,0.5135056376457214,0.2904728949069977
1630679088893,0.4097096621990204,0.6232316493988037,0.5135056376457214,0.2492445856332779
1630679088893,0.2338972091674804,1.021036982536316,0.1071677803993225,0.5335683822631836
1630679088940,0.2338972091674804,1.573127269744873,0.6476125717163086,1.194026231765747
1630679088956,0.2338972091674804,1.573127269744873,0.7014973759651184,1.1898000240325928
1630679088956,0.2338972091674804,1.573127269744873,0.7601792216300964,1.2382781505584717
1630679089097,0.2338972091674804,1.573127269744873,0.6519339084625244,1.1596968173980713
1630679089222,0.2338972091674804,1.50719952583313,0.610478937625885,1.1205544471740725
1630679089300,0.2338972091674804,1.4722875356674194,0.6933228373527527,1.1215190887451172
1630679089362,0.1986643224954605,1.4218003749847412,0.6624879837036133,1.0911836624145508
1630679089440,0.518855094909668,1.413158893585205,0.6347575187683105,1.0634628534317017
1630679089456,0.518855094909668,1.413158893585205,0.6078939437866211,1.0368256568908691
1630679089596,0.518855094909668,1.413158893585205,0.5818864107131958,1.0368256568908691
1630679089596,0.518855094909668,1.456314206123352,0.5579214096069336,1.0656459331512451
1630679089596,0.5444591045379639,1.5055760145187378,0.6712155938148499,1.09703528881073
1630679089755,0.5497177243232727,1.5621854066848757,0.6681596040725708,1.1448683738708496
1630679089880,0.8454111814498901,1.5612547397613523,0.6657705307006836,1.176933765411377
1630679090021,0.8455857634544373,1.4972102642059326,0.6649308800697327,1.1477181911468506
1630679090021,0.830265462398529,0.8753179311752319,0.5828980803489685,0.8594965934753418
1630679090208,0.7880266904830933,0.8753179311752319,0.4890741407871246,0.7963718771934509
1630679090349,0.7622824311256409,0.8753179311752319,0.4950584769248962,0.8599545359611511
1630679090349,0.7439635992050171,0.8753179311752319,0.5018700361251831,0.8447986841201782
1630679090428,0.724494218826294,0.8842092156410217,0.5078074336051941,0.8485527038574219
1630679090494,0.7885421514511108,0.8966817855834961,0.3929169774055481,0.8518269658088684
1630679090556,0.8197084665298462,0.995061218738556,0.440020889043808,0.8945730328559875
1630679090650,0.7547225952148438,0.8490949273109436,0.4409277737140655,0.8988810181617737
1630679090837,0.7317619919776917,0.8029442429542542,0.4438349306583404,0.9067907333374025
1630679090931,0.7136325240135193,0.7622665166854858,0.4483017325401306,0.8869073390960693
1630679090947,0.6975631713867188,0.7253326177597046,0.4524096548557281,0.8661087155342102
1630679090994,0.6809410452842712,0.6913835406303406,0.2405672967433929,0.8445563316345215
1630679091322,0.6802421808242798,0.6607928276062012,0.2444538474082946,0.7678484916687012
1630679091573,0.5631861090660095,0.557070255279541,0.2494802474975586,0.7009549736976624
1630679091824,0.5668903589248657,0.564422607421875,0.2565936744213104,0.6984853148460388
1630679091886,0.5451555848121643,0.5356457829475403,0.194532886147499,0.6716632843017578
1630679091995,0.5576501488685608,0.6637989282608032,0.2022671848535537,0.7349123358726501
1630679092089,0.5700887441635132,0.7842079997062683,0.282265305519104,0.6528386473655701
1630679092105,0.5694512724876404,0.6450099945068359,0.2066944390535354,0.6600509881973267
1630679092120,0.5754634737968445,1.1502902507781982,0.6131820678710938,0.6648964285850525
1630679092152,0.4566131830215454,1.1232168674468994,0.613048791885376,0.5898197889328003
1630679092277,0.5811427235603333,1.1280122995376587,0.6877789497375488,0.5142375826835632
1630679092355,0.577466607093811,1.1262309551239014,0.6860387921333313,0.5168876051902771
1630679092448,0.5678050518035889,1.124232053756714,0.6837993860244751,0.5067995190620422
1630679092576,0.5541065335273743,1.1222829818725586,0.6823878884315491,0.4927224814891815
1630679092685,0.5427542328834534,1.1207658052444458,0.6825207471847534,0.4855735599994659
1630679092779,0.5388931035995483,1.1198276281356812,0.6832303404808044,0.4886745512485504
1630679092779,0.54106605052948,1.3655426502227783,0.6830657720565796,0.6480216979980469
1630679092810,0.7927441596984863,1.4050863981246948,0.7056998014450073,0.6524040102958679
1630679092842,0.8561201691627502,1.417884349822998,0.7292866110801697,0.675973117351532
1630679092904,0.8497239351272583,1.4164822101593018,0.7542811036109924,0.7034335732460022
1630679093048,0.8380447626113892,1.3958001136779783,0.7526928186416626,0.6123889088630676
1630679093235,0.823447048664093,1.3943432569503784,0.7532030940055847,0.6144787669181824
1630679093344,0.8038800358772278,1.3595141172409058,0.7242841124534607,0.611709713935852
1630679093391,0.7899684309959412,1.170056939125061,0.4074921607971191,0.5899611115455627
1630679093454,0.7899684309959412,1.170602321624756,0.4026166796684265,0.5899611115455627
1630679093629,0.7238871455192566,1.140113115310669,0.0752883031964302,0.5899611115455627
1630679093691,0.749492347240448,1.1421159505844116,0.0822172984480857,0.5935682058334351
1630679093738,0.7796496152877808,1.1441282033920288,0.0947888270020484,0.6091565489768982
1630679093816,0.8134427070617676,1.1457366943359375,0.1060105711221695,0.6375189423561096
1630679093863,0.8495328426361084,1.1749223470687866,0.1106939911842346,0.6740901470184326
1630679093878,0.8881837129592896,1.2060878276824951,0.1133190095424652,0.7169244289398193
1630679094082,0.9322161674499512,0.6816754341125488,0.1249448433518409,0.2978917360305786
1630679094113,0.6280077695846558,0.327464610338211,0.1249448433518409,0.2978917360305786
1630679094238,0.3700896203517914,0.0214488506317138,0.1249448433518409,0.2978917360305786
1630679094331,0.4037120938301086,0.0437699630856514,0.1249448433518409,0.2978917360305786
1630679094425,0.4037120938301086,0.0702555850148201,0.1240269094705581,0.2978917360305786
1630679094535,0.4037120938301086,0.0982254296541214,0.0988665521144867,0.2978917360305786
1630679094662,0.4037120938301086,0.0935263559222221,0.0091210361570119,0.2978917360305786
1630679094740,0.4037120938301086,0.0717216432094574,-0.0613936483860015,0.2978917360305786
1630679094865,0.4037120938301086,0.0280178971588611,-0.1037636026740074,0.2978917360305786
1630679094993,0.4037120938301086,-0.0373866371810436,-0.1343221664428711,0.2978917360305786
1630679095196,0.4037120938301086,-0.2004093825817108,-0.1090492606163024,0.2978917360305786
1630679095196,0.4037120938301086,-0.1193273663520813,-0.1246560513973236,0.2978917360305786
1630679095352,0.4037120938301086,-0.2581285834312439,-0.0925676971673965,0.2978917360305786
1630679095368,0.4037120938301086,-0.2486033588647842,-0.0810078904032707,0.2978917360305786
1630679095555,0.4037120938301086,-0.22576205432415,-0.073388285934925,0.2978917360305786
1630679095555,0.4037120938301086,-0.2367066293954849,-0.0750424712896347,0.2978917360305786
1630679095790,0.4037120938301086,-0.2162210345268249,-0.0729591995477676,0.2978917360305786
1630679095961,0.4037120938301086,-0.208925649523735,-0.0706295743584632,0.2978917360305786
1630679096181,0.4037120938301086,-0.205940306186676,-0.0658202916383743,0.2978917360305786
1630679096321,0.4037120938301086,-0.2091381847858429,-0.060636255890131,0.2978917360305786
1630679096337,0.4037120938301086,-0.2153869420289993,-0.0574576407670974,0.2933729887008667
1630679096478,0.1180313527584075,-0.2226978540420532,-0.0523303337395191,0.323887437582016
1630679096556,0.168769970536232,-0.2172523736953735,-0.0522550828754901,0.3753069043159485
1630679096651,0.2107440829277038,-0.1981046348810196,-0.0536812432110309,0.4212006628513336
1630679096995,0.2263661324977874,-0.1704363971948623,-0.0541655793786048,0.4476199150085449
1630679097042,0.2179860174655914,-0.139646977186203,-0.0543627254664897,0.4544904232025146
1630679097089,0.1999454498291015,-0.1112193390727043,-0.0566171146929264,0.4480729699134826
1630679097214,0.1893073469400406,-0.0864437595009803,-0.0628392770886421,0.425516813993454
1630679097245,0.5761836171150208,0.420245349407196,0.4104976654052734,0.513702929019928
1630679097245,0.199187621474266,-0.0619429759681224,-0.0715235471725463,0.4092803001403808
1630679097308,0.5720690488815308,0.4286073744297027,0.408356100320816,0.5925294756889343
1630679097401,0.56499183177948,0.4341837167739868,0.4060231447219848,0.5782521367073059
1630679097433,0.5508727431297302,0.4360531270503998,0.401757001876831,0.5691919326782227
1630679097557,0.5463746190071106,0.4354070127010345,0.3949965536594391,0.5789348483085632
1630679097700,0.5419099926948547,0.4348799884319305,0.3791511654853821,0.5877455472946167
1630679097700,0.543220043182373,0.4345855414867401,0.3869397342205047,0.5870931148529053
1630679097888,0.5408238768577576,0.4358556568622589,0.3726080358028412,0.577870786190033
1630679098060,0.5383707284927368,0.4356591999530792,0.3670549690723419,0.5581148862838745
1630679098075,0.547975480556488,0.6175174117088318,0.5680945515632629,0.5330763459205627
1630679098185,0.5618510246276855,0.6135720610618591,0.5642754435539246,0.5098764896392822
1630679098310,0.5641634464263916,0.6082814931869507,0.5601651668548584,0.6279367208480835
1630679098310,0.5708520412445068,0.602739691734314,0.5564008951187134,0.6213411092758179
1630679098560,0.5803910493850708,0.5974113941192627,0.5536147356033325,0.6189984083175659
1630679098560,0.5900000929832458,0.5919496417045593,0.5517916679382324,0.6193593144416809
1630679098656,0.3073956966400146,0.3313741981983185,0.2579149305820465,0.5489959716796875
1630679098702,0.3098207712173462,0.3215599060058594,0.2568326294422149,0.456148087978363
1630679098765,0.3044038712978363,0.3140299916267395,0.2582873106002807,0.4492201209068298
1630679098890,0.2982262074947357,0.3093182146549225,0.2633299529552459,0.4383857250213623
1630679099077,0.2964209914207458,0.306539386510849,0.2707512378692627,0.4273571372032165
1630679099249,0.2983083724975586,0.3043243885040283,0.2777977287769317,0.4196312427520752
1630679099312,0.2997944355010986,0.3016948401927948,0.2828696072101593,0.4166381359100342
1630679099359,0.2990255951881408,0.2986254096031189,0.286567211151123,0.4178194403648376
1630679099515,0.2976209819316864,0.2963298559188843,0.2907299399375915,0.4217686355113983
1630679099738,0.2986270487308502,-0.2677517533302307,-0.2366690784692764,0.4270480573177337
1630679099816,0.301484078168869,-0.261444091796875,-0.2095074206590652,0.4330909550189972
1630679099988,0.3064510524272918,-0.2470717877149582,-0.1777225285768509,0.2094389647245407
1630679100050,0.3103682100772857,-0.2303602248430252,-0.1466351002454757,0.2122945934534073
1630679100191,0.3062312304973602,-0.2155421823263168,-0.1203329712152481,0.2136178910732269
1630679100394,0.2858571410179138,-0.2069428265094757,-0.0988773107528686,0.2135051935911178
1630679100472,0.2458656728267669,-0.2048959136009216,-0.0784866213798523,0.2144187837839126
1630679100582,0.1968177706003189,-0.2064992785453796,-0.0586587823927402,0.2184153497219085
1630679100632,0.161385104060173,0.1546069383621215,-0.053898099809885,0.2239447981119156
1630679100665,0.1575013250112533,0.1549459993839264,-0.0524144060909748,0.22719107568264
1630679100743,0.1818250566720962,0.3883827924728393,-0.0514497198164463,0.2269305139780044
1630679100743,0.2201308310031891,0.389396607875824,-0.0465273857116699,0.226891279220581
1630679100790,0.2622607946395874,0.3901052474975586,-0.0346689224243164,0.2326846420764923
1630679100899,0.2622607946395874,0.3898452818393707,-0.0164883881807327,0.2468765377998352
1630679100962,0.2622607946395874,0.3887472152709961,-0.0231095757335424,0.2468765377998352
1630679101024,0.2622607946395874,0.3879112303256988,-0.0352746732532978,0.2468765377998352
1630679101165,0.2622607946395874,0.3881277740001678,-0.0286818966269493,0.2468765377998352
1630679101243,0.2622607946395874,0.4090375602245331,-0.0326413139700889,0.2468765377998352
1630679101446,0.2622607946395874,0.4313943386077881,-0.0475822575390338,0.2468765377998352
1630679101571,0.2622607946395874,0.4557865560054779,-0.0702425464987754,0.2468765377998352
1630679101789,0.2622607946395874,0.4832659661769867,-0.1000632941722869,0.2468765377998352
1630679101993,0.2622607946395874,0.5145364999771118,-0.1000632941722869,0.2468765377998352
1630679102008,0.2622607946395874,0.5503268241882324,-0.1000632941722869,0.2468765377998352
1630679102196,0.2622607946395874,0.3790258765220642,-0.1000632941722869,0.2468765377998352
1630679102336,0.2622607946395874,0.4234160184860229,-0.1000632941722869,0.2468765377998352
1630679102555,0.2622607946395874,-0.3055356442928314,-0.1000632941722869,0.2468765377998352
1630679102555,0.2622607946395874,-0.3177682161331177,-0.1000632941722869,0.2468765377998352
1630679102711,0.2622607946395874,-0.2832626104354858,-0.1000632941722869,0.2468765377998352
1630679102758,0.2622607946395874,-0.2832626104354858,-0.1000632941722869,0.2468765377998352
1630679102774,0.2622607946395874,-0.2832626104354858,-0.1000632941722869,0.2468765377998352
1630679102852,0.2622607946395874,-0.2832626104354858,-0.1000632941722869,0.2468765377998352
