timestamp,TP9,AF7,AF8,TP10
1630678967001,1.1450847387313845,0.8451076745986938,0.6362918615341187,0.7452018857002258
1630678967126,1.1450847387313845,0.8451076745986938,0.6362918615341187,0.7452018857002258
1630678967329,1.1450847387313845,0.8451076745986938,0.6362918615341187,0.7452018857002258
1630678967329,1.1450847387313845,0.8451076745986938,0.6362918615341187,0.7452018857002258
1630678967423,1.1450847387313845,0.8451076745986938,0.6362918615341187,0.7452018857002258
1630678967501,1.1450847387313845,0.8451076745986938,0.6362918615341187,0.7452018857002258
1630678967628,1.1450847387313845,0.8451076745986938,0.6362918615341187,0.7452018857002258
1630678967690,1.1450847387313845,0.8451076745986938,0.6362918615341187,0.7452018857002258
1630678967815,1.1450847387313845,0.8451076745986938,0.6362918615341187,0.7452018857002258
1630678967956,1.1450847387313845,0.8451076745986938,0.6362918615341187,0.7452018857002258
1630678968034,1.1450847387313845,0.8451076745986938,0.5667139887809753,0.7452018857002258
1630678968190,1.1450847387313845,0.1803617775440216,0.5174717307090759,0.7452018857002258
1630678968221,1.1450847387313845,0.3259166479110718,0.4798517227172851,0.7452018857002258
1630678968362,1.1450847387313845,0.4312144219875335,0.4647128880023956,0.7452018857002258
1630678968440,1.1450847387313845,0.4955698847770691,0.4703841209411621,0.7452018857002258
1630678968596,1.1450847387313845,0.5218778252601624,0.4996709525585174,0.7452018857002258
1630678968643,1.1450847387313845,0.5177235007286072,0.5408310294151306,0.7452018857002258
1630678968724,1.1450847387313845,0.4916779994964599,0.5847746729850769,0.7452018857002258
1630678968833,1.1450847387313845,0.4561783075332641,0.6162888407707214,0.7452018857002258
1630678968911,1.1450847387313845,0.4209915697574615,0.6295186877250671,0.7452018857002258
1630678969114,1.1450847387313845,0.3907894194126129,0.6317390203475952,0.7452018857002258
1630678969192,1.1450847387313845,0.3664281368255615,0.6331655383110046,0.7452018857002258
1630678969349,1.1450847387313845,0.3499094843864441,0.6387681365013123,0.7452018857002258
1630678969380,1.1450847387313845,0.3625518679618835,0.6354290246963501,0.7452018857002258
1630678969446,1.1450847387313845,0.3714742064476013,0.6375612020492554,0.7452018857002258
1630678969540,1.1450847387313845,0.3858809769153595,0.6490640044212341,0.7452018857002258
1630678969665,1.1450847387313845,0.3784719705581665,0.6691737771034241,0.7452018857002258
1630678969743,1.1450847387313845,0.3474834859371185,0.6919425129890442,0.7452018857002258
1630678969899,1.1450847387313845,0.2887440323829651,0.7125116586685181,0.7452018857002258
1630678969946,1.1450847387313845,0.2044581174850464,0.7285152077674866,0.7452018857002258
1630678970040,1.1450847387313845,0.1112529709935188,0.7333890795707703,0.7452018857002258
1630678970259,1.1450847387313845,0.0404706597328186,0.7243819236755371,0.7452018857002258
1630678970321,1.1450847387313845,0.0264520309865474,0.697320282459259,0.7452018857002258
1630678970399,1.1450847387313845,0.0622376427054405,0.6619983911514282,0.7452018857002258
1630678970462,1.1450847387313845,0.118905559182167,0.6386198401451111,0.7452018857002258
1630678970556,1.1450847387313845,0.1793060600757599,0.6332083940505981,0.7452018857002258
1630678970712,1.1450847387313845,0.2414598762989044,0.6332083940505981,0.7452018857002258
1630678970837,1.1450847387313845,0.2414598762989044,0.6332083940505981,0.7452018857002258
1630678970899,1.1450847387313845,0.2414598762989044,0.6332083940505981,0.7452018857002258
1630678971040,1.1450847387313845,0.2414598762989044,0.6332083940505981,0.7452018857002258
1630678971134,1.1450847387313845,0.2414598762989044,0.6332083940505981,0.7452018857002258
1630678971212,1.1450847387313845,0.2414598762989044,0.6332083940505981,0.7452018857002258
1630678971446,1.1450847387313845,0.2414598762989044,0.6332083940505981,0.7452018857002258
1630678971527,1.1450847387313845,0.2414598762989044,0.6332083940505981,0.7452018857002258
1630678971744,1.1450847387313845,0.2414598762989044,0.6332083940505981,0.7452018857002258
1630678971744,1.1450847387313845,0.2414598762989044,0.6332083940505981,0.7452018857002258
1630678971884,1.1450847387313845,0.2414598762989044,0.6332083940505981,0.7452018857002258
1630678971884,1.1450847387313845,0.2414598762989044,0.6332083940505981,0.7452018857002258
1630678971947,1.1450847387313845,0.2414598762989044,0.6332083940505981,0.7452018857002258
1630678972072,1.1450847387313845,0.2414598762989044,0.6332083940505981,0.7452018857002258
1630678972150,1.1450847387313845,0.2414598762989044,0.6332083940505981,0.7452018857002258
1630678972244,1.1450847387313845,0.2414598762989044,0.6332083940505981,0.7452018857002258
1630678972306,1.1450847387313845,0.2414598762989044,0.6332083940505981,0.7452018857002258
1630678972369,1.1450847387313845,0.2414598762989044,0.6332083940505981,0.7452018857002258
1630678972463,1.1450847387313845,0.2414598762989044,0.6332083940505981,0.7452018857002258
1630678972622,1.1450847387313845,0.2414598762989044,0.6332083940505981,0.7452018857002258
1630678972716,1.1450847387313845,0.2414598762989044,0.6332083940505981,0.7452018857002258
1630678972841,1.1450847387313845,0.2414598762989044,0.6332083940505981,0.7452018857002258
1630678972919,1.1450847387313845,0.2414598762989044,0.6332083940505981,0.7452018857002258
1630678973028,1.1450847387313845,0.2414598762989044,0.6332083940505981,0.7452018857002258
1630678973122,1.1450847387313845,0.2414598762989044,0.6332083940505981,0.7452018857002258
1630678973169,1.1450847387313845,0.2414598762989044,0.6332083940505981,0.7452018857002258
1630678973388,1.1450847387313845,0.2414598762989044,0.6332083940505981,0.7452018857002258
1630678973450,1.1450847387313845,0.2414598762989044,0.6332083940505981,0.7452018857002258
1630678973497,0.808546245098114,0.4154573976993561,0.6332083940505981,0.7452018857002258
1630678973704,0.808546245098114,0.3535068035125732,0.6332083940505981,0.7452018857002258
1630678973782,0.808546245098114,0.3107093572616577,0.6332083940505981,0.7452018857002258
1630678973844,0.808546245098114,0.2848089933395386,0.6332083940505981,0.7452018857002258
1630678973985,0.808546245098114,0.2922872602939605,0.6332083940505981,0.7452018857002258
1630678974094,0.808546245098114,0.3369546830654144,0.6332083940505981,0.7452018857002258
1630678974204,0.808546245098114,0.4238092303276062,0.6332083940505981,0.7452018857002258
1630678974360,0.808546245098114,0.5182995200157166,0.6332083940505981,0.7452018857002258
1630678974407,0.808546245098114,0.5182995200157166,0.6332083940505981,0.7452018857002258
1630678974532,0.808546245098114,0.5182995200157166,0.6332083940505981,0.7452018857002258
1630678974629,0.808546245098114,0.5182995200157166,0.6332083940505981,0.7452018857002258
1630678974910,0.808546245098114,0.5182995200157166,0.6332083940505981,0.7452018857002258
1630678975098,0.808546245098114,0.517390787601471,0.6332083940505981,0.7452018857002258
1630678975238,0.808546245098114,0.5218334794044495,0.6332083940505981,0.7452018857002258
1630678975332,0.808546245098114,0.5364360213279724,0.6332083940505981,0.7452018857002258
1630678975441,0.808546245098114,0.5677065253257751,0.6332083940505981,0.7452018857002258
1630678975472,0.808546245098114,0.646174967288971,0.6332083940505981,0.7452018857002258
1630678975613,0.808546245098114,0.6990796327590942,0.6332083940505981,0.7452018857002258
1630678975693,0.808546245098114,0.7602910995483398,0.6332083940505981,0.7452018857002258
1630678975802,0.808546245098114,0.8227710723876953,0.6332083940505981,0.7452018857002258
1630678975818,0.808546245098114,1.000843167304993,0.6332083940505981,0.7452018857002258
1630678976005,0.808546245098114,1.1276050806045532,0.6332083940505981,0.7452018857002258
1630678976115,0.808546245098114,1.2115789651870728,0.6332083940505981,0.7452018857002258
1630678976256,0.808546245098114,1.2211626768112185,0.6332083940505981,0.7452018857002258
1630678976333,0.808546245098114,1.205912947654724,0.6332083940505981,0.7452018857002258
1630678976365,0.808546245098114,1.1706345081329346,0.6332083940505981,0.7452018857002258
1630678976411,0.808546245098114,1.1270068883895874,0.6332083940505981,0.7452018857002258
1630678976490,0.808546245098114,1.082894802093506,0.6332083940505981,0.7452018857002258
1630678976728,0.808546245098114,1.0401135683059692,0.6332083940505981,0.7452018857002258
1630678976806,0.808546245098114,1.0003108978271484,0.6332083940505981,0.7452018857002258
1630678976868,0.808546245098114,0.9690557718276978,0.6332083940505981,0.7452018857002258
1630678976978,0.808546245098114,0.9828932285308838,0.6332083940505981,0.7452018857002258
1630678977056,0.808546245098114,0.9828932285308838,0.6332083940505981,0.7452018857002258
1630678977150,0.808546245098114,0.9828932285308838,0.6332083940505981,0.7452018857002258
1630678977368,0.808546245098114,0.9828932285308838,0.6332083940505981,0.7452018857002258
1630678977684,0.808546245098114,0.9464491605758668,0.6332083940505981,0.7452018857002258
1630678977886,0.808546245098114,0.8771997690200806,0.6332083940505981,0.7452018857002258
1630678978089,0.808546245098114,0.7656554579734802,0.6332083940505981,0.7452018857002258
1630678978105,0.808546245098114,0.6104397177696228,0.6332083940505981,0.7452018857002258
1630678978308,0.808546245098114,0.4079610407352447,0.6332083940505981,0.7452018857002258
1630678978496,0.808546245098114,0.2072753459215164,0.6332083940505981,0.7452018857002258
1630678978542,0.808546245098114,0.0579940751194953,0.6332083940505981,0.7452018857002258
1630678978717,0.808546245098114,0.0579940751194953,0.6332083940505981,0.7452018857002258
1630678978827,0.808546245098114,0.0579940751194953,0.6332083940505981,0.7452018857002258
1630678979077,0.808546245098114,0.0579940751194953,0.6332083940505981,0.7452018857002258
1630678979092,0.808546245098114,0.0579940751194953,0.6332083940505981,0.7452018857002258
1630678979264,0.808546245098114,0.0579940751194953,0.6332083940505981,0.7452018857002258
1630678979264,0.808546245098114,0.0579940751194953,0.6332083940505981,0.7452018857002258
1630678979327,0.808546245098114,0.0579940751194953,0.6332083940505981,0.7452018857002258
1630678979467,0.808546245098114,0.0579940751194953,0.6332083940505981,0.7452018857002258
1630678979579,0.808546245098114,0.0579940751194953,0.6332083940505981,0.7452018857002258
1630678979672,0.808546245098114,2.581937313079834,0.6332083940505981,0.7452018857002258
1630678979735,0.808546245098114,2.581937313079834,0.6332083940505981,0.7452018857002258
1630678979735,0.808546245098114,2.581937313079834,0.6332083940505981,0.7452018857002258
1630678979735,0.808546245098114,2.581937313079834,0.6332083940505981,0.7452018857002258
1630678979797,0.808546245098114,2.497699737548828,0.6332083940505981,0.7452018857002258
1630678979829,0.808546245098114,2.42060923576355,0.6332083940505981,0.7452018857002258
1630678979875,0.808546245098114,2.492514371871948,0.6332083940505981,0.7452018857002258
1630678979891,0.808546245098114,2.4371867179870605,0.6332083940505981,0.7452018857002258
1630678980000,0.808546245098114,2.412731885910034,0.6332083940505981,0.7452018857002258
1630678980000,0.808546245098114,2.412731885910034,0.6332083940505981,0.7452018857002258
1630678980047,0.808546245098114,2.412731885910034,0.6332083940505981,0.7452018857002258
1630678980079,0.808546245098114,2.412731885910034,0.6332083940505981,0.7452018857002258
1630678980125,0.808546245098114,2.4572346210479736,0.6332083940505981,0.7452018857002258
1630678980157,0.808546245098114,2.5058276653289795,0.6332083940505981,0.7452018857002258
1630678980219,0.808546245098114,2.372044324874878,0.6332083940505981,0.7452018857002258
1630678980282,0.808546245098114,2.204335927963257,0.6332083940505981,0.7452018857002258
1630678980344,0.808546245098114,2.204335927963257,0.6332083940505981,0.7452018857002258
1630678980407,0.808546245098114,2.204335927963257,0.6332083940505981,0.7452018857002258
1630678980578,0.808546245098114,2.204335927963257,0.6332083940505981,0.7452018857002258
1630678980657,0.808546245098114,2.2759835720062256,0.6332083940505981,0.7452018857002258
1630678980751,0.808546245098114,2.2759835720062256,0.6332083940505981,0.7452018857002258
1630678980832,0.808546245098114,2.2759835720062256,0.6332083940505981,0.7452018857002258
1630678980910,0.808546245098114,2.2759835720062256,0.6332083940505981,0.7452018857002258
1630678981035,0.808546245098114,2.2759835720062256,0.6332083940505981,0.7452018857002258
1630678981239,0.808546245098114,2.2759835720062256,0.6332083940505981,0.7452018857002258
1630678981457,0.808546245098114,2.2759835720062256,0.6332083940505981,0.7452018857002258
1630678981504,0.808546245098114,2.2759835720062256,0.6332083940505981,0.7452018857002258
1630678981553,0.808546245098114,2.2759835720062256,0.6332083940505981,0.7452018857002258
1630678981756,0.808546245098114,2.2759835720062256,0.6332083940505981,0.7452018857002258
1630678981787,0.808546245098114,2.2759835720062256,0.6332083940505981,0.7452018857002258
1630678981819,0.808546245098114,2.2759835720062256,0.6332083940505981,0.7452018857002258
1630678981897,0.808546245098114,2.2759835720062256,0.6332083940505981,0.7452018857002258
1630678981959,0.808546245098114,2.2759835720062256,0.6332083940505981,0.7452018857002258
1630678982038,0.808546245098114,2.2759835720062256,0.6332083940505981,0.7452018857002258
1630678982256,0.808546245098114,2.2759835720062256,0.6332083940505981,0.7452018857002258
1630678982444,0.808546245098114,0.6997089385986328,0.6332083940505981,0.7452018857002258
1630678982537,0.808546245098114,0.6423711776733398,0.6332083940505981,0.7452018857002258
1630678982571,0.808546245098114,0.5947370529174805,0.8380960822105408,0.7452018857002258
1630678982649,0.808546245098114,0.5562907457351685,0.756451427936554,0.7452018857002258
1630678982649,0.808546245098114,0.5225284695625305,0.6839473247528076,0.7452018857002258
1630678982816,0.808546245098114,0.4876870512962341,0.6208261251449585,0.7452018857002258
1630678982941,0.808546245098114,0.4528418481349945,0.5681573748588562,0.7452018857002258
1630678982972,0.808546245098114,0.4216167330741882,0.5305264592170715,0.7452018857002258
1630678983081,0.808546245098114,0.4016050994396209,0.5305264592170715,0.7452018857002258
1630678983222,0.808546245098114,0.4038450717926025,0.5305264592170715,0.7452018857002258
1630678983472,0.808546245098114,0.5041950941085815,0.5305264592170715,0.7452018857002258
1630678983487,0.808546245098114,0.4433932304382324,0.5305264592170715,0.7452018857002258
1630678983550,0.808546245098114,0.5335543155670166,0.5305264592170715,0.7452018857002258
1630678983631,0.808546245098114,0.5735538005828857,0.5305264592170715,0.7452018857002258
1630678983693,0.808546245098114,0.6324333548545837,0.3456206619739532,0.7452018857002258
1630678983943,0.808546245098114,0.6986607313156128,0.1359904706478119,0.7452018857002258
1630678983990,0.808546245098114,0.7816225290298462,-0.070893257856369,0.7452018857002258
1630678984037,0.808546245098114,0.8789181113243103,-0.2246408462524414,0.7452018857002258
1630678984115,0.808546245098114,0.9616101384162904,-0.3020953834056854,0.7452018857002258
1630678984209,0.808546245098114,1.031101107597351,-0.3020953834056854,0.7452018857002258
1630678984524,0.808546245098114,1.0583070516586304,-0.3020953834056854,0.7452018857002258
1630678984745,0.808546245098114,1.088578224182129,-0.3020953834056854,0.7452018857002258
1630678984823,0.808546245098114,1.1215057373046875,-0.3020953834056854,0.7452018857002258
1630678984869,0.808546245098114,1.1559618711471558,-0.3020953834056854,0.7452018857002258
1630678984901,0.808546245098114,1.18987238407135,-0.3020953834056854,0.7452018857002258
1630678985291,0.808546245098114,1.218708872795105,-0.3020953834056854,0.7452018857002258
1630678985307,0.808546245098114,1.2426857948303225,-0.3020953834056854,0.7452018857002258
1630678985416,0.808546245098114,1.2666198015213013,-0.3020953834056854,0.7452018857002258
1630678985479,0.808546245098114,1.2945348024368286,-0.3020953834056854,0.7452018857002258
1630678985510,0.808546245098114,1.365489840507507,-0.3020953834056854,0.7452018857002258
1630678985510,0.808546245098114,1.3268647193908691,-0.3020953834056854,0.7452018857002258
1630678985510,0.808546245098114,1.365489840507507,-0.3020953834056854,0.7452018857002258
1630678985697,0.808546245098114,1.365489840507507,-0.3020953834056854,0.7452018857002258
1630678985729,0.808546245098114,1.365489840507507,-0.3020953834056854,0.7452018857002258
1630678985729,0.808546245098114,1.365489840507507,-0.3020953834056854,0.7452018857002258
1630678985807,0.808546245098114,1.365489840507507,-0.3020953834056854,0.7452018857002258
1630678986010,0.808546245098114,1.365489840507507,-0.3020953834056854,0.7452018857002258
1630678986025,0.808546245098114,1.365489840507507,-0.3020953834056854,0.7452018857002258
1630678986228,0.808546245098114,1.365489840507507,-0.3020953834056854,0.7452018857002258
1630678986291,0.808546245098114,1.365489840507507,-0.3020953834056854,0.7452018857002258
1630678986369,0.808546245098114,1.365489840507507,-0.3020953834056854,0.7452018857002258
1630678986419,0.808546245098114,1.365489840507507,-0.3020953834056854,0.7452018857002258
1630678986591,0.808546245098114,1.365489840507507,-0.3020953834056854,0.7452018857002258
1630678986685,0.808546245098114,1.365489840507507,-0.3020953834056854,0.7452018857002258
1630678986763,0.808546245098114,1.365489840507507,-0.3020953834056854,0.7452018857002258
1630678986825,0.808546245098114,1.365489840507507,-0.3020953834056854,0.7452018857002258
1630678986935,0.808546245098114,1.365489840507507,-0.3020953834056854,0.7452018857002258
1630678987122,0.808546245098114,1.365489840507507,-0.3020953834056854,0.7452018857002258
1630678987154,0.808546245098114,1.365489840507507,-0.3020953834056854,0.7452018857002258
1630678987294,0.808546245098114,1.365489840507507,-0.3020953834056854,0.7452018857002258
1630678987357,0.808546245098114,1.365489840507507,-0.3020953834056854,0.7452018857002258
1630678987420,0.808546245098114,1.365489840507507,-0.3020953834056854,0.7452018857002258
1630678987563,0.808546245098114,1.365489840507507,-0.3020953834056854,0.7452018857002258
1630678987641,0.808546245098114,1.365489840507507,-0.3020953834056854,0.7452018857002258
1630678987719,0.808546245098114,1.365489840507507,-0.3020953834056854,0.7452018857002258
1630678987844,0.808546245098114,1.365489840507507,-0.3020953834056854,0.7452018857002258
1630678988016,0.808546245098114,1.365489840507507,-0.3020953834056854,0.7452018857002258
1630678988141,0.808546245098114,1.365489840507507,-0.3020953834056854,0.7452018857002258
1630678988141,0.808546245098114,1.365489840507507,-0.3020953834056854,0.7452018857002258
1630678988297,0.808546245098114,1.365489840507507,-0.3020953834056854,0.7452018857002258
1630678988344,0.808546245098114,1.365489840507507,-0.3020953834056854,0.7452018857002258
1630678988407,0.808546245098114,1.365489840507507,-0.3020953834056854,0.7452018857002258
1630678988551,0.808546245098114,1.365489840507507,-0.3020953834056854,0.7452018857002258
1630678988723,0.808546245098114,1.365489840507507,-0.3020953834056854,0.7452018857002258
1630678988879,0.808546245098114,1.365489840507507,-0.3020953834056854,0.7452018857002258
1630678989020,0.808546245098114,1.365489840507507,-0.3020953834056854,0.7452018857002258
1630678989067,0.808546245098114,1.365489840507507,-0.3020953834056854,0.7452018857002258
1630678989098,0.808546245098114,1.365489840507507,-0.3020953834056854,0.7452018857002258
1630678989301,0.808546245098114,1.365489840507507,-0.3020953834056854,0.7452018857002258
1630678989441,0.808546245098114,1.365489840507507,-0.3020953834056854,0.7452018857002258
1630678989473,0.808546245098114,1.365489840507507,-0.3020953834056854,0.7452018857002258
1630678989835,0.808546245098114,1.365489840507507,-0.3020953834056854,0.7452018857002258
1630678989882,0.808546245098114,1.365489840507507,-0.3020953834056854,0.7452018857002258
1630678989992,0.808546245098114,1.365489840507507,-0.3020953834056854,0.7452018857002258
1630678990179,0.808546245098114,0.8763169646263123,-0.3020953834056854,0.7452018857002258
1630678990257,0.808546245098114,1.050767421722412,-0.3020953834056854,0.7452018857002258
1630678990398,0.808546245098114,1.1554713249206543,-0.3020953834056854,0.7452018857002258
1630678990445,0.808546245098114,1.196647047996521,-0.3020953834056854,0.7452018857002258
1630678990491,0.808546245098114,1.1957249641418457,-0.3020953834056854,0.7452018857002258
1630678990491,0.808546245098114,1.1736347675323486,-0.3020953834056854,0.7452018857002258
1630678990554,0.808546245098114,1.1543203592300415,-0.3020953834056854,0.7452018857002258
1630678990713,0.808546245098114,1.1432710886001587,-0.3020953834056854,0.7452018857002258
1630678990885,0.808546245098114,1.1432710886001587,-0.3020953834056854,0.7452018857002258
1630678991010,0.808546245098114,1.1432710886001587,-0.3020953834056854,0.7452018857002258
1630678991056,0.808546245098114,1.1432710886001587,-0.3020953834056854,0.7452018857002258
1630678991119,0.808546245098114,1.1432710886001587,-0.3020953834056854,0.7452018857002258
1630678991197,0.808546245098114,1.1791850328445437,-0.3020953834056854,0.7452018857002258
1630678991291,0.808546245098114,1.2154076099395752,-0.3020953834056854,0.7452018857002258
1630678991353,0.808546245098114,1.2444658279418943,-0.3020953834056854,0.7452018857002258
1630678991353,0.808546245098114,1.2422267198562622,-0.3020953834056854,0.7452018857002258
1630678991478,0.808546245098114,1.2076796293258667,-0.3020953834056854,0.7452018857002258
1630678991603,0.808546245098114,1.1281633377075195,-0.3020953834056854,0.7452018857002258
1630678991681,0.808546245098114,1.030406832695007,-0.3020953834056854,0.7452018857002258
1630678991759,0.808546245098114,1.030406832695007,-0.3020953834056854,0.7452018857002258
1630678991806,0.808546245098114,1.030406832695007,-0.3020953834056854,0.7452018857002258
1630678991962,0.808546245098114,1.030406832695007,-0.3020953834056854,0.7452018857002258
1630678992041,0.808546245098114,1.030406832695007,-0.3020953834056854,0.7452018857002258
1630678992087,0.808546245098114,1.030406832695007,-0.3020953834056854,0.7452018857002258
1630678992228,0.808546245098114,1.030406832695007,-0.3020953834056854,0.7452018857002258
1630678992353,0.808546245098114,1.030406832695007,-0.3020953834056854,0.7452018857002258
1630678992480,0.808546245098114,1.030406832695007,-0.3020953834056854,0.7452018857002258
1630678992527,0.808546245098114,1.030406832695007,-0.3020953834056854,0.7452018857002258
1630678992636,0.808546245098114,1.030406832695007,-0.3020953834056854,0.7452018857002258
1630678992683,0.808546245098114,1.030406832695007,-0.3020953834056854,0.7452018857002258
1630678992902,0.808546245098114,1.030406832695007,-0.3020953834056854,0.7452018857002258
1630678992949,0.808546245098114,1.030406832695007,-0.3020953834056854,0.7452018857002258
1630678993027,0.808546245098114,1.030406832695007,-0.3020953834056854,0.7452018857002258
1630678993167,0.808546245098114,1.030406832695007,-0.3020953834056854,0.7452018857002258
1630678993308,0.808546245098114,1.030406832695007,-0.3020953834056854,0.7452018857002258
1630678993437,0.808546245098114,1.030406832695007,-0.3020953834056854,0.7452018857002258
1630678993469,0.808546245098114,1.030406832695007,-0.3020953834056854,0.7452018857002258
1630678993609,0.808546245098114,1.030406832695007,-0.3020953834056854,0.7452018857002258
1630678993656,0.808546245098114,1.030406832695007,-0.3020953834056854,0.7452018857002258
1630678993736,0.808546245098114,1.030406832695007,-0.3020953834056854,0.7452018857002258
1630678993846,0.808546245098114,1.030406832695007,-0.3020953834056854,0.7452018857002258
1630678994017,0.808546245098114,0.1200053989887237,-0.3020953834056854,0.7452018857002258
1630678994189,0.808546245098114,0.1615619361400604,-0.3020953834056854,0.7452018857002258
1630678994252,0.808546245098114,0.2434111088514328,-0.3020953834056854,0.7452018857002258
1630678994314,0.808546245098114,0.3326097726821899,-0.3020953834056854,0.7452018857002258
1630678994567,0.808546245098114,0.4072275757789612,-0.3020953834056854,0.7452018857002258
1630678994692,0.808546245098114,0.482551097869873,-0.3020953834056854,0.7452018857002258
1630678994801,0.808546245098114,0.5659220218658447,-0.3020953834056854,0.7452018857002258
1630678995051,0.808546245098114,0.5659220218658447,-0.3020953834056854,0.7452018857002258
1630678995238,0.808546245098114,0.5659220218658447,-0.3020953834056854,0.7452018857002258
1630678995238,0.808546245098114,0.6300286650657654,-0.3020953834056854,0.7452018857002258
1630678995285,0.808546245098114,0.6541905403137207,-0.3020953834056854,0.7452018857002258
1630678995348,0.808546245098114,0.997084379196167,-0.3020953834056854,0.7452018857002258
1630678995348,0.808546245098114,1.003710389137268,-0.3020953834056854,0.7452018857002258
1630678995395,0.808546245098114,1.01654851436615,-0.3020953834056854,0.7452018857002258
1630678995410,0.808546245098114,1.0443813800811768,-0.3020953834056854,0.7452018857002258
1630678995473,0.808546245098114,1.0766072273254397,-0.3020953834056854,0.7452018857002258
1630678995569,0.808546245098114,1.1083463430404663,-0.3020953834056854,0.7452018857002258
1630678995709,0.808546245098114,1.1396056413650513,-0.3020953834056854,0.7452018857002258
1630678995787,0.808546245098114,1.1708033084869385,-0.3020953834056854,0.7452018857002258
1630678996084,0.808546245098114,1.2040854692459106,-0.3020953834056854,0.7452018857002258
1630678996209,0.808546245098114,1.2379831075668335,-0.3020953834056854,0.7452018857002258
1630678996256,0.808546245098114,1.2695746421813965,-0.3020953834056854,0.7452018857002258
1630678996318,0.808546245098114,1.2695746421813965,-0.3020953834056854,0.7452018857002258
1630678996350,0.808546245098114,1.2695746421813965,-0.3020953834056854,0.7452018857002258
1630678996412,0.808546245098114,1.3074759244918823,-0.3020953834056854,0.7452018857002258
1630678996506,0.808546245098114,1.3724535703659058,-0.3020953834056854,0.7452018857002258
1630678996634,0.808546245098114,1.3724535703659058,-0.3020953834056854,0.7452018857002258
1630678996743,0.808546245098114,1.3724535703659058,-0.3020953834056854,0.7452018857002258
1630678996853,0.808546245098114,1.3724535703659058,-0.3020953834056854,0.7452018857002258
1630678997040,0.808546245098114,1.3724535703659058,-0.3020953834056854,0.7452018857002258
1630678997071,0.808546245098114,1.3724535703659058,-0.3020953834056854,0.7452018857002258
1630678997306,0.808546245098114,1.3724535703659058,-0.3020953834056854,0.7452018857002258
1630678997306,0.808546245098114,1.3724535703659058,-0.3020953834056854,0.7452018857002258
1630678997431,0.808546245098114,1.3724535703659058,-0.3020953834056854,0.7452018857002258
1630678997540,0.808546245098114,1.3724535703659058,-0.3020953834056854,0.7452018857002258
1630678997606,0.808546245098114,0.5188719630241394,-0.3020953834056854,0.7452018857002258
1630678997809,0.808546245098114,0.5348454117774963,-0.3020953834056854,0.7452018857002258
1630678998059,0.808546245098114,0.5820834636688232,-0.3020953834056854,0.7452018857002258
1630678998185,0.808546245098114,0.5820834636688232,-0.3020953834056854,0.7452018857002258
1630678998516,0.808546245098114,0.5820834636688232,-0.3020953834056854,0.7452018857002258
1630678998769,0.808546245098114,0.5820834636688232,-0.3020953834056854,0.7452018857002258
1630678998940,0.808546245098114,0.5820834636688232,-0.3020953834056854,0.7452018857002258
1630678999003,0.808546245098114,0.5820834636688232,-0.3020953834056854,0.7452018857002258
1630678999081,0.808546245098114,0.5820834636688232,-0.3020953834056854,0.7452018857002258
1630678999081,0.808546245098114,0.5820834636688232,-0.3020953834056854,0.7452018857002258
1630678999128,0.808546245098114,0.5149077773094177,-0.3020953834056854,0.7452018857002258
1630678999128,0.808546245098114,0.5820834636688232,-0.3020953834056854,0.7452018857002258
1630678999128,0.808546245098114,0.5820834636688232,-0.3020953834056854,0.7452018857002258
1630678999206,0.808546245098114,0.5431785583496094,-0.3020953834056854,0.7452018857002258
1630678999269,0.808546245098114,0.5431785583496094,-0.3020953834056854,0.7452018857002258
1630678999300,0.808546245098114,0.5431785583496094,-0.3020953834056854,0.7452018857002258
1630678999347,0.808546245098114,0.5431785583496094,-0.3020953834056854,0.7452018857002258
1630678999362,0.808546245098114,0.5431785583496094,-0.3020953834056854,0.7452018857002258
1630678999409,0.808546245098114,0.5431785583496094,-0.3020953834056854,0.7452018857002258
1630678999503,0.808546245098114,0.5431785583496094,-0.3020953834056854,0.7452018857002258
1630678999662,0.808546245098114,0.5431785583496094,-0.3020953834056854,0.7452018857002258
1630678999740,0.808546245098114,0.5431785583496094,-0.3020953834056854,0.7452018857002258
1630678999802,0.808546245098114,0.5431785583496094,-0.3020953834056854,0.7452018857002258
1630678999865,0.808546245098114,0.5431785583496094,-0.3020953834056854,0.7452018857002258
1630678999959,0.808546245098114,0.5431785583496094,-0.3020953834056854,0.7452018857002258
1630679000052,0.808546245098114,0.5431785583496094,-0.3020953834056854,0.7452018857002258
1630679000146,0.808546245098114,0.5431785583496094,-0.3020953834056854,0.7452018857002258
1630679000271,0.808546245098114,0.5431785583496094,-0.3020953834056854,0.7452018857002258
1630679000318,0.808546245098114,0.5431785583496094,-0.3020953834056854,0.7452018857002258
1630679000443,0.808546245098114,0.5431785583496094,-0.3020953834056854,0.7452018857002258
1630679000568,0.808546245098114,0.5431785583496094,-0.3020953834056854,0.7452018857002258
1630679000662,0.808546245098114,0.5431785583496094,-0.3020953834056854,0.7452018857002258
1630679000742,0.808546245098114,0.5431785583496094,-0.3020953834056854,0.7452018857002258
1630679000821,0.808546245098114,0.5431785583496094,-0.3020953834056854,0.7452018857002258
1630679001039,0.808546245098114,0.8345149159431458,0.7596204280853271,0.7452018857002258
1630679001149,0.808546245098114,0.8401314616203308,0.7314993739128113,0.7452018857002258
1630679001196,0.808546245098114,0.8273481726646423,0.6908647418022156,0.7452018857002258
1630679001227,0.808546245098114,0.8079420328140259,0.643133282661438,0.7452018857002258
1630679001383,0.808546245098114,0.7935658097267151,0.5960644483566284,0.7452018857002258
1630679001511,0.808546245098114,0.7875989675521851,0.5590351819992065,0.7452018857002258
1630679001589,0.808546245098114,0.7928037047386169,0.5590351819992065,0.7452018857002258
1630679001699,0.808546245098114,0.8157333731651306,0.5590351819992065,0.7452018857002258
1630679001793,0.808546245098114,0.861214816570282,0.5590351819992065,0.7452018857002258
1630679001871,0.808546245098114,0.861214816570282,0.5590351819992065,0.7452018857002258
1630679002027,0.808546245098114,0.861214816570282,0.5590351819992065,0.7452018857002258
1630679002074,0.808546245098114,0.861214816570282,0.5590351819992065,0.7452018857002258
1630679002230,0.808546245098114,0.8674840331077576,0.5068445801734924,0.7452018857002258
1630679002277,0.808546245098114,0.870194673538208,0.4629722535610199,0.7452018857002258
1630679002370,0.808546245098114,0.8733075261116028,0.3919675052165985,0.7452018857002258
1630679002482,0.808546245098114,0.8739734292030334,0.2836187481880188,0.7452018857002258
1630679002623,0.808546245098114,0.8756713271141052,0.1507609486579895,0.7452018857002258
1630679002733,0.808546245098114,0.8926304578781128,0.1507609486579895,0.7452018857002258
1630679003045,0.808546245098114,0.9262774586677552,0.1507609486579895,0.7452018857002258
1630679003076,0.808546245098114,0.9712937474250792,0.1507609486579895,0.7452018857002258
1630679003107,0.808546245098114,0.9712937474250792,0.1507609486579895,0.7452018857002258
1630679003154,0.808546245098114,0.9712937474250792,0.1507609486579895,0.7452018857002258
1630679003531,0.808546245098114,0.9712937474250792,0.1507609486579895,0.7452018857002258
1630679003719,0.808546245098114,0.9712937474250792,1.6881240606307983,0.7452018857002258
1630679003875,0.808546245098114,0.9712937474250792,1.6881240606307983,0.7452018857002258
1630679004062,0.808546245098114,0.9712937474250792,1.6881240606307983,0.7452018857002258
1630679004312,0.808546245098114,0.9712937474250792,1.6881240606307983,0.7452018857002258
1630679004406,0.808546245098114,1.695270299911499,1.6881240606307983,0.7452018857002258
1630679004643,0.808546245098114,1.695270299911499,1.5934010744094849,0.7452018857002258
1630679004814,0.808546245098114,1.695270299911499,1.5184487104415894,0.7452018857002258
1630679004955,0.808546245098114,1.695270299911499,1.463731288909912,0.7452018857002258
1630679005158,0.808546245098114,1.695270299911499,1.4360857009887695,0.7452018857002258
1630679005189,0.808546245098114,1.695270299911499,1.585234761238098,0.7452018857002258
1630679005267,0.808546245098114,1.695270299911499,1.69623601436615,0.7452018857002258
1630679005361,0.808546245098114,1.695270299911499,1.6830345392227173,0.7452018857002258
1630679005583,0.808546245098114,1.695270299911499,1.678287386894226,0.7452018857002258
1630679005677,0.808546245098114,1.695270299911499,1.647025227546692,0.7452018857002258
1630679005677,0.808546245098114,1.695270299911499,1.6268997192382812,0.7452018857002258
1630679005692,0.808546245098114,1.695270299911499,1.571944236755371,0.7452018857002258
1630679005833,0.808546245098114,1.695270299911499,1.5378851890563965,0.7452018857002258
1630679005833,0.808546245098114,1.695270299911499,1.6527162790298462,0.7452018857002258
1630679005833,0.808546245098114,1.695270299911499,1.5068765878677368,0.7452018857002258
1630679005911,0.808546245098114,1.695270299911499,1.6242016553878784,0.7452018857002258
1630679006192,0.808546245098114,1.695270299911499,1.6242947578430176,0.7452018857002258
1630679006208,0.808546245098114,3.6054961681365967,1.623378038406372,0.7452018857002258
1630679006380,0.808546245098114,3.511524438858032,1.8646869659423828,0.7452018857002258
1630679006426,2.1379120349884038,3.4528400897979736,1.84988272190094,0.7452018857002258
1630679006426,0.808546245098114,3.5093374252319336,1.859125018119812,0.7452018857002258
1630679006489,2.045103073120117,3.395315647125244,1.784410834312439,0.7452018857002258
1630679006647,3.123365640640259,3.395315647125244,1.807217001914978,0.7452018857002258
1630679006647,3.123365640640259,3.395315647125244,1.800188422203064,0.7452018857002258
1630679006647,3.123365640640259,3.395315647125244,1.7705767154693604,0.7452018857002258
1630679006772,3.123365640640259,3.395315647125244,1.8029139041900637,0.7452018857002258
1630679006882,3.123365640640259,3.3446202278137207,1.81541121006012,0.7452018857002258
1630679006944,3.123365640640259,3.2991204261779785,1.8438036441802976,0.7452018857002258
1630679007085,3.123365640640259,3.2991204261779785,1.8743878602981567,0.7452018857002258
1630679007132,3.123365640640259,3.2038707733154297,1.8026973009109497,0.7452018857002258
1630679007210,3.123365640640259,2.680368185043335,1.8392856121063232,0.7452018857002258
1630679007319,3.123365640640259,2.679211378097534,1.8800376653671265,0.7452018857002258
1630679007397,3.202404737472534,2.682459115982056,1.9254591464996336,0.7452018857002258
1630679007616,3.27441930770874,2.727925062179565,1.5504493713378906,0.7452018857002258
1630679007647,3.27441930770874,1.994065284729004,1.6072793006896973,0.7452018857002258
1630679007728,3.27441930770874,1.379339575767517,1.4729069471359253,0.7452018857002258
1630679007805,3.27441930770874,1.390817403793335,1.4725042581558228,0.7452018857002258
1630679007946,3.27441930770874,1.390817403793335,1.4643584489822388,0.7452018857002258
1630679008040,3.27441930770874,1.390817403793335,1.1951005458831787,0.7452018857002258
1630679008055,3.27441930770874,1.390817403793335,1.1317483186721802,0.7452018857002258
1630679008134,3.27441930770874,1.390817403793335,0.9784240126609802,0.7452018857002258
1630679008227,3.27441930770874,1.390817403793335,0.9784240126609802,0.7452018857002258
1630679008305,3.27441930770874,1.390817403793335,0.7899602651596069,0.7452018857002258
1630679008399,3.27441930770874,1.537867307662964,0.847583532333374,0.7452018857002258
1630679008524,3.27441930770874,1.537867307662964,0.834906280040741,0.7452018857002258
1630679008649,3.27441930770874,1.537867307662964,0.8144178986549377,0.7452018857002258
1630679008683,3.27441930770874,1.537867307662964,0.8144178986549377,0.7452018857002258
1630679008714,3.27441930770874,1.537867307662964,0.8144178986549377,0.7452018857002258
1630679008902,3.27441930770874,1.537867307662964,0.8144178986549377,0.7452018857002258
1630679009339,3.27441930770874,1.537867307662964,0.8144178986549377,0.7452018857002258
1630679009402,3.27441930770874,1.537867307662964,0.8144178986549377,0.7452018857002258
1630679009636,3.27441930770874,1.537867307662964,0.8637887239456177,0.7452018857002258
1630679009748,3.27441930770874,1.537867307662964,0.9290136694908142,0.7452018857002258
1630679010076,3.27441930770874,1.537867307662964,0.982163667678833,0.7452018857002258
1630679010076,3.27441930770874,1.537867307662964,0.982163667678833,0.7452018857002258
1630679010107,3.27441930770874,1.537867307662964,0.982163667678833,0.7452018857002258
1630679010154,3.27441930770874,1.537867307662964,0.982163667678833,0.7452018857002258
1630679010201,3.27441930770874,1.537867307662964,0.982163667678833,0.7452018857002258
1630679010513,3.27441930770874,1.537867307662964,0.982163667678833,0.7452018857002258
1630679010654,3.27441930770874,1.537867307662964,0.982163667678833,0.7452018857002258
1630679010906,3.27441930770874,1.537867307662964,0.982163667678833,0.7452018857002258
1630679010906,3.27441930770874,1.537867307662964,0.982163667678833,0.7452018857002258
1630679010953,3.27441930770874,1.537867307662964,0.982163667678833,0.7452018857002258
1630679011031,3.27441930770874,1.537867307662964,0.982163667678833,0.7452018857002258
1630679011249,3.27441930770874,1.537867307662964,0.982163667678833,0.7452018857002258
1630679011367,3.27441930770874,1.537867307662964,0.982163667678833,0.7452018857002258
1630679011698,3.27441930770874,1.537867307662964,0.982163667678833,0.7452018857002258
1630679011794,3.27441930770874,1.537867307662964,0.982163667678833,0.7452018857002258
1630679011841,3.27441930770874,1.537867307662964,0.982163667678833,0.7452018857002258
1630679011841,3.27441930770874,1.537867307662964,0.982163667678833,0.7452018857002258
1630679011841,3.27441930770874,1.537867307662964,1.4870092868804932,0.7452018857002258
1630679011857,3.27441930770874,1.537867307662964,2.005345344543457,0.7452018857002258
1630679011997,3.27441930770874,1.537867307662964,1.935802698135376,0.7452018857002258
1630679012013,3.27441930770874,1.537867307662964,1.8783113956451416,0.7452018857002258
1630679012091,3.27441930770874,1.537867307662964,1.8243792057037356,0.7452018857002258
1630679012154,3.27441930770874,1.537867307662964,1.8231898546218872,0.7452018857002258
1630679012372,3.27441930770874,1.537867307662964,2.3900883197784424,0.7452018857002258
1630679012372,3.27441930770874,1.537867307662964,2.364072561264038,0.7452018857002258
1630679012372,3.27441930770874,1.537867307662964,2.339146614074707,0.7452018857002258
1630679012388,3.27441930770874,1.537867307662964,2.4847261905670166,0.7452018857002258
1630679012435,3.27441930770874,1.537867307662964,2.9725441932678223,0.7452018857002258
1630679012544,3.27441930770874,1.537867307662964,2.937390089035034,0.7452018857002258
1630679012638,3.27441930770874,1.537867307662964,2.8806114196777344,0.7452018857002258
1630679012638,3.27441930770874,1.537867307662964,2.902681589126587,0.7452018857002258
1630679012781,3.27441930770874,1.537867307662964,2.8554527759552,0.7452018857002258
1630679012781,3.27441930770874,1.537867307662964,2.853600025177002,0.7452018857002258
1630679012797,3.27441930770874,1.537867307662964,2.837939739227295,0.7452018857002258
1630679013047,3.27441930770874,1.537867307662964,2.867424964904785,0.7452018857002258
1630679013109,3.27441930770874,1.537867307662964,2.899129867553711,0.7452018857002258
1630679013156,3.27441930770874,1.537867307662964,2.933682680130005,0.7452018857002258
1630679013188,3.27441930770874,1.537867307662964,2.971329689025879,0.7452018857002258
1630679013532,3.27441930770874,1.537867307662964,2.952590227127075,0.7452018857002258
1630679013674,3.27441930770874,1.537867307662964,2.9901492595672607,0.7452018857002258
1630679013768,3.27441930770874,1.537867307662964,3.041254758834839,0.7452018857002258
1630679014065,3.27441930770874,1.537867307662964,3.0419187545776367,0.7452018857002258
1630679014174,3.27441930770874,1.537867307662964,1.861547350883484,0.7452018857002258
1630679014299,3.27441930770874,1.537867307662964,1.8731848001480105,0.7452018857002258
1630679014473,3.27441930770874,1.537867307662964,1.9685996770858765,0.7452018857002258
1630679014535,3.27441930770874,1.537867307662964,1.9685996770858765,0.7452018857002258
1630679014585,3.27441930770874,1.537867307662964,1.9685996770858765,0.7452018857002258
1630679014632,3.27441930770874,1.537867307662964,1.9685996770858765,0.7452018857002258
1630679014632,3.27441930770874,1.537867307662964,1.9685996770858765,0.7452018857002258
1630679014647,3.27441930770874,1.537867307662964,1.9685996770858765,0.7452018857002258
1630679014757,3.27441930770874,1.537867307662964,1.9685996770858765,0.7452018857002258
1630679014788,3.27441930770874,1.537867307662964,1.9685996770858765,0.7452018857002258
1630679014851,3.27441930770874,3.232393264770508,1.9685996770858765,0.7452018857002258
1630679014913,3.27441930770874,3.232393264770508,1.9685996770858765,0.7452018857002258
1630679015022,3.27441930770874,3.232393264770508,1.9685996770858765,0.7452018857002258
1630679015179,3.27441930770874,3.232393264770508,1.9685996770858765,0.7452018857002258
1630679015335,3.27441930770874,3.232393264770508,1.9685996770858765,0.7452018857002258
1630679015382,3.27441930770874,3.232393264770508,1.9685996770858765,0.7452018857002258
1630679015460,3.27441930770874,3.232393264770508,1.9685996770858765,0.7452018857002258
1630679015602,3.27441930770874,3.232393264770508,1.9685996770858765,0.7452018857002258
1630679015602,3.27441930770874,3.232393264770508,1.9685996770858765,0.7452018857002258
1630679015665,3.27441930770874,3.232393264770508,1.9685996770858765,0.7452018857002258
1630679015728,3.27441930770874,3.232393264770508,1.9685996770858765,0.7452018857002258
1630679015853,3.27441930770874,3.145320415496826,1.9685996770858765,0.7452018857002258
1630679015962,3.27441930770874,1.692480444908142,1.9685996770858765,0.7452018857002258
1630679016040,3.27441930770874,1.7389692068099976,1.9685996770858765,0.7452018857002258
1630679016040,3.27441930770874,1.7763679027557373,1.1460764408111572,0.7452018857002258
1630679016165,3.27441930770874,1.7891391515731812,1.1933091878890991,0.7452018857002258
1630679016321,3.27441930770874,1.7891391515731812,1.1933091878890991,0.7452018857002258
1630679016384,3.27441930770874,1.7891391515731812,1.1933091878890991,0.7452018857002258
1630679016496,3.27441930770874,1.7891391515731812,1.1933091878890991,0.7452018857002258
1630679016496,3.27441930770874,1.7891391515731812,1.1933091878890991,0.7452018857002258
1630679016543,3.27441930770874,1.7891391515731812,1.1933091878890991,0.7452018857002258
1630679016574,3.27441930770874,1.716168761253357,1.1933091878890991,0.7452018857002258
1630679016605,3.27441930770874,1.716168761253357,1.1933091878890991,0.7452018857002258
1630679016746,3.27441930770874,1.716168761253357,1.1933091878890991,0.7452018857002258
1630679016808,3.27441930770874,1.716168761253357,1.1933091878890991,0.7452018857002258
1630679016918,3.27441930770874,1.716168761253357,1.1933091878890991,0.7452018857002258
1630679016980,3.27441930770874,1.4133663177490234,1.225754737854004,0.7452018857002258
1630679017121,3.27441930770874,1.4133663177490234,1.225754737854004,0.7452018857002258
1630679017482,3.27441930770874,1.4133663177490234,1.225754737854004,0.7452018857002258
1630679017607,3.27441930770874,1.4133663177490234,1.225754737854004,0.7452018857002258
1630679017810,3.27441930770874,1.4133663177490234,1.225754737854004,0.7452018857002258
1630679017889,3.27441930770874,1.4133663177490234,1.225754737854004,0.7452018857002258
1630679017920,3.27441930770874,1.4133663177490234,1.225754737854004,0.7452018857002258
1630679018045,3.27441930770874,1.4133663177490234,1.225754737854004,0.7452018857002258
1630679018138,3.27441930770874,1.4133663177490234,1.225754737854004,0.7452018857002258
1630679018201,3.27441930770874,1.4133663177490234,1.225754737854004,0.7452018857002258
1630679018248,3.27441930770874,1.4133663177490234,1.225754737854004,0.7452018857002258
1630679018405,3.27441930770874,1.4133663177490234,1.225754737854004,0.7452018857002258
1630679018453,3.27441930770874,1.4133663177490234,1.225754737854004,0.7452018857002258
1630679018485,3.27441930770874,1.4133663177490234,1.225754737854004,0.7452018857002258
1630679018547,3.27441930770874,1.4133663177490234,1.225754737854004,0.7452018857002258
1630679018703,3.27441930770874,1.4133663177490234,1.225754737854004,0.7452018857002258
1630679018766,3.27441930770874,1.4133663177490234,1.225754737854004,0.7452018857002258
1630679018859,3.27441930770874,1.4133663177490234,1.225754737854004,0.7452018857002258
1630679018906,3.27441930770874,1.4133663177490234,1.225754737854004,0.7452018857002258
1630679018938,3.27441930770874,1.4133663177490234,1.225754737854004,0.7452018857002258
1630679019031,3.27441930770874,1.4133663177490234,1.225754737854004,0.7452018857002258
1630679019125,3.27441930770874,1.4133663177490234,1.225754737854004,0.7452018857002258
1630679019219,3.27441930770874,1.4133663177490234,1.225754737854004,0.7452018857002258
1630679019344,3.27441930770874,1.4133663177490234,1.225754737854004,0.7452018857002258
1630679019422,3.27441930770874,1.4133663177490234,1.225754737854004,0.7452018857002258
1630679019520,3.27441930770874,1.4133663177490234,1.225754737854004,0.7452018857002258
1630679019692,3.27441930770874,1.4133663177490234,1.225754737854004,0.7452018857002258
1630679019801,3.27441930770874,1.4133663177490234,1.225754737854004,0.7452018857002258
1630679019879,3.27441930770874,1.4133663177490234,1.225754737854004,0.7452018857002258
1630679019974,3.27441930770874,1.4133663177490234,1.225754737854004,0.7452018857002258
1630679020068,3.27441930770874,1.4133663177490234,1.225754737854004,0.7452018857002258
1630679020145,3.27441930770874,1.4133663177490234,1.225754737854004,0.7452018857002258
1630679020286,3.27441930770874,1.4133663177490234,1.225754737854004,0.7452018857002258
1630679020364,3.27441930770874,1.4133663177490234,1.225754737854004,0.7452018857002258
1630679020442,3.27441930770874,1.4133663177490234,1.225754737854004,0.7452018857002258
1630679020616,3.27441930770874,1.4133663177490234,1.225754737854004,0.7452018857002258
1630679020632,3.27441930770874,1.4133663177490234,1.225754737854004,0.7452018857002258
1630679020772,3.27441930770874,1.4133663177490234,1.225754737854004,0.7452018857002258
1630679020850,3.27441930770874,1.4133663177490234,1.225754737854004,0.7452018857002258
1630679020975,3.27441930770874,1.4133663177490234,1.225754737854004,0.7452018857002258
1630679021132,3.27441930770874,1.4133663177490234,1.225754737854004,0.7452018857002258
1630679021210,3.27441930770874,1.4133663177490234,1.225754737854004,0.7452018857002258
1630679021241,3.27441930770874,1.4133663177490234,1.225754737854004,0.7452018857002258
1630679021382,3.27441930770874,1.4133663177490234,1.225754737854004,0.7452018857002258
1630679021681,3.27441930770874,1.4133663177490234,1.2582459449768066,0.7452018857002258
1630679021837,3.27441930770874,1.4133663177490234,1.2995929718017578,0.7452018857002258
1630679021869,3.27441930770874,1.4133663177490234,1.317143797874451,0.7452018857002258
1630679021900,3.27441930770874,1.4133663177490234,1.3254135847091677,0.7452018857002258
1630679022009,3.27441930770874,1.4133663177490234,1.3254135847091677,0.7452018857002258
1630679022056,3.27441930770874,1.4133663177490234,1.3254135847091677,0.7452018857002258
1630679022462,3.27441930770874,1.4133663177490234,1.3127647638320925,0.7452018857002258
1630679023075,3.27441930770874,1.4133663177490234,1.3127647638320925,0.7452018857002258
1630679023231,3.27441930770874,1.4133663177490234,1.3127647638320925,0.7452018857002258
1630679023372,3.27441930770874,1.4133663177490234,1.3127647638320925,0.7452018857002258
1630679023465,3.27441930770874,1.4133663177490234,1.365639567375183,0.7452018857002258
1630679023671,3.27441930770874,1.4133663177490234,1.4118831157684326,0.7452018857002258
1630679023671,3.27441930770874,1.4133663177490234,1.4118831157684326,0.7452018857002258
1630679023874,3.27441930770874,1.4133663177490234,1.361196756362915,0.7452018857002258
1630679023874,3.27441930770874,1.4133663177490234,1.4118831157684326,0.7452018857002258
1630679023874,3.27441930770874,1.4133663177490234,1.385683298110962,0.7452018857002258
1630679023889,3.27441930770874,1.4133663177490234,1.361196756362915,0.7452018857002258
1630679023921,3.27441930770874,1.4133663177490234,1.361196756362915,0.7452018857002258
1630679024108,3.27441930770874,1.4133663177490234,1.361196756362915,0.7452018857002258
1630679024155,3.27441930770874,1.4133663177490234,1.361196756362915,0.7452018857002258
1630679024170,3.27441930770874,1.4133663177490234,1.361196756362915,0.7452018857002258
1630679024170,3.27441930770874,1.4133663177490234,1.361196756362915,0.7452018857002258
1630679024217,3.27441930770874,1.4133663177490234,1.361196756362915,0.7452018857002258
1630679024280,3.27441930770874,1.4133663177490234,1.361196756362915,0.7452018857002258
1630679024280,3.27441930770874,1.4133663177490234,1.361196756362915,0.7452018857002258
1630679024295,3.27441930770874,1.4133663177490234,1.361196756362915,0.7452018857002258
1630679024295,3.27441930770874,1.4133663177490234,1.361196756362915,0.7452018857002258
1630679024499,3.27441930770874,1.4133663177490234,1.361196756362915,0.7452018857002258
1630679024689,3.27441930770874,1.4133663177490234,1.361196756362915,0.7452018857002258
1630679024814,3.27441930770874,1.4133663177490234,1.361196756362915,0.7452018857002258
1630679024845,3.27441930770874,1.4133663177490234,1.361196756362915,0.7452018857002258
1630679025048,3.27441930770874,1.4133663177490234,1.361196756362915,0.7452018857002258
1630679025142,3.27441930770874,1.065314769744873,1.168176293373108,0.7452018857002258
1630679025329,3.27441930770874,1.8579797744750977,1.3588042259216309,0.7452018857002258
1630679025610,3.27441930770874,1.779129981994629,1.2808574438095093,0.7452018857002258
1630679025928,3.27441930770874,1.7128090858459473,1.2148462533950806,0.7452018857002258
1630679026193,3.27441930770874,1.626684069633484,1.1690834760665894,0.7452018857002258
1630679026193,3.27441930770874,1.6665750741958618,1.1690834760665894,0.7452018857002258
1630679026255,3.27441930770874,1.626684069633484,1.1690834760665894,0.7452018857002258
1630679026287,3.27441930770874,1.626684069633484,1.1690834760665894,0.7452018857002258
1630679026333,3.27441930770874,1.626684069633484,1.1690834760665894,0.7452018857002258
1630679026333,3.27441930770874,1.626684069633484,1.1690834760665894,0.7452018857002258
1630679026445,3.27441930770874,1.626684069633484,1.1690834760665894,0.7452018857002258
1630679026492,3.27441930770874,1.626684069633484,1.1690834760665894,0.7452018857002258
1630679026508,3.27441930770874,1.772737741470337,1.1016969680786133,0.7452018857002258
1630679026523,3.27441930770874,1.6531639099121094,1.1141202449798584,0.7452018857002258
1630679026523,3.27441930770874,1.707919359207153,1.0864338874816897,0.7452018857002258
1630679026726,3.27441930770874,1.825438857078552,1.1699886322021484,0.7452018857002258
1630679027023,3.27441930770874,0.7089406251907349,1.1699886322021484,0.7452018857002258
1630679027133,3.27441930770874,0.7089406251907349,1.1699886322021484,0.7452018857002258
1630679027320,3.27441930770874,0.7089406251907349,1.1699886322021484,0.7452018857002258
1630679027320,3.27441930770874,0.7089406251907349,1.1699886322021484,0.7452018857002258
1630679027336,3.27441930770874,0.7089406251907349,1.1699886322021484,0.7452018857002258
1630679027367,3.27441930770874,0.7089406251907349,1.1699886322021484,0.7452018857002258
1630679027398,3.27441930770874,0.7089406251907349,1.1699886322021484,0.7452018857002258
1630679027414,3.27441930770874,0.7089406251907349,1.1699886322021484,0.7452018857002258
1630679027445,3.27441930770874,0.7089406251907349,1.1699886322021484,0.7452018857002258
1630679027495,3.27441930770874,0.7089406251907349,1.1699886322021484,0.7452018857002258
1630679027589,3.27441930770874,0.7089406251907349,1.1699886322021484,0.7452018857002258
1630679027729,3.27441930770874,0.7089406251907349,1.1699886322021484,0.7452018857002258
1630679027917,3.27441930770874,0.7089406251907349,1.1699886322021484,0.7452018857002258
1630679028073,3.27441930770874,0.7089406251907349,1.1699886322021484,0.7452018857002258
1630679028136,3.27441930770874,0.7089406251907349,1.1699886322021484,0.7452018857002258
1630679028183,3.27441930770874,0.7089406251907349,1.1699886322021484,0.7452018857002258
1630679028245,3.27441930770874,0.7089406251907349,1.1699886322021484,0.7452018857002258
1630679028417,3.27441930770874,0.7089406251907349,1.1699886322021484,0.7452018857002258
1630679028684,3.27441930770874,0.7089406251907349,1.1699886322021484,0.7452018857002258
1630679028935,1.389157772064209,0.7089406251907349,1.1699886322021484,0.7452018857002258
1630679029059,1.3309201002120972,0.7189845442771912,1.1699886322021484,0.7452018857002258
1630679029122,1.3309201002120972,0.7165012955665588,1.1699886322021484,0.7452018857002258
1630679029481,1.3309201002120972,0.712284505367279,1.1699886322021484,0.7452018857002258
1630679029481,1.3309201002120972,1.361185073852539,1.1699886322021484,0.7452018857002258
1630679029719,1.3309201002120972,1.6461405754089355,1.1699886322021484,0.7452018857002258
1630679029719,1.3309201002120972,1.331771731376648,1.1699886322021484,0.7452018857002258
1630679029875,1.3309201002120972,1.6461405754089355,1.1699886322021484,0.7452018857002258
1630679029891,1.3309201002120972,1.6461405754089355,1.1699886322021484,0.7452018857002258
1630679030063,1.3309201002120972,1.6461405754089355,1.1699886322021484,0.7452018857002258
1630679030125,1.3309201002120972,1.7051414251327517,1.1699886322021484,0.7452018857002258
1630679030141,1.1818559169769287,2.3237762451171875,1.1699886322021484,0.7452018857002258
1630679030141,1.3309201002120972,1.78780996799469,1.1699886322021484,0.7452018857002258
1630679030266,1.1818559169769287,2.323491096496582,1.1699886322021484,0.7452018857002258
1630679030297,1.1818559169769287,2.496347427368164,1.1699886322021484,0.7452018857002258
1630679030297,1.1818559169769287,2.331078290939331,1.1699886322021484,0.7452018857002258
1630679030313,1.1818559169769287,2.331855535507202,1.1699886322021484,0.7452018857002258
1630679030453,2.714435577392578,2.515430450439453,1.1699886322021484,0.7452018857002258
1630679030500,2.714435577392578,2.5152857303619385,1.1699886322021484,0.7452018857002258
1630679030531,2.714435577392578,2.5013461112976074,1.1699886322021484,0.7452018857002258
1630679030627,2.714435577392578,2.501483201980591,1.137163519859314,0.7452018857002258
1630679030627,2.714435577392578,2.512610673904419,1.137163519859314,0.7452018857002258
1630679030705,2.714435577392578,2.512610673904419,1.137163519859314,0.7452018857002258
1630679030815,2.714435577392578,2.512610673904419,1.137163519859314,0.7452018857002258
1630679030830,2.714435577392578,2.512610673904419,1.137163519859314,0.7452018857002258
1630679030971,2.714435577392578,2.540616750717163,1.137163519859314,0.7452018857002258
1630679031174,2.714435577392578,2.564877510070801,1.137163519859314,0.7452018857002258
1630679031205,2.714435577392578,2.2583982944488525,1.137163519859314,0.7452018857002258
1630679031221,2.714435577392578,2.3157453536987305,1.137163519859314,0.7452018857002258
1630679031283,2.714435577392578,2.3663458824157715,1.137163519859314,0.7452018857002258
1630679031346,2.714435577392578,2.4449901580810547,1.137163519859314,0.7452018857002258
1630679031439,2.714435577392578,1.6892095804214478,1.137163519859314,0.7452018857002258
1630679031517,2.714435577392578,1.6892095804214478,1.137163519859314,0.7452018857002258
1630679031660,2.714435577392578,1.6892095804214478,1.137163519859314,0.7452018857002258
1630679031754,2.714435577392578,1.6892095804214478,1.137163519859314,0.7452018857002258
1630679031926,2.714435577392578,1.6892095804214478,1.137163519859314,0.7452018857002258
1630679032129,2.714435577392578,1.6892095804214478,1.137163519859314,0.7452018857002258
1630679032160,2.714435577392578,1.6892095804214478,1.137163519859314,0.7452018857002258
1630679032238,2.714435577392578,1.6892095804214478,1.137163519859314,0.7452018857002258
1630679032285,2.714435577392578,1.6892095804214478,1.137163519859314,0.7452018857002258
1630679032316,2.714435577392578,1.6892095804214478,1.137163519859314,0.7452018857002258
1630679032488,2.714435577392578,1.6892095804214478,1.137163519859314,0.7452018857002258
1630679032566,2.714435577392578,1.6892095804214478,1.137163519859314,0.7452018857002258
1630679032660,2.714435577392578,1.6892095804214478,1.137163519859314,0.7452018857002258
1630679032725,2.714435577392578,1.6892095804214478,1.137163519859314,0.7452018857002258
1630679032912,2.714435577392578,1.6892095804214478,1.137163519859314,0.7452018857002258
1630679032959,2.714435577392578,1.6892095804214478,1.137163519859314,0.7452018857002258
1630679033068,2.714435577392578,1.6892095804214478,1.137163519859314,0.7452018857002258
1630679033146,2.714435577392578,1.6892095804214478,1.137163519859314,0.7452018857002258
1630679033256,2.714435577392578,1.6892095804214478,0.1659635752439499,0.7452018857002258
1630679033396,2.714435577392578,1.6892095804214478,0.2078752517700195,0.7452018857002258
1630679033475,2.714435577392578,1.6892095804214478,0.3077711462974548,0.7452018857002258
1630679033664,0.7658563256263733,1.6892095804214478,0.4230382442474365,0.7452018857002258
1630679033805,0.8721932768821716,0.6138831377029419,0.5099022388458252,0.7452018857002258
1630679033946,0.9413514137268066,0.6054162979125977,0.5610307455062866,0.7452018857002258
1630679033961,0.9838773012161256,0.603269100189209,0.5859301686286926,0.7452018857002258
1630679033977,1.0221073627471924,0.6060923337936401,0.5942749977111816,0.7452018857002258
1630679034117,1.055660605430603,0.6139132976531982,0.5877960920333862,0.7452018857002258
1630679034165,1.08778977394104,0.6296216249465942,0.5714145302772522,0.7452018857002258
1630679034320,1.08778977394104,0.645447313785553,0.5662032961845398,0.7452018857002258
1630679034383,1.08778977394104,0.6712941527366638,0.5662032961845398,0.7452018857002258
1630679034494,1.08778977394104,0.6712941527366638,0.5761429071426392,0.7452018857002258
1630679034572,1.08778977394104,0.6712941527366638,0.6003419160842896,0.7452018857002258
1630679034697,1.08778977394104,0.6712941527366638,0.6306898593902588,0.7452018857002258
1630679034806,1.1242015361785889,0.6712941527366638,0.6599208116531372,0.7452018857002258
1630679034869,1.1634950637817385,0.6726670265197754,0.6841740012168884,0.7452018857002258
1630679034962,1.197152853012085,0.6761035919189453,0.6921247243881226,0.7452018857002258
1630679035041,1.217800855636597,0.6860978603363037,0.6736928820610046,0.7452018857002258
1630679035204,1.231210470199585,0.7009860277175903,0.6314526200294495,0.7452018857002258
1630679035297,1.2429243326187134,0.7194591164588928,0.5753614902496338,0.7452018857002258
1630679035438,1.2429243326187134,0.740954577922821,0.5125693678855896,0.7452018857002258
1630679035504,1.2429243326187134,0.7661009430885315,0.5125693678855896,0.7452018857002258
1630679035675,1.2429243326187134,0.7661009430885315,0.5125693678855896,0.7452018857002258
1630679035691,1.2429243326187134,0.7661009430885315,0.5125693678855896,0.7452018857002258
1630679035896,1.2429243326187134,0.7661009430885315,0.5125693678855896,0.7452018857002258
1630679035928,1.2429243326187134,0.7661009430885315,0.5125693678855896,0.7452018857002258
1630679036022,1.2429243326187134,0.7661009430885315,0.5125693678855896,0.7452018857002258
1630679036209,1.2429243326187134,0.7661009430885315,0.5125693678855896,0.7452018857002258
1630679036302,1.2429243326187134,0.7661009430885315,0.5125693678855896,0.7452018857002258
1630679036302,1.2429243326187134,0.7661009430885315,0.5125693678855896,0.7452018857002258
1630679036443,1.2429243326187134,0.7661009430885315,0.5125693678855896,0.7452018857002258
1630679036505,1.2429243326187134,0.7661009430885315,0.5125693678855896,0.7452018857002258
1630679036696,1.2429243326187134,0.7661009430885315,0.5125693678855896,0.7452018857002258
1630679036836,1.2429243326187134,0.7661009430885315,0.5125693678855896,0.7452018857002258
1630679036914,1.2429243326187134,0.7661009430885315,0.5125693678855896,0.7452018857002258
1630679037211,1.2429243326187134,0.7661009430885315,0.5125693678855896,0.7452018857002258
1630679037351,1.2429243326187134,0.7661009430885315,0.5125693678855896,0.7452018857002258
1630679037383,1.2429243326187134,0.7661009430885315,0.5125693678855896,0.7452018857002258
1630679037492,1.2429243326187134,0.7661009430885315,0.5125693678855896,0.7452018857002258
1630679037667,1.2429243326187134,0.7661009430885315,0.5125693678855896,0.7452018857002258
1630679037760,1.2429243326187134,0.7661009430885315,0.5125693678855896,0.7452018857002258
1630679037901,1.2429243326187134,0.7661009430885315,0.5125693678855896,0.7452018857002258
1630679037979,1.2429243326187134,0.7661009430885315,0.5125693678855896,0.7452018857002258
1630679038229,1.2429243326187134,0.7661009430885315,0.5125693678855896,0.7452018857002258
1630679038229,1.2429243326187134,0.7661009430885315,0.5125693678855896,0.7452018857002258
1630679038338,1.2429243326187134,0.7661009430885315,0.5125693678855896,0.7452018857002258
1630679038432,1.2429243326187134,0.7661009430885315,0.5125693678855896,0.7452018857002258
1630679038447,1.2429243326187134,0.7661009430885315,0.5125693678855896,0.7452018857002258
1630679038463,1.2429243326187134,0.7661009430885315,0.5125693678855896,0.7452018857002258
1630679038494,1.2429243326187134,0.7661009430885315,0.5125693678855896,0.7452018857002258
1630679038525,1.2429243326187134,1.1586366891860962,0.9958588480949402,0.7452018857002258
1630679038603,1.2429243326187134,1.0859596729278564,0.922789990901947,0.7452018857002258
1630679038809,1.2429243326187134,1.0199267864227295,0.775897741317749,0.7452018857002258
1630679038856,1.2429243326187134,0.9609287977218628,0.695694088935852,0.7452018857002258
1630679038966,0.6673018336296082,0.9101328253746032,0.6391642093658447,0.7452018857002258
1630679039153,0.6459733843803406,0.8646541833877563,0.5972256660461426,0.7452018857002258
1630679039372,0.6407373547554016,0.823337972164154,0.5685309767723083,0.7452018857002258
1630679039481,0.6407373547554016,1.2932709455490112,1.2807573080062866,0.7452018857002258
1630679039559,0.6407373547554016,1.2562155723571775,1.2413784265518188,0.7452018857002258
1630679039575,0.6407373547554016,1.221943974494934,1.205695629119873,0.7452018857002258
1630679039622,0.686676025390625,1.1899724006652832,1.1725507974624634,0.7452018857002258
1630679039655,0.7030443549156189,1.1601617336273191,1.1416970491409302,0.7452018857002258
1630679039953,0.6955875754356384,1.070691466331482,1.1124171018600464,0.7452018857002258
1630679040109,0.6720889210700989,1.0574508905410769,1.0846867561340332,0.7452018857002258
1630679040234,0.6507718563079834,1.042410373687744,1.063786268234253,0.6535359025001526
1630679040359,0.6368595361709595,1.0300711393356323,1.048850655555725,0.7159110903739929
1630679040455,0.5967933535575867,1.022976040840149,1.043553113937378,0.8730136752128601
1630679040486,0.7102898359298706,1.0180901288986206,1.0551774501800537,0.8730136752128601
1630679040486,0.6357036828994751,1.0196824073791504,1.0468332767486572,0.8730136752128601
1630679040830,0.7756854891777039,1.016435623168945,1.0638140439987185,0.8730136752128601
1630679040892,0.8495936393737793,1.04878830909729,1.0713917016983032,0.8730136752128601
1630679040955,0.916934072971344,1.0485597848892212,1.0759543180465698,0.8730136752128601
1630679041033,0.9988018274307252,0.1158598065376281,0.423980712890625,0.8730136752128601
1630679041220,1.1070293188095093,0.1692979633808136,0.4391838908195495,0.8730136752128601
1630679041345,1.2155078649520874,0.2560724020004272,0.4751430153846741,0.8730136752128601
1630679041439,1.3128564357757568,0.3550785183906555,0.5267592072486877,0.8730136752128601
1630679041534,1.3337750434875488,0.4371380805969238,0.5778929591178894,0.9039028882980348
1630679041691,1.359768271446228,0.691939651966095,0.773548424243927,0.9494150280952454
1630679041737,1.3910906314849854,0.7083630561828613,0.7896608114242554,0.9494150280952454
1630679041784,1.48324716091156,0.9846141934394836,0.7947336435317993,0.9494150280952454
1630679041816,1.4970148801803589,1.016779899597168,0.7923781871795654,0.9494150280952454
1630679041894,1.4938033819198608,1.019115686416626,0.7856746912002563,0.9494150280952454
1630679041925,1.5010740756988523,1.0495710372924805,0.7753614187240601,1.0293949842453003
1630679041941,1.4905743598937988,1.0509679317474363,0.7598148584365845,0.9908428192138672
1630679041987,1.4796738624572754,1.0518475770950315,0.7397822737693787,0.9545325636863708
1630679042050,1.462203860282898,1.019266963005066,0.7180353403091431,0.9271947741508484
1630679042081,1.4412219524383545,1.0194169282913208,0.6991381645202637,0.9197371602058412
1630679042269,1.404945969581604,1.027096152305603,0.7051239609718323,1.404893159866333
1630679042347,1.329869031906128,1.0202404260635376,0.6857801675796509,1.3796241283416748
1630679042487,1.2007182836532593,1.006413817405701,0.6533690690994263,1.3584051132202148
1630679042519,1.0092744827270508,0.9861897230148317,0.6058868169784546,1.3407294750213623
1630679042706,0.9825322031974792,0.9645032286643982,0.5489538908004761,1.3261632919311523
1630679042753,0.9905328750610352,0.8892655372619629,0.1254492402076721,1.3126821517944336
1630679042831,0.9663907885551452,0.8779792189598083,0.0321770645678043,1.296316146850586
1630679042893,0.6573927998542786,0.4756197333335876,-0.0217283740639686,1.2936115264892578
1630679043018,0.5615039467811584,0.3472050130367279,-0.0468493849039077,1.2635345458984375
1630679043159,0.5509580373764038,0.3301837146282196,-0.0642111673951149,1.2559672594070437
1630679043237,0.4209678173065185,0.1313071548938751,-0.0769741386175155,1.2508033514022827
1630679043315,0.4080761671066284,0.1138795167207717,-0.0777825117111206,1.2485060691833496
1630679043456,0.3991518914699554,0.1049999818205833,-0.0680535212159156,1.250633955001831
1630679043534,0.3939601182937622,0.1007720679044723,-0.055267360061407,1.255475640296936
1630679043616,0.3922867178916931,0.0987986177206039,-0.051402747631073,1.258897066116333
1630679043788,0.363428920507431,0.0066209523938596,-0.2073897272348404,0.8990787267684937
1630679043928,0.3721697330474853,0.0098536815494298,-0.2227915674448013,0.8867013454437256
1630679043991,0.3864130675792694,0.0180817414075136,-0.2300417870283126,0.8703874349594116
1630679044038,0.4013110995292663,0.0261790864169597,-0.2228244394063949,0.8479597568511963
1630679044163,0.4145851731300354,0.0323840864002704,-0.2117483466863632,0.8161661624908447
1630679044225,0.3113113045692444,-0.4395053386688232,-0.205993115901947,0.7775282263755798
1630679044350,0.3452293276786804,-0.4370823204517364,-0.2091293781995773,0.7513359189033508
1630679044459,0.3838672041893005,-0.4356639087200165,-0.2215943038463592,0.7589552998542786
1630679044553,0.4227049946784973,-0.4313194751739502,-0.2301218807697296,0.7935076951980591
1630679044824,0.4627742171287536,-0.4263815879821777,-0.2285096943378448,0.8363673686981201
1630679044887,0.5020228624343872,-0.424306571483612,-0.2180556952953338,0.8749589920043945
1630679044980,0.5404887199401855,-0.4304229617118835,-0.2012662440538406,0.9262757897377014
1630679045043,0.5718737840652466,-0.449012279510498,-0.1835959702730178,0.9915146231651306
1630679045090,0.5860002040863037,-0.4731611311435699,-0.1704895496368408,1.0437541007995603
1630679045136,0.5952714085578918,-0.4925170838832855,-0.1635496020317077,1.0706220865249634
1630679045261,0.6066135764122009,-0.4861529171466827,-0.1633352935314178,1.076951503753662
1630679045386,0.6187869310379028,-0.4473187029361725,-0.1694590449333191,1.0363978147506714
1630679045449,0.6246640086174011,-0.3946503102779388,-0.1851365268230438,0.9934183955192566
1630679045543,0.624576985836029,-0.349160760641098,-0.2112667858600616,0.9547173976898192
1630679045718,0.6172635555267334,-0.3266086876392364,-0.2340250313282013,0.920112371444702
1630679045843,0.6016212105751038,-0.3198628425598144,-0.2425617724657058,0.8921747207641602
1630679045921,0.5777727961540222,-0.3218971192836761,-0.2374802827835083,0.8736510276794434
1630679045999,0.5504083037376404,-0.3302311301231384,-0.221660777926445,0.863894522190094
1630679046155,0.5219359397888184,-0.3427508771419525,-0.2063813656568527,0.8640038371086121
1630679046436,0.4897483289241791,-0.3549650609493255,-0.1996737569570541,0.8695111274719238
1630679046483,0.45273557305336,-0.3635394275188446,-0.2129334658384323,0.880196213722229
1630679046577,0.4074398279190063,-0.3624977767467499,-0.2559242844581604,0.8882246017456055
1630679046690,0.3534093499183655,-0.3506649732589721,-0.3208862245082855,0.8815476894378662
1630679046690,0.3138335645198822,-0.3395740091800689,-0.3791961669921875,0.8616311550140381
1630679046783,0.2799378931522369,-0.3418284654617309,-0.4006036221981048,0.8326589465141296
1630679046955,0.2476516515016555,-0.3695462048053741,-0.3906970024108886,0.8053818941116333
1630679047049,0.2222287654876709,-0.4296160340309143,-0.36849045753479,0.7916756272315979
1630679047111,0.2184874415397644,-0.5149762630462646,-0.3490063846111297,0.7868462800979614
1630679047251,0.221371129155159,-0.5956819653511047,-0.3353123664855957,0.7841671705245972
1630679047330,0.2396212071180343,-0.6281400918960571,-0.3341690599918365,0.7802915573120117
1630679047580,0.2881169319152832,-0.6188082695007324,-0.3439427316188812,0.7784508466720581
1630679047810,0.3634120523929596,-0.593441367149353,-0.3512012660503387,0.7915809154510498
1630679048014,0.440984845161438,-0.5703810453414917,-0.3480268120765686,0.8354306817054749
1630679048154,0.5055058598518372,-0.5524000525474548,-0.3418034315109253,0.8985864520072937
1630679048378,0.5443339347839355,-0.53401118516922,-0.3379401862621307,0.9575614333152772
1630679048533,0.6487467885017395,0.0301921777427196,0.1323897987604141,0.9899575114250184
1630679048722,0.6485496759414673,0.0325726270675659,0.139252632856369,0.984202802181244
1630679048827,0.6474456787109375,0.5868522524833679,0.1486845165491104,0.9778794646263124
1630679048839,0.6449869275093079,0.587211012840271,0.1553612053394317,0.9786401391029358
1630679048860,1.052273869514465,1.0339374542236328,0.9147949814796448,0.9753211736679076
1630679049011,1.050904393196106,1.0345497131347656,0.9148685932159424,0.9784167408943176
1630679049025,1.3839914798736572,1.3877946138381958,0.9148110151290894,1.0186845064163208
1630679049129,1.381792664527893,1.3883817195892334,0.9147420525550842,1.02438223361969
1630679049152,1.6610112190246582,1.6662403345108032,0.9146503806114196,1.5584701299667358
1630679049189,1.7012033462524414,1.708888053894043,1.10090172290802,1.625084638595581
1630679049250,1.7964321374893188,1.807931661605835,1.395650029182434,1.632134199142456
1630679049339,1.797313213348389,1.8081700801849363,1.3956979513168335,1.646994948387146
1630679049448,1.8490642309188845,1.878528952598572,1.4972645044326782,1.6720805168151855
1630679049542,1.8523670434951784,1.8789629936218264,1.4974921941757202,1.6933507919311523
1630679049683,1.855833888053894,1.879631757736206,1.4976729154586792,1.7157071828842163
1630679049683,1.8787120580673216,1.8999022245407104,1.549404501914978,1.7110624313354492
1630679049729,1.8842923641204836,1.9037446975708008,1.6254979372024536,1.7110624313354492
1630679049870,1.8853251934051516,1.8889720439910889,1.625562310218811,1.7110624313354492
1630679050026,1.8860870599746704,1.8893457651138303,1.6258777379989624,1.7110624313354492
1630679050120,1.8738272190093996,1.8728656768798828,1.6052778959274292,1.777727484703064
1630679050151,1.8740216493606567,1.889209032058716,1.6054788827896118,1.778751254081726
1630679050585,1.7909953594207764,1.8060845136642456,1.605468988418579,1.770694375038147
1630679050585,1.791252374649048,1.8115334510803225,1.605398416519165,1.769007921218872
1630679051021,1.602696657180786,1.6326013803482056,1.6054742336273191,1.3887453079223633
1630679051144,1.5508537292480469,1.5817259550094604,1.5555830001831057,1.2144412994384766
1630679051176,1.392509937286377,1.627530574798584,1.4053236246109009,1.25630521774292
1630679051195,1.9402358531951904,2.288580656051636,1.4055711030960083,1.23520028591156
1630679051236,1.925889015197754,2.2626049518585205,1.6651341915130615,1.23520028591156
1630679051236,1.9522298574447632,2.2795212268829346,1.7276378870010376,1.23520028591156
1630679051347,1.9506100416183472,2.2793548107147217,1.7279036045074463,1.23520028591156
1630679051451,1.9356151819229128,2.301258087158203,1.6922868490219116,1.2404218912124634
1630679051529,1.934945821762085,2.299973487854004,1.628252387046814,1.2168209552764893
1630679051578,1.9563043117523196,2.34537935256958,1.6584409475326538,1.7046077251434326
1630679051578,2.239596128463745,2.589195489883423,1.65807044506073,1.7319036722183228
1630679051695,2.2268426418304443,2.585124254226685,1.6093162298202517,1.6623891592025757
1630679051849,2.6124768257141118,2.6823039054870605,1.7025701999664309,2.5590574741363525
1630679051943,2.6492714881896973,2.689810514450073,1.91764497756958,2.604367733001709
1630679052037,2.6497950553894043,2.689781665802002,1.917774200439453,2.655247449874878
1630679052121,2.650396585464477,2.6903772354125977,1.9178529977798464,2.6612908840179443
1630679052183,2.6568548679351807,2.713490724563598,1.9414989948272705,2.670469045639038
1630679052246,2.656570672988892,2.699347972869873,1.9366635084152224,2.6699180603027344
1630679052456,2.5810000896453857,2.5423243045806885,1.9366828203201292,2.61951231956482
1630679052518,2.5590908527374268,2.6377315521240234,1.7720478773117063,2.5427722930908203
1630679052518,2.588927745819092,2.640058279037476,1.821919083595276,2.5744221210479736
1630679052584,2.5584349632263184,2.6377031803131104,1.7714877128601074,2.50538969039917
1630679052600,2.555871963500977,2.623257160186768,1.7663837671279907,2.470976591110229
1630679052631,2.563159465789795,2.630064010620117,1.7659058570861816,2.4702916145324707
1630679052820,2.5586979389190674,2.606998920440674,1.7422776222229004,2.432427167892456
1630679052829,2.4624485969543457,2.43098783493042,1.7422094345092771,2.422558069229126
1630679053003,2.462297916412353,2.430314540863037,1.7421488761901855,2.4338345527648926
1630679053018,1.9093992710113523,2.2304883003234863,1.6574503183364868,1.4525861740112305
1630679053065,1.6993939876556396,2.2082836627960205,1.11777925491333,1.431032657623291
1630679053097,1.6995819807052612,2.206160306930542,1.118111491203308,1.4129303693771362
1630679053190,1.702428698539734,2.2043979167938232,1.1207808256149292,1.363206386566162
1630679053446,1.7219510078430176,2.1477038860321045,0.940757930278778,1.2640786170959473
1630679053604,1.7223515510559082,2.145787000656128,0.9133021831512452,1.2429369688034058
1630679053683,1.7502126693725586,2.1460118293762207,0.9260064363479614,1.5890297889709473
1630679053901,1.3750585317611694,1.7173104286193848,0.1516623497009277,1.5907790660858154
1630679054043,1.4075889587402344,1.6750017404556274,0.2357397228479385,1.5286270380020142
1630679054152,1.4426777362823486,1.6759896278381348,0.2975867986679077,1.5303373336791992
1630679054258,1.479786038398743,1.6764130592346191,0.3313589692115783,1.531653881072998
1630679054383,1.3373689651489258,1.6101198196411133,0.341105043888092,1.5315186977386477
1630679054383,1.4245202541351318,1.6412688493728638,0.3402712047100067,1.532596230506897
1630679054522,1.4221760034561155,1.0692805051803589,0.3372928202152252,1.5351239442825315
1630679054682,1.4195960760116575,1.0712594985961914,0.336199402809143,1.459854245185852
1630679054853,1.4176937341690063,1.074326753616333,0.3376912176609039,1.465663194656372
1630679054963,1.4133450984954834,1.0775781869888306,0.3374174237251282,1.4694606065750122
1630679055228,1.4005706310272217,1.0796823501586914,0.3283703327178955,1.4685773849487305
1630679055291,0.9975788593292236,0.6773907542228699,0.2672813534736633,1.4607467651367188
1630679055291,1.3730874061584473,1.0790477991104126,0.3049431145191192,1.4649759531021118
1630679055400,0.8777912259101868,1.5643199682235718,0.2119821608066558,1.4562188386917114
1630679055400,0.850950300693512,1.5618177652359009,0.1390594840049743,0.8499569892883301
1630679055447,0.8330370783805847,1.6931581497192385,0.0392082706093788,1.1663484573364258
1630679055556,0.9280335307121276,2.2597053050994877,0.3857662677764892,1.159273982048035
1630679055603,0.9113525748252868,2.259629249572754,0.3374899327754974,1.5366464853286743
1630679055654,0.893836498260498,2.259709119796753,0.3051739931106567,1.5355792045593262
1630679055889,0.874264121055603,2.2598345279693604,0.294918030500412,1.5365815162658691
1630679056138,0.6436336040496826,2.252581834793091,0.297492653131485,1.538164496421814
1630679056185,0.6304095387458801,2.2525289058685303,0.3058233559131622,1.611197590827942
1630679056263,0.9094496965408324,2.311514139175415,0.8175278902053833,1.6098686456680298
1630679056263,0.903581202030182,2.311314105987549,0.9798138737678528,1.6303611993789673
1630679056387,0.8978176712989807,2.311127185821533,0.9808111786842346,1.6530084609985352
1630679056497,0.8936944007873535,2.561882257461548,0.9820787906646729,1.6806117296218872
1630679056590,1.2687592506408691,2.574141263961792,1.2960883378982544,1.7135558128356934
1630679056684,1.2694844007492063,2.574181318283081,1.2970569133758545,1.7514320611953735
1630679056731,1.270212173461914,2.5354490280151367,1.2981642484664917,1.794392228126526
1630679056887,1.270802021026611,2.535590887069702,1.2991405725479126,1.842753767967224
1630679057022,1.270763874053955,2.5188679695129395,1.2998448610305786,1.7934366464614868
1630679057147,1.2334558963775637,2.295923948287964,1.2629132270812988,1.8567278385162356
1630679057639,1.230502724647522,2.2958083152771,1.2627911567687988,1.40194833278656
1630679057970,1.226842761039734,2.295595645904541,1.2625713348388672,1.4085934162139893
1630679058001,1.2241517305374146,2.2954084873199463,1.262283444404602,1.3967041969299316
1630679058142,1.3064110279083252,2.301976203918457,1.325985550880432,1.4696598052978516
1630679058323,1.3065894842147827,2.312319278717041,1.3254177570343018,1.4696598052978516
1630679058369,1.2128208875656128,2.2533183097839355,1.2205569744110107,1.4696598052978516
1630679058401,1.269896388053894,2.341334581375122,1.1343125104904177,1.4696598052978516
1630679058401,1.3024221658706665,2.058310270309448,1.133750557899475,1.4696598052978516
1630679058418,1.2401498556137085,2.3398609161376958,1.1349196434020996,1.4696598052978516
1630679058528,0.8347834348678589,2.016798973083496,0.5369352698326111,1.4696598052978516
1630679058556,1.7103101015090942,2.140740394592285,0.5264110565185547,2.832849502563477
1630679058572,1.716861605644226,2.14052963256836,0.5218521952629089,2.754133462905884
1630679058572,1.6108429431915283,2.1166296005249023,0.5323353409767151,2.913147211074829
1630679058697,1.725939154624939,2.140270709991455,0.5207319855690002,2.687565565109253
1630679058791,1.8180972337722776,2.17085075378418,1.1567237377166748,3.4654343128204346
1630679058900,1.854462742805481,2.553267240524292,1.5603435039520264,3.610990285873413
1630679058931,1.8950260877609253,2.5552546977996826,1.5608880519866943,3.6552422046661377
1630679058994,1.9401788711547847,2.6762194633483887,1.5614748001098633,3.706378221511841
1630679059134,1.9603285789489744,2.682462692260742,1.5269886255264282,3.706378221511841
1630679059197,2.017360210418701,2.7069544792175293,1.6154402494430542,3.706378221511841
1630679059259,2.0210249423980717,2.7069613933563232,1.6194427013397217,3.6553354263305664
1630679059259,1.9992730617523196,2.6744790077209477,1.6437751054763794,3.671154260635376
1630679059306,1.951117157936096,2.67380690574646,1.647135615348816,3.671154260635376
1630679059463,1.9561748504638672,2.6270506381988525,1.6496014595031738,3.671154260635376
1630679059828,2.38503646850586,2.719416856765747,1.7307374477386477,3.620044946670532
1630679059968,2.326629161834717,2.7026400566101074,1.78267240524292,3.619051694869995
1630679060278,2.30025577545166,2.6960911750793457,1.782957673072815,3.61759090423584
1630679060376,2.3077280521392822,2.698494672775269,1.783293604850769,3.617579460144043
1630679060579,2.304410219192505,2.698495864868164,1.7837753295898438,3.617591142654419
1630679060586,2.3284354209899902,2.495178461074829,1.788595199584961,2.695228099822998
1630679060593,2.369565963745117,2.7177157402038574,1.920923113822937,3.2972002029418945
1630679060795,2.3030993938446045,2.534497737884521,1.7893110513687134,1.808106780052185
1630679060798,2.2910702228546143,2.5110347270965576,1.7889057397842407,1.808106780052185
1630679060801,2.545876264572144,2.5516562461853027,1.9284816980361936,1.808106780052185
1630679060905,2.516498327255249,2.549100875854492,1.8871290683746336,1.85733163356781
1630679060932,2.516477584838867,2.538733720779419,1.8885225057601929,1.808106780052185
1630679060953,2.5117316246032715,2.5452423095703125,1.8739638328552248,1.8088016510009768
1630679060961,2.5137476921081543,2.5460398197174072,1.876109480857849,1.922218680381775
1630679061061,2.60330581665039,2.6333298683166504,2.182466506958008,2.074004888534546
1630679061341,2.48186469078064,2.5015792846679688,2.164913892745972,2.0774900913238525
1630679061461,2.472782850265503,2.490410566329956,2.1442251205444336,2.079427480697632
1630679061508,2.4731252193450928,2.765207290649414,2.144120693206787,2.079922914505005
1630679061666,2.520967483520508,2.795896053314209,2.143918037414551,2.124716520309448
1630679061712,2.520960092544556,2.795905828475952,2.1436119079589844,2.1744306087493896
1630679061728,2.4799904823303223,2.7702033519744877,2.030416250228882,2.00658655166626
1630679061757,2.485017776489258,2.770192146301269,2.04209566116333,2.0275328159332275
1630679061899,2.491279602050781,2.762796401977539,2.041741371154785,1.9704804420471191
1630679061928,2.466506242752075,2.6295037269592285,2.0441298484802246,2.0171492099761963
1630679062025,2.1439132690429688,2.59737229347229,1.9410202503204343,1.9726667404174805
1630679062118,2.1443734169006348,2.5674660205841064,1.9402254819869995,1.9773885011672971
1630679062222,2.161454439163208,2.565308094024658,1.9642035961151123,1.940439820289612
1630679062269,2.161660671234131,2.5653533935546875,1.9640830755233765,1.9368752241134644
1630679062425,2.157737493515014,2.565206527709961,1.9621206521987915,1.8256934881210327
1630679062519,1.7978373765945437,2.496565103530884,1.18062162399292,1.4926207065582275
1630679062688,1.8292583227157595,2.5242810249328613,1.108878254890442,1.624807834625244
1630679062813,1.854884386062622,2.5589187145233154,1.138723850250244,1.6243646144866943
1630679062844,1.8840303421020508,1.859546780586243,1.1718670129776,1.6761313676834106
1630679063000,1.552944898605347,1.299862504005432,1.2086538076400757,1.647203803062439
1630679063047,1.5582538843154907,1.3437964916229248,1.2491639852523804,1.619536519050598
1630679063141,1.5311046838760376,1.3374079465866089,1.2275782823562622,1.593600153923035
1630679063172,1.477344632148743,1.3946377038955688,1.1238030195236206,1.5932271480560305
1630679063234,1.398098349571228,1.2366904020309448,1.1809451580047607,1.624131679534912
1630679063360,1.4001431465148926,1.2680188417434692,1.2006572484970093,1.475054144859314
1630679063521,1.405994892120361,1.3617417812347412,1.2792519330978394,1.5094929933547974
1630679063636,1.4056013822555542,1.3617417812347412,1.3753901720046997,1.3985413312911987
1630679063699,1.2631592750549316,1.3617417812347412,1.3753901720046997,1.4435720443725586
1630679063808,1.244742512702942,1.3617417812347412,1.3753901720046997,1.494270920753479
1630679063808,1.2533199787139893,1.3617417812347412,1.3753901720046997,1.4771875143051147
1630679063902,1.2383122444152832,1.3617417812347412,1.3753901720046997,1.5014488697052002
1630679063917,0.8235307335853577,1.3617417812347412,1.3753901720046997,1.2498952150344849
1630679064120,0.7712087631225586,0.6915496587753296,1.3753901720046997,1.060525894165039
1630679064120,0.7964065074920654,1.3617417812347412,1.3753901720046997,1.2465307712554932
1630679064261,0.7473652362823486,0.6706461310386658,0.2458408176898956,1.0579248666763306
1630679064324,0.7154229879379272,0.6414710283279419,0.212324857711792,1.0662517547607422
1630679064448,0.6832699179649353,0.6095611453056335,0.1592108607292175,1.0794445276260376
1630679064558,0.6493915319442749,0.5715680122375488,0.1029441952705383,1.06827712059021
1630679064669,0.6023274064064026,0.5341526865959167,0.0521938689053058,1.0521304607391355
1630679064872,0.5395009517669678,0.5020800828933716,0.0109274098649621,1.0292909145355225
1630679064935,0.4697898328304291,0.476320207118988,-0.0170453730970621,1.0025664567947388
1630679065044,0.3999577164649963,0.4599051177501678,-0.0308297146111726,0.9771636128425598
1630679065201,0.3258123397827148,0.4450743794441223,-0.0383926667273044,0.8852689862251282
1630679065248,0.2414206862449646,0.4285649955272674,-0.0438641905784606,0.7955141663551331
1630679065461,0.1729410290718078,0.4149633347988128,-0.0292514078319072,0.7425755262374878
1630679065649,0.1303908973932266,0.3926292955875397,0.0153881702572107,0.7187990546226501
1630679065758,0.1093082204461097,0.3550142049789428,0.0555061250925064,0.7040138840675354
1630679065933,0.1141028329730033,0.3554789125919342,0.1062219440937042,0.69781893491745
1630679066011,0.1518650650978088,0.316661387681961,0.0915809199213981,0.6928132176399231
1630679066136,0.6624358892440796,0.2885889708995819,0.0796335041522979,0.6784167885780334
1630679066339,0.6752327084541321,0.2712125480175018,0.0824562013149261,0.6497125625610352
1630679066482,0.6847012639045715,0.2754727602005005,0.1395375579595565,1.045458197593689
1630679066482,0.6804214715957642,0.2639482915401459,0.1048805341124534,1.0593128204345703
1630679066623,0.6949620842933655,0.2985708117485046,0.1805708706378936,1.0366312265396118
1630679066717,0.7153663635253906,0.3251238167285919,0.2250587940216064,1.1029257774353027
1630679066889,0.7478393316268921,0.3521313965320587,0.2703945338726043,1.105073094367981
1630679066998,0.7859262824058533,0.3706523478031158,0.3158084750175476,1.6018757820129397
1630679067093,0.8181922435760498,0.3966022133827209,0.7357521653175354,1.6018075942993164
1630679067248,0.8373656868934631,0.4444409608840942,0.9076102375984192,1.6007840633392334
1630679067474,0.870067834854126,0.4444409608840942,1.1215293407440186,1.5991191864013672
1630679067475,0.8974908590316772,0.4444409608840942,1.35840904712677,1.6316412687301636
1630679067478,0.8705564141273499,0.4444409608840942,1.1372872591018677,1.5981075763702393
1630679067610,0.9454750418663024,0.4444409608840942,1.2905381917953491,1.6570639610290527
1630679067610,0.9232160449028016,0.4444409608840942,1.3497350215911863,1.6305230855941772
1630679067657,0.7038344144821167,0.4444409608840942,1.2450203895568848,1.6860928535461426
1630679067673,1.13992440700531,0.4444409608840942,1.4555736780166626,1.7183218002319336
1630679067688,1.3156123161315918,0.4444409608840942,1.4159015417099,1.6689990758895874
1630679067735,1.3197052478790283,2.5591843128204346,1.3780165910720823,1.707628846168518
1630679067782,1.3191083669662476,2.4625728130340576,1.3419809341430664,1.7100237607955933
1630679068001,1.3301008939743042,2.388770341873169,1.330457091331482,1.7672702074050903
1630679068220,1.3191992044448853,2.32279896736145,1.2994240522384644,1.769213080406189
1630679068266,1.44650137424469,2.306035280227661,1.4285203218460083,1.2641849517822266
1630679068423,1.440021276473999,2.258413791656494,1.497151017189026,1.3048598766326904
1630679068579,1.4947115182876587,2.235725879669189,1.5368326902389526,1.351247787475586
1630679068766,1.4897778034210205,2.199986696243286,1.5134687423706057,1.4044950008392334
1630679068829,1.4927058219909668,2.199986696243286,1.5134637355804443,1.4366984367370603
1630679069063,1.4636181592941284,2.199986696243286,1.464382529258728,1.313178539276123
1630679069126,1.433582425117493,2.199986696243286,1.4682084321975708,1.3163117170333862
1630679069251,1.4786932468414309,2.199986696243286,1.5188021659851074,1.3163117170333862
1630679069313,1.4764776229858398,2.240300178527832,1.5197474956512451,1.3163117170333862
1630679069469,1.6448949575424194,1.566304087638855,1.4097466468811035,1.2757364511489868
1630679069469,1.6962133646011353,1.6193705797195437,1.4092679023742676,1.3163117170333862
1630679069500,1.6435132026672363,1.6228679418563845,1.4102997779846191,1.2757364511489868
1630679069579,1.6436201333999634,1.6320867538452148,1.4123140573501587,1.3159726858139038
1630679069672,1.6383367776870728,1.6202054023742676,1.404354691505432,0.844641387462616
1630679069688,1.6406456232070925,1.6385385990142822,1.4262686967849731,1.7741092443466189
1630679069906,1.5947144031524658,1.8050285577774048,1.1579633951187134,1.8196148872375488
1630679069906,1.5884666442871094,1.7528119087219238,1.2961727380752563,1.7901098728179932
1630679070000,1.5683597326278689,1.7693194150924685,1.01885724067688,1.7753233909606934
1630679070062,1.594831109046936,1.831572413444519,1.0383638143539429,1.7364052534103394
1630679070203,1.6243460178375244,1.831572413444519,1.0598620176315308,1.7322988510131836
1630679070375,1.6551969051361084,1.831572413444519,1.0841931104660034,1.7378615140914917
1630679070562,1.6914814710617063,1.831572413444519,1.1145384311676023,1.9339327812194824
1630679070644,1.6366885900497437,1.831572413444519,0.8293575048446655,1.8908809423446653
1630679070785,1.6445040702819824,1.7485406398773191,0.8471038341522217,1.8908809423446653
1630679070847,1.2082124948501587,1.7447534799575806,0.9210630059242249,1.9333125352859497
1630679070847,0.9638436436653136,1.7072677612304688,0.8739256262779236,1.8908809423446653
1630679070925,1.2170802354812622,1.7448220252990725,0.9300339221954346,1.9333125352859497
1630679071003,1.2095381021499634,1.7313140630722046,0.81928950548172,1.9333125352859497
1630679071003,1.2159056663513184,1.739260196685791,0.9124691486358644,1.9333125352859497
1630679071113,1.199419617652893,1.717980146408081,0.2725926339626312,1.7117253541946411
1630679071316,1.149664044380188,1.3588403463363647,0.2882200181484222,1.7021909952163696
1630679071347,1.1212691068649292,1.3131366968154907,0.3091410398483276,1.6116948127746582
1630679071472,1.080992579460144,1.2703219652175903,0.3102753758430481,1.5984365940093994
1630679071566,1.0494295358657837,1.230095386505127,0.2947222292423248,1.5836092233657837
1630679071662,1.376483678817749,1.515299677848816,1.4032949209213257,1.571445345878601
1630679071833,1.3473362922668457,1.4812519550323486,1.3585913181304932,1.5629265308380127
1630679071833,1.4440901279449463,1.5652761459350586,1.4927579164505005,0.7408839464187622
1630679071958,1.5055139064788818,1.6033453941345217,1.4554933309555054,0.7484333515167236
1630679072240,1.5376285314559937,1.6394851207733154,1.4214704036712646,0.7484333515167236
1630679072396,1.5217134952545166,1.625184178352356,1.3910911083221436,0.7131502628326416
1630679072583,1.4499255418777466,1.5692864656448364,1.3671748638153076,0.6817812919616699
1630679072646,1.446959137916565,1.5535006523132324,1.3930160999298096,0.6604006886482239
1630679072823,1.45692777633667,1.5842589139938354,1.4233061075210571,0.7288268208503723
1630679072823,1.4614230394363403,1.6172573566436768,1.45662522315979,0.7141841650009155
1630679072995,2.049302101135254,1.6911746263504028,1.5310251712799072,0.5819567441940308
1630679072995,2.0820066928863525,1.7348865270614624,1.5735523700714111,1.6516242027282717
1630679072995,1.510502576828003,1.652539610862732,1.492457389831543,0.6472529768943787
1630679073088,2.0831942558288574,1.784919500350952,1.622023582458496,1.6498898267745972
1630679073244,2.084249496459961,1.8424649238586424,1.6781084537506104,1.6502853631973269
1630679073572,2.0422496795654297,1.670255184173584,1.306649684906006,1.6509801149368286
1630679073572,2.043707609176636,1.7484344244003296,1.3838491439819336,1.6502089500427246
1630679073635,2.045121669769287,1.6003296375274658,0.6579106450080872,1.618650197982788
1630679073729,2.0569934844970703,1.6003296375274658,1.6798747777938845,1.618650197982788
1630679073846,2.077791690826416,1.6003296375274658,1.775724172592163,1.618650197982788
1630679073908,2.20089054107666,1.6003296375274658,2.02432918548584,1.7273131608963013
1630679073908,2.115199327468872,1.6003296375274658,2.004292249679565,1.6517164707183838
1630679073924,2.156047105789185,1.6003296375274658,2.02432918548584,1.6879478693008425
1630679074049,2.3042452335357666,1.6003296375274658,2.02432918548584,1.8106789588928225
1630679074049,2.248166799545288,1.6003296375274658,2.02432918548584,1.7622253894805908
1630679074174,2.3544390201568604,1.6003296375274658,1.9326332807540891,1.816815495491028
1630679074252,1.5079785585403442,1.6003296375274658,1.9545344114303589,1.893856406211853
1630679074315,0.8431105017662048,1.6003296375274658,1.8901523351669312,1.224181056022644
1630679074377,0.8431105017662048,1.6390398740768433,1.8339518308639529,1.2418612241744995
1630679074486,0.8431105017662048,1.544641137123108,1.783928632736206,1.251603364944458
1630679074611,0.8431105017662048,2.810724973678589,1.7495172023773191,2.8917384147644043
1630679074770,0.8431105017662048,2.8088667392730717,2.028001070022583,2.9815609455108643
1630679074833,2.154033899307251,2.7510573863983154,2.022273063659668,2.986553430557251
1630679075005,2.0575053691864014,2.700227975845337,1.932262897491455,2.9357106685638428
1630679075192,1.978727102279663,2.65498948097229,1.8947445154190063,2.8902180194854736
1630679075223,1.9121330976486208,2.614164113998413,1.81090784072876,2.850703716278076
1630679075239,1.8545423746109009,2.576849460601806,1.7986177206039429,2.813035488128662
1630679075411,1.8040691614151,2.542407989501953,1.7654058933258057,2.778372049331665
1630679075458,1.7593681812286377,2.510468006134033,1.7345741987228394,2.746283531188965
1630679075553,1.7202537059783936,2.480682134628296,1.7054154872894287,2.716447591781616
1630679075631,1.6867152452468872,2.478889226913452,1.7029975652694702,2.7161152362823486
1630679075788,1.6580718755722046,2.464769124984741,1.6343133449554443,2.7106821537017822
1630679075850,1.6328037977218628,2.464381456375122,1.6338469982147217,2.710841417312622
1630679076006,1.6093177795410156,2.4644417762756348,1.6342573165893557,2.7109925746917725
1630679076147,1.611897110939026,2.464542388916016,1.6348700523376465,2.711110591888428
1630679076319,1.6140893697738647,1.6483757495880127,1.6259541511535645,2.0338833332061768
1630679076319,0.5736589431762695,0.4329878389835357,0.1846116483211517,1.098622441291809
1630679076428,0.6050770282745361,0.4186147153377533,0.187999740242958,0.8100169897079468
1630679076540,0.6233934164047241,0.3908306956291199,0.1925983428955078,0.7869898676872253
1630679076696,0.6345838308334351,0.33975949883461,0.1970895826816558,0.7659972310066223
1630679076696,0.648808479309082,0.2747091054916382,0.198162630200386,0.5589185953140259
1630679076775,0.670077383518219,0.2196145504713058,0.1952489018440246,0.5467236042022705
1630679076915,0.6926542520523071,0.2022141814231872,0.1886687874794006,0.5398064851760864
1630679076978,0.7103661298751831,0.2137219607830047,0.1847430318593979,0.5342886447906494
1630679077103,0.7118090391159058,0.2379181236028671,0.1890851706266403,0.5228756070137024
1630679077243,0.6890338659286499,0.2545634508132934,0.1954572349786758,0.4935972690582275
1630679077274,0.6428173184394836,0.2554674446582794,0.1839415580034256,0.4333490431308746
1630679077337,0.5799481272697449,0.2406092286109924,0.1504009962081909,0.3325259983539581
1630679077621,0.5096821188926697,0.2216314673423767,0.1083799302577972,0.1913096755743026
1630679077683,0.450808584690094,0.2203750163316726,0.080335609614849,0.0527161695063114
1630679077855,0.4049791395664215,0.253231942653656,0.0850513577461242,-0.0352822914719581
1630679077933,0.3574414849281311,0.341560035943985,0.1380454301834106,-0.0756600722670555
1630679078089,0.3091690242290497,0.3639163374900818,0.1617392599582672,-0.0819029062986373
1630679078152,0.2944300174713135,0.3836011588573456,0.1849005967378616,-0.0390463136136531
1630679078339,0.3179444074630737,0.3999598622322082,0.2011932283639907,0.5440468192100525
1630679078418,0.3717842102050781,0.4179447293281555,0.2040045857429504,0.585577130317688
1630679078670,0.3511586189270019,0.4348931908607483,0.1906662732362747,0.6348564624786377
1630679078779,0.3139567673206329,0.4411217868328094,0.1652299761772155,0.6853315234184265
1630679078889,0.238139197230339,0.4196615517139435,0.1267432272434234,0.9662785530090332
1630679078889,0.2693678438663482,0.4324703216552734,0.1387545466423034,0.739775538444519
1630679079014,0.2380535453557968,0.4235978126525879,0.1327956020832061,1.0114957094192505
1630679079170,0.6869477033615112,0.4560395181179046,0.1636059284210205,1.2001776695251465
1630679079170,0.7271783947944641,0.5115790963172913,0.2097372412681579,1.221361756324768
1630679079217,0.7736578583717346,0.5115790963172913,0.2097372412681579,1.2323575019836426
1630679079263,0.8267677426338196,0.5115790963172913,0.2097372412681579,1.2383196353912354
1630679079326,0.8892034888267517,0.5115790963172913,0.2097372412681579,1.2450579404830933
1630679079451,0.9629113674163818,0.5115790963172913,0.2097372412681579,1.2527790069580078
1630679079482,1.0562628507614136,0.5115790963172913,0.2097372412681579,1.2617075443267822
1630679079498,1.0496779680252075,0.5115790963172913,0.2097372412681579,1.259111404418945
1630679079658,1.054886817932129,0.5115790963172913,0.2097372412681579,1.2005290985107422
1630679079798,1.0110251903533936,0.5115790963172913,0.9957454204559326,1.1918201446533203
1630679079939,0.9303926229476928,2.50882625579834,0.9480573534965516,1.2843133211135864
1630679080001,1.162403225898743,2.4263954162597656,0.903695285320282,1.578311800956726
1630679080095,1.099733829498291,2.356317043304444,0.8653687834739685,1.57112455368042
1630679080142,1.0464662313461304,2.289841651916504,0.8311300277709961,1.5256669521331787
1630679080314,1.000812292098999,2.2322356700897217,0.7977170348167419,1.5132272243499756
1630679080361,0.818034291267395,2.181312561035156,0.7630459070205688,1.5295076370239258
1630679080517,1.1041538715362549,2.15889835357666,1.0947664976119995,1.5745971202850342
1630679080629,1.0681134462356567,2.117560863494873,1.0591363906860352,1.5706744194030762
1630679080941,1.0358452796936035,2.079887628555298,1.0257821083068848,1.5698133707046509
1630679081097,1.006197214126587,2.045398712158203,0.9948816895484924,1.568643569946289
1630679081332,0.978034496307373,2.013588190078736,0.944180965423584,1.5663946866989136
1630679081522,0.9517271518707277,1.984078288078308,0.9155359268188475,1.563902497291565
1630679081616,1.0311022996902466,1.9913755655288696,0.9727159738540648,1.5621734857559204
1630679081647,1.878320813179016,2.1851348876953125,1.8733593225479128,1.5947984457015991
1630679081694,1.9150986671447756,1.9398871660232544,1.9091315269470213,1.8346980810165403
1630679081709,1.8779994249343872,2.1970372200012207,1.8714171648025515,1.594903588294983
1630679081741,1.8998502492904663,1.924294352531433,1.9079662561416624,1.6945950984954834
1630679081756,1.929498553276062,1.9821456670761108,1.968562364578247,1.7237056493759155
1630679081881,1.9613316059112549,1.982560157775879,1.9680825471878047,1.754813313484192
1630679081897,1.995679259300232,2.07014799118042,1.968111276626587,1.7884992361068726
1630679082037,2.033015727996826,2.07111930847168,1.9688562154769895,1.7607420682907104
1630679082209,2.048820734024048,2.0522210597991943,1.9453550577163696,1.7526415586471558
1630679082303,2.093966007232666,2.197026014328003,2.1141834259033203,1.7966766357421875
1630679082334,2.1444783210754395,2.2011168003082275,2.115191698074341,1.8451553583145144
1630679082412,2.201869010925293,2.273422956466675,2.1158318519592285,1.900362253189087
1630679082470,2.26833724975586,2.2737250328063965,2.1162774562835693,1.9651354551315308
1630679082579,2.347079277038574,2.2841169834136963,2.130073070526123,2.0428788661956787
1630679082626,2.432236671447754,2.2815520763397217,2.1264758110046387,2.1387884616851807
1630679082766,2.432236671447754,2.0857295989990234,1.832534909248352,2.1387884616851807
1630679082813,2.432236671447754,2.06890606880188,1.8327205181121824,2.1387884616851807
1630679082907,2.432236671447754,2.0390663146972656,1.7855037450790403,2.1387884616851807
1630679083094,2.432236671447754,2.0389564037323,1.785672307014465,2.1387884616851807
1630679083126,0.3380829691886902,1.9838628768920896,1.6881496906280518,2.1387884616851807
1630679083173,0.6278814673423767,1.986024260520935,1.6878472566604614,1.1158413887023926
1630679083204,0.5670083165168762,1.8851029872894287,1.6868619918823242,1.06835675239563
1630679083438,0.5180320143699646,1.883689522743225,1.684840440750122,1.0137418508529663
1630679083567,1.0858752727508545,1.908562183380127,1.7245768308639526,1.3261579275131226
1630679083660,1.039729118347168,1.5957894325256348,1.0456417798995972,1.2783735990524292
1630679083707,1.0058302879333496,1.5814073085784912,1.0335131883621216,1.2783735990524292
1630679083722,1.0058302879333496,1.0566675662994385,1.0265012979507446,1.2783735990524292
1630679083754,1.0058302879333496,1.0591553449630735,1.0222700834274292,1.2783735990524292
1630679083894,1.0058302879333496,0.8707943558692932,0.757061243057251,1.2783735990524292
1630679083894,1.0058302879333496,0.8782088756561279,0.8026973009109497,1.2783735990524292
1630679084097,1.0442253351211548,0.9187297821044922,0.7599372863769531,1.2783735990524292
1630679084097,1.0058302879333496,0.8995237350463867,0.7551443576812744,1.2783735990524292
1630679084128,1.085617184638977,0.9287955164909364,0.7712152004241943,1.2969094514846802
1630679084332,1.0971307754516602,0.9361891746520996,0.7847259044647217,1.2704973220825195
1630679084425,1.1090683937072754,0.9448824524879456,0.7954292297363281,1.244886040687561
1630679084457,1.0842018127441406,0.9204295873641968,0.8021030426025391,1.232858657836914
1630679084662,1.110159993171692,0.9255629181861876,0.8082689642906189,1.2314831018447876
1630679084678,1.1320854425430298,0.9292551279067992,0.8168655037879944,1.2406240701675415
1630679084896,0.690787136554718,0.5749733448028564,0.2368593961000442,0.7871145606040955
1630679084990,0.7218730449676514,0.5797126293182373,0.2745410501956939,0.8344303369522095
1630679085037,0.7212162613868713,0.5758969187736511,0.3155065476894378,0.8391507863998413
1630679085193,0.6868212819099426,0.5643365383148193,0.3667702078819275,0.8272361755371094
1630679085443,0.6519318222999573,0.540773332118988,0.4229834675788879,0.8039861917495728
1630679085553,0.619600236415863,0.494836688041687,0.473186194896698,0.7766638398170471
1630679085589,0.5916040539741516,0.429204374551773,0.5127748847007751,0.7490631937980652
1630679085995,0.5701290369033813,0.3582883775234222,0.5401027202606201,0.7216725945472717
1630679086120,0.5599962472915649,0.3106813132762909,0.5491088628768921,0.6998844742774963
1630679086120,0.557490348815918,0.302539587020874,0.5443508625030518,0.683092474937439
1630679086386,0.5495190620422363,0.313882827758789,0.5359054207801819,0.6599244475364685
1630679086448,0.5579256415367126,0.320411741733551,0.5346781015396118,0.6620320081710815
1630679086495,0.9526233077049256,0.992456316947937,1.0586833953857422,1.0010979175567627
1630679086495,0.9704956412315368,1.0082167387008667,1.0784331560134888,1.0310471057891846
1630679086624,0.9864650368690492,1.033197283744812,1.1025700569152832,1.0585097074508667
1630679086686,0.9985212683677672,1.0602073669433594,1.1288955211639404,1.071000099182129
1630679086733,1.0081522464752195,1.089661717414856,1.157348871231079,1.073804259300232
1630679086764,1.0304723978042605,1.1230825185775757,1.1870406866073608,1.0778294801712036
1630679086842,1.0578405857086182,1.1609498262405396,1.2165056467056274,1.08872389793396
1630679087077,1.089348077774048,1.2032482624053955,1.2469773292541504,1.1105161905288696
1630679087201,1.1243407726287842,1.2501953840255735,1.2818154096603394,1.1500290632247925
1630679087295,1.1626245975494385,1.3025619983673096,1.3252063989639282,1.1767807006835938
1630679087436,1.2040125131607056,1.362697958946228,1.379495620727539,1.2065787315368652
1630679087545,1.2475062608718872,1.4341557025909424,1.4493361711502075,1.237882137298584
1630679087642,1.2951912879943848,1.5219776630401611,1.538381576538086,1.2711265087127686
1630679087674,1.3489772081375122,1.5219776630401611,1.538381576538086,1.305728316307068
1630679087799,1.0085023641586304,1.5219776630401611,1.538381576538086,1.1273747682571411
1630679087799,1.4078190326690674,1.5219776630401611,1.538381576538086,1.3373067378997805
1630679088064,1.0085023641586304,1.5219776630401611,1.538381576538086,1.1120953559875488
1630679088267,1.0085023641586304,1.5219776630401611,1.538381576538086,1.0294573307037354
1630679088564,1.0085023641586304,1.5219776630401611,1.538381576538086,0.9595087170600892
1630679088675,1.0085023641586304,1.5219776630401611,1.538381576538086,0.9100109934806824
1630679088893,1.105660080909729,2.249390125274658,0.7718436121940613,1.5711238384246826
1630679088893,1.0085023641586304,0.7204705476760864,1.538381576538086,0.8758845925331116
1630679088940,1.105660080909729,2.9988672733306885,1.10755455493927,2.5231974124908447
1630679088956,1.105660080909729,2.9988672733306885,1.287314534187317,2.4778153896331787
1630679088956,1.105660080909729,2.9988672733306885,1.34784734249115,2.534306764602661
1630679089097,1.105660080909729,2.9988672733306885,1.2373536825180054,2.4292163848876958
1630679089222,1.105660080909729,2.932023763656616,1.1957800388336182,2.384435176849365
1630679089300,1.105660080909729,2.8929076194763184,1.6101112365722656,2.388143301010132
1630679089362,1.0340315103530884,2.8420467376708984,1.572575330734253,2.3509387969970703
1630679089440,1.3052330017089844,2.823300838470459,1.5389846563339231,2.3170108795166016
1630679089456,1.3052330017089844,2.823300838470459,1.508588790893555,2.2858002185821533
1630679089596,1.3490220308303833,2.919951915740967,1.4862699508666992,2.3524115085601807
1630679089596,1.3052330017089844,2.868910789489746,1.4547556638717651,2.3178629875183105
1630679089596,1.3052330017089844,2.823300838470459,1.4805517196655271,2.2858002185821533
1630679089755,1.3223178386688232,2.977832317352295,1.4892404079437256,2.360029935836792
1630679089880,1.3517613410949707,2.995852470397949,1.491101622581482,2.3930981159210205
1630679090021,1.282617211341858,2.151059627532959,1.4586985111236572,1.7583656311035156
1630679090021,1.3286173343658447,2.938678503036499,1.491374373435974,2.3621621131896973
1630679090208,1.2292686700820925,2.151059627532959,1.386494278907776,1.7079356908798218
1630679090349,1.133452296257019,2.151059627532959,1.385382056236267,1.7550472021102903
1630679090364,1.1788419485092163,2.151059627532959,1.3862864971160889,1.7626852989196775
1630679090427,1.0961467027664185,2.151054859161377,1.3844135999679563,1.752838134765625
1630679090494,1.1053577661514282,2.0209438800811768,0.8229767680168152,1.5538438558578491
1630679090556,1.119265079498291,2.114731311798096,0.8287209868431091,1.5651127099990845
1630679090666,0.8722769021987915,1.8638736009597776,0.8208421468734741,1.5647892951965332
1630679090837,0.8505776524543762,1.8076266050338743,0.8091209530830383,1.5628429651260376
1630679090931,0.8242988586425781,1.7584221363067627,0.7963377833366394,1.5301973819732666
1630679090947,0.7966167330741882,1.7142539024353027,0.7819472551345825,1.4986571073532104
1630679090994,0.7707305550575256,1.6738924980163574,0.5751733183860779,1.4691051244735718
1630679091322,0.7458507418632507,1.6366957426071167,0.5161402821540833,1.417524814605713
1630679091573,0.6186299920082092,1.2697449922561646,0.4333276450634002,1.0589442253112793
1630679091824,0.5693868398666382,1.2482571601867676,0.3444319069385528,1.0277639627456665
1630679091886,0.5043673515319824,1.2313997745513916,0.2790038287639618,0.9986250400543212
1630679091995,0.4769900143146515,1.251655340194702,0.2753706574440002,1.4163312911987305
1630679092089,0.4863317608833313,1.7460426092147827,0.3917880654335022,1.3026816844940186
1630679092105,0.4934617578983307,2.4639012813568115,1.7020878791809082,1.329782247543335
1630679092105,0.4723993837833404,1.223030686378479,0.3041179478168487,1.3036613464355469
1630679092152,0.3200609683990478,2.463022470474243,1.702187418937683,1.3388140201568604
1630679092277,0.8206693530082703,2.448880195617676,1.724921941757202,1.3501240015029907
1630679092355,0.8240348100662231,2.448807001113892,1.7285314798355105,1.3607946634292605
1630679092448,0.8308310508728027,2.448723793029785,1.734471559524536,1.3723660707473757
1630679092576,0.8407617211341858,2.4486677646636963,1.7408043146133425,1.3826993703842163
1630679092685,0.8539150953292847,2.4486799240112305,1.745982646942139,1.3915612697601318
1630679092779,0.870797336101532,2.448777198791504,1.749800205230713,1.3996734619140625
1630679092795,0.8894924521446228,2.759917974472046,1.752830147743225,1.4739668369293213
1630679092810,1.87744665145874,2.801527500152588,1.7824033498764038,1.4778923988342283
1630679092842,1.8822098970413208,2.802208662033081,1.814013719558716,1.5132052898406982
1630679092904,1.8827507495880127,2.802201986312866,1.8477200269699097,1.5524393320083618
1630679093048,1.882826805114746,2.8009698390960693,1.846518635749817,1.0852049589157104
1630679093235,1.8823060989379885,2.80090594291687,1.844981789588928,1.086217761039734
1630679093344,1.847822308540344,2.772449493408203,1.8408950567245483,1.0912973880767822
1630679093391,1.816171646118164,2.5524613857269287,0.9690693020820618,1.0591468811035156
1630679093454,1.816171646118164,2.552486658096313,0.960137665271759,1.0591468811035156
1630679093629,1.8179731369018557,2.549297332763672,0.7646209597587585,1.0591468811035156
1630679093691,1.850229263305664,2.549776792526245,0.7437337040901184,1.0588345527648926
1630679093738,1.885786533355713,2.550895929336548,0.6845309734344482,1.0584919452667236
1630679093816,1.925347924232483,2.552887439727783,0.5921762585639954,1.0717809200286863
1630679093847,1.9693166017532349,2.5826876163482666,0.4818229079246521,1.1024067401885986
1630679093878,2.018275737762451,2.6146960258483887,0.3580186665058136,1.1458996534347534
1630679094082,2.073603391647339,1.8932654857635496,0.1877367347478866,0.5016094446182251
1630679094113,0.4269886016845703,0.8048020601272583,0.1877367347478866,0.5016094446182251
1630679094238,-0.0015662852674722,0.7357720732688904,0.1877367347478866,0.5016094446182251
1630679094331,-0.1079753115773201,0.7717265486717224,0.1877367347478866,0.5016094446182251
1630679094425,-0.1079753115773201,0.8174810409545898,0.2186725288629531,0.5016094446182251
1630679094536,-0.1079753115773201,0.8712000846862793,0.2730295658111572,0.5016094446182251
1630679094662,-0.1079753115773201,0.9131392240524292,0.3440961837768554,0.5016094446182251
1630679094740,-0.1079753115773201,0.9193887710571288,0.3516941368579864,0.5016094446182251
1630679094865,-0.1079753115773201,0.9199236035346984,0.3853033483028412,0.5016094446182251
1630679094993,-0.1079753115773201,0.9217507243156432,0.199597030878067,0.5016094446182251
1630679095196,-0.1079753115773201,0.903698742389679,0.2913075089454651,0.5016094446182251
1630679095196,-0.1079753115773201,0.8165395259857178,0.3394972681999206,0.5016094446182251
1630679095352,-0.1079753115773201,0.5415558218955994,0.3425147533416748,0.5016094446182251
1630679095368,-0.1079753115773201,0.5563292503356934,0.3180500864982605,0.5016094446182251
1630679095555,-0.1079753115773201,0.564108669757843,0.2838335335254669,0.5016094446182251
1630679095571,-0.1079753115773201,0.561421275138855,0.2517226636409759,0.5016094446182251
1630679095790,-0.1079753115773201,0.5511155128479004,0.224153384566307,0.5016094446182251
1630679095961,-0.1079753115773201,0.5353524088859558,0.1971720308065414,0.5016094446182251
1630679096181,-0.1079753115773201,0.5155709385871887,0.1685927212238311,0.5016094446182251
1630679096321,-0.1079753115773201,0.4900414049625397,0.1392493695020675,0.5016094446182251
1630679096337,-0.1079753115773201,0.4629022181034088,0.110731765627861,0.9564735293388368
1630679096478,0.0787778943777084,0.4050033986568451,0.0649723410606384,0.8677971363067627
1630679096556,0.0587903298437595,0.3954593241214752,0.0499123483896255,0.8009897470474243
1630679096651,0.0453479662537574,0.3972356021404266,0.024767292663455,0.7512460947036743
1630679096995,0.0349182747304439,0.3830552101135254,-0.0415031462907791,0.7165588736534119
1630679097042,0.0241741500794887,0.3517290949821472,-0.1537682861089706,0.6967784762382507
1630679097089,0.0133600179105997,0.3056161105632782,-0.2921243607997894,0.6863893270492554
1630679097229,-0.0010819857707247,0.2472404390573501,-0.396283745765686,0.2440272867679596
1630679097245,1.606859803199768,1.5297176837921145,1.5211471319198608,0.9985328912734984
1630679097245,-0.0153442863374948,0.1803717613220214,-0.4308222532272339,0.2592564821243286
1630679097308,1.5732494592666626,1.5271457433700562,1.5209810733795166,1.3113820552825928
1630679097401,1.5433712005615234,1.5252082347869873,1.5206152200698853,1.2802659273147583
1630679097433,1.516800880432129,1.523971676826477,1.520415425300598,1.2511643171310425
1630679097557,1.5195997953414917,1.5234308242797852,1.5206758975982666,1.2517223358154297
1630679097700,1.5224899053573608,1.5235446691513062,1.521317958831787,1.2534279823303225
1630679097700,1.5249172449111938,1.5238165855407717,1.5221186876296997,1.2562402486801147
1630679097888,1.526597023010254,1.5239297151565552,1.52286958694458,1.259087324142456
1630679098060,1.527691125869751,1.5237185955047607,1.52338445186615,1.260583758354187
1630679098075,1.5568499565124512,1.7699912786483765,1.7752962112426758,1.2613252401351929
1630679098185,1.588237166404724,1.769662380218506,1.7754062414169312,1.2625670433044434
1630679098310,1.590445637702942,1.7694528102874756,1.7755805253982544,1.3088353872299194
1630679098325,1.5942950248718262,1.7694710493087769,1.7759567499160769,1.3128122091293335
1630679098560,1.598775863647461,1.769609808921814,1.776450514793396,1.3173609972000122
1630679098560,1.6021987199783323,1.7697148323059082,1.776825189590454,1.321740746498108
1630679098656,0.5719984173774719,1.4191704988479614,1.431571125984192,1.16547429561615
1630679098702,0.5789873600006104,1.4190109968185425,1.431742787361145,0.7065531015396118
1630679098781,0.5782173871994019,1.4187544584274292,1.4319181442260742,0.7165966629981995
1630679098890,0.5728394985198975,1.4182997941970823,1.4319756031036377,0.721221387386322
1630679099077,0.5673758387565613,1.417549729347229,1.4316842555999756,0.719938337802887
1630679099249,0.5691609382629395,1.4167563915252686,1.4310842752456665,0.7134267091751099
1630679099312,0.5790277123451233,1.4161511659622192,1.4303853511810305,0.7029857039451599
1630679099359,0.5881063938140869,1.4158236980438232,1.4300460815429688,0.6940115094184875
1630679099515,0.5980815291404724,1.4157042503356934,1.4306069612503052,0.6934664249420166
1630679099738,0.5975003838539124,-0.2944600582122803,-0.079099416732788,0.7069537043571472
1630679099816,0.6183595061302185,-0.3116152584552765,-0.0202545095235109,0.7321531176567078
1630679099988,0.623654305934906,-0.3099164664745331,0.0297996029257774,0.5940191149711609
1630679100050,0.6146073341369629,-0.2154039889574051,0.0669555068016052,0.5722963213920593
1630679100191,0.5978139042854309,-0.0514513738453388,0.1482805907726287,0.5443308353424072
1630679100394,0.5901167988777161,0.1678937822580337,0.3634813725948334,0.5220937728881836
1630679100472,0.5991624593734741,0.3880276978015899,0.6419013142585754,0.5076324939727783
1630679100582,0.6216143369674683,0.5588768124580383,0.8813590407371521,0.5047473311424255
1630679100631,0.6428857445716858,0.7634921073913574,0.9100956916809082,0.5160030722618103
1630679100665,0.659005880355835,0.8114162683486938,0.9411752223968506,0.5465812087059021
1630679100743,0.667270839214325,0.9496038556098938,0.9747989177703856,0.5949315428733826
1630679100743,0.6650850176811218,0.9572051167488098,1.0114264488220217,0.6550737619400024
1630679100790,0.6565898060798645,0.9608126878738404,1.0515375137329102,0.7263829112052917
1630679100899,0.6565898060798645,0.9629802703857422,1.0949299335479736,0.8079521656036377
1630679100962,0.6565898060798645,0.9645373225212096,1.133588433265686,0.8079521656036377
1630679101024,0.6565898060798645,0.9651556015014648,1.1556917428970337,0.8079521656036377
1630679101165,0.6565898060798645,0.96723073720932,1.199021577835083,0.8079521656036377
1630679101243,0.6565898060798645,0.9931044578552246,1.2485291957855225,0.8079521656036377
1630679101446,0.6565898060798645,1.0150680541992188,1.3060237169265747,0.8079521656036377
1630679101571,0.6565898060798645,1.0319969654083252,1.3658829927444458,0.8079521656036377
1630679101789,0.6565898060798645,1.0361413955688477,1.4023513793945312,0.8079521656036377
1630679101993,0.6565898060798645,1.018994688987732,1.4023513793945312,0.8079521656036377
1630679102008,0.6565898060798645,0.9828136563301086,1.4023513793945312,0.8079521656036377
1630679102196,0.6565898060798645,0.8260199427604675,1.4023513793945312,0.8079521656036377
1630679102336,0.6565898060798645,0.790856122970581,1.4023513793945312,0.8079521656036377
1630679102555,0.6565898060798645,-0.0684103369712829,1.4023513793945312,0.8079521656036377
1630679102555,0.6565898060798645,0.0481100715696811,1.4023513793945312,0.8079521656036377
1630679102696,0.6565898060798645,-0.1125360503792762,1.4023513793945312,0.8079521656036377
1630679102758,0.6565898060798645,-0.1125360503792762,1.4023513793945312,0.8079521656036377
1630679102774,0.6565898060798645,-0.1125360503792762,1.4023513793945312,0.8079521656036377
1630679102836,0.6565898060798645,-0.1125360503792762,1.4023513793945312,0.8079521656036377
1630679102867,0.6565898060798645,-0.1125360503792762,1.4023513793945312,0.8079521656036377
1630679102883,0.6565898060798645,-0.1125360503792762,1.4023513793945312,0.8079521656036377
1630679102945,0.6565898060798645,-0.1125360503792762,1.4023513793945312,0.8079521656036377
1630679103117,0.6565898060798645,-0.1125360503792762,1.4023513793945312,0.8079521656036377
1630679103133,0.6565898060798645,1.8165408372879028,1.4023513793945312,0.8079521656036377
1630679103541,0.6565898060798645,1.7234488725662231,1.4023513793945312,0.8079521656036377
1630679103667,0.6565898060798645,1.6459733247756958,1.4023513793945312,0.8079521656036377
1630679103948,0.6565898060798645,1.5810811519622805,1.4023513793945312,0.8079521656036377
1630679104057,0.6565898060798645,1.5256117582321167,1.4023513793945312,0.8079521656036377
1630679104072,0.6565898060798645,2.521103620529175,1.729604721069336,0.8079521656036377
1630679104072,0.6565898060798645,2.452133655548096,1.4023513793945312,0.8079521656036377
1630679104072,0.6565898060798645,2.562396764755249,1.8167625665664675,0.8079521656036377
1630679104416,0.6565898060798645,2.5058627128601074,1.846951961517334,2.918546199798584
1630679104416,0.6565898060798645,2.483438014984131,1.6612926721572876,2.994816303253174
1630679104494,2.6297645568847656,2.442666292190552,1.7207527160644531,2.8813278675079346
1630679104494,2.708316802978516,2.474680185317993,1.75992751121521,2.9392237663269043
1630679104494,2.797142744064331,2.5049080848693848,1.8006033897399902,3.006077527999878
