timestamp,TP9,AF7,AF8,TP10
1630678967001,0.7644503712654114,0.6789824962615967,-0.1586856991052627,0.5115634799003601
1630678967126,0.7644503712654114,0.6789824962615967,-0.1586856991052627,0.5115634799003601
1630678967329,0.7644503712654114,0.6789824962615967,-0.1586856991052627,0.5115634799003601
1630678967344,0.7644503712654114,0.6789824962615967,-0.1586856991052627,0.5115634799003601
1630678967423,0.7644503712654114,0.6789824962615967,-0.1586856991052627,0.5115634799003601
1630678967501,0.7644503712654114,0.6789824962615967,-0.1586856991052627,0.5115634799003601
1630678967628,0.7644503712654114,0.6789824962615967,-0.1586856991052627,0.5115634799003601
1630678967690,0.7644503712654114,0.6789824962615967,-0.1586856991052627,0.5115634799003601
1630678967815,0.7644503712654114,0.6789824962615967,-0.1586856991052627,0.5115634799003601
1630678967956,0.7644503712654114,0.6789824962615967,-0.1586856991052627,0.5115634799003601
1630678968018,0.7644503712654114,0.6789824962615967,-0.174947902560234,0.5115634799003601
1630678968190,0.7644503712654114,-0.3852027356624603,-0.1386578232049942,0.5115634799003601
1630678968221,0.7644503712654114,-0.2447511851787567,-0.1214200779795646,0.5115634799003601
1630678968362,0.7644503712654114,-0.0619304813444614,-0.1205137446522712,0.5115634799003601
1630678968440,0.7644503712654114,0.0571890585124492,-0.1205137446522712,0.5115634799003601
1630678968596,0.7644503712654114,0.0984789356589317,-0.1195432320237159,0.5115634799003601
1630678968643,0.7644503712654114,0.0998613387346267,-0.083570584654808,0.5115634799003601
1630678968724,0.7644503712654114,0.0998613387346267,-0.0696601718664169,0.5115634799003601
1630678968833,0.7644503712654114,0.0998613387346267,-0.0637976974248886,0.5115634799003601
1630678968911,0.7644503712654114,0.0998613387346267,-0.0637976974248886,0.5115634799003601
1630678969114,0.7644503712654114,0.0998613387346267,-0.0637976974248886,0.5115634799003601
1630678969177,0.7644503712654114,0.0998613387346267,-0.0637976974248886,0.5115634799003601
1630678969333,0.7644503712654114,0.0998613387346267,-0.0844857841730117,0.5115634799003601
1630678969380,0.7644503712654114,0.0998613387346267,-0.0846463292837143,0.5115634799003601
1630678969462,0.7644503712654114,0.0998613387346267,-0.0887620374560356,0.5115634799003601
1630678969540,0.7644503712654114,0.1019022092223167,-0.100180447101593,0.5115634799003601
1630678969649,0.7644503712654114,0.1019022092223167,-0.1379517316818237,0.5115634799003601
1630678969743,0.7644503712654114,0.1019022092223167,-0.1625988632440567,0.5115634799003601
1630678969915,0.7644503712654114,0.1019022092223167,-0.1802881360054016,0.5115634799003601
1630678969946,0.7644503712654114,0.06851577013731,-0.1885361075401306,0.5115634799003601
1630678970040,0.7644503712654114,-0.0143650453537702,-0.1925732344388961,0.5115634799003601
1630678970259,0.7644503712654114,-0.122562900185585,-0.1949365735054016,0.5115634799003601
1630678970321,0.7644503712654114,-0.2308845669031143,-0.233988344669342,0.5115634799003601
1630678970399,0.7644503712654114,-0.2878408133983612,-0.3087299466133117,0.5115634799003601
1630678970462,0.7644503712654114,-0.3375595211982727,-0.4234789311885834,0.5115634799003601
1630678970556,0.7644503712654114,-0.3614113628864288,-0.5920801758766174,0.5115634799003601
1630678970712,0.7644503712654114,-0.3687695264816284,-0.5920801758766174,0.5115634799003601
1630678970853,0.7644503712654114,-0.3687695264816284,-0.5920801758766174,0.5115634799003601
1630678970899,0.7644503712654114,-0.3687695264816284,-0.5920801758766174,0.5115634799003601
1630678971040,0.7644503712654114,-0.3687695264816284,-0.5920801758766174,0.5115634799003601
1630678971134,0.7644503712654114,-0.3687695264816284,-0.5920801758766174,0.5115634799003601
1630678971212,0.7644503712654114,-0.3687695264816284,-0.5920801758766174,0.5115634799003601
1630678971462,0.7644503712654114,-0.3687695264816284,-0.5920801758766174,0.5115634799003601
1630678971527,0.7644503712654114,-0.3687695264816284,-0.5920801758766174,0.5115634799003601
1630678971744,0.7644503712654114,-0.3687695264816284,-0.5920801758766174,0.5115634799003601
1630678971744,0.7644503712654114,-0.3687695264816284,-0.5920801758766174,0.5115634799003601
1630678971884,0.7644503712654114,-0.3687695264816284,-0.5920801758766174,0.5115634799003601
1630678971900,0.7644503712654114,-0.3687695264816284,-0.5920801758766174,0.5115634799003601
1630678971947,0.7644503712654114,-0.3687695264816284,-0.5920801758766174,0.5115634799003601
1630678972056,0.7644503712654114,-0.3687695264816284,-0.5920801758766174,0.5115634799003601
1630678972134,0.7644503712654114,-0.3687695264816284,-0.5920801758766174,0.5115634799003601
1630678972244,0.7644503712654114,-0.3687695264816284,-0.5920801758766174,0.5115634799003601
1630678972306,0.7644503712654114,-0.3687695264816284,-0.5920801758766174,0.5115634799003601
1630678972384,0.7644503712654114,-0.3687695264816284,-0.5920801758766174,0.5115634799003601
1630678972463,0.7644503712654114,-0.3687695264816284,-0.5920801758766174,0.5115634799003601
1630678972622,0.7644503712654114,-0.3687695264816284,-0.5920801758766174,0.5115634799003601
1630678972700,0.7644503712654114,-0.3687695264816284,-0.5920801758766174,0.5115634799003601
1630678972841,0.7644503712654114,-0.3687695264816284,-0.5920801758766174,0.5115634799003601
1630678972919,0.7644503712654114,-0.3687695264816284,-0.5920801758766174,0.5115634799003601
1630678973028,0.7644503712654114,-0.3687695264816284,-0.5920801758766174,0.5115634799003601
1630678973122,0.7644503712654114,-0.3687695264816284,-0.5920801758766174,0.5115634799003601
1630678973169,0.7644503712654114,-0.3687695264816284,-0.5920801758766174,0.5115634799003601
1630678973388,0.7644503712654114,-0.3687695264816284,-0.5920801758766174,0.5115634799003601
1630678973450,0.7644503712654114,-0.3687695264816284,-0.5920801758766174,0.5115634799003601
1630678973497,0.471002459526062,-0.033237051218748,-0.5920801758766174,0.5115634799003601
1630678973704,0.471002459526062,-0.0227031838148832,-0.5920801758766174,0.5115634799003601
1630678973782,0.471002459526062,0.0056527145206928,-0.5920801758766174,0.5115634799003601
1630678973844,0.471002459526062,0.1230505257844924,-0.5920801758766174,0.5115634799003601
1630678973969,0.471002459526062,0.3359505534172058,-0.5920801758766174,0.5115634799003601
1630678974094,0.471002459526062,0.4939173460006714,-0.5920801758766174,0.5115634799003601
1630678974204,0.471002459526062,0.546710193157196,-0.5920801758766174,0.5115634799003601
1630678974360,0.471002459526062,0.5839290618896484,-0.5920801758766174,0.5115634799003601
1630678974407,0.471002459526062,0.5839290618896484,-0.5920801758766174,0.5115634799003601
1630678974548,0.471002459526062,0.5839290618896484,-0.5920801758766174,0.5115634799003601
1630678974629,0.471002459526062,0.5839290618896484,-0.5920801758766174,0.5115634799003601
1630678974910,0.471002459526062,0.5839290618896484,-0.5920801758766174,0.5115634799003601
1630678975098,0.471002459526062,0.5839290618896484,-0.5920801758766174,0.5115634799003601
1630678975238,0.471002459526062,0.5839290618896484,-0.5920801758766174,0.5115634799003601
1630678975332,0.471002459526062,0.5839290618896484,-0.5920801758766174,0.5115634799003601
1630678975441,0.471002459526062,0.5839290618896484,-0.5920801758766174,0.5115634799003601
1630678975472,0.471002459526062,0.5883444547653198,-0.5920801758766174,0.5115634799003601
1630678975614,0.471002459526062,0.5883444547653198,-0.5920801758766174,0.5115634799003601
1630678975693,0.471002459526062,0.5883444547653198,-0.5920801758766174,0.5115634799003601
1630678975802,0.471002459526062,0.5883444547653198,-0.5920801758766174,0.5115634799003601
1630678975818,0.471002459526062,1.008726954460144,-0.5920801758766174,0.5115634799003601
1630678976005,0.471002459526062,1.055942177772522,-0.5920801758766174,0.5115634799003601
1630678976115,0.471002459526062,1.0557845830917358,-0.5920801758766174,0.5115634799003601
1630678976271,0.471002459526062,1.0557845830917358,-0.5920801758766174,0.5115634799003601
1630678976333,0.471002459526062,1.0557845830917358,-0.5920801758766174,0.5115634799003601
1630678976365,0.471002459526062,1.0557845830917358,-0.5920801758766174,0.5115634799003601
1630678976427,0.471002459526062,1.055973768234253,-0.5920801758766174,0.5115634799003601
1630678976490,0.471002459526062,1.0568037033081057,-0.5920801758766174,0.5115634799003601
1630678976712,0.471002459526062,1.0580981969833374,-0.5920801758766174,0.5115634799003601
1630678976806,0.471002459526062,1.0588949918746948,-0.5920801758766174,0.5115634799003601
1630678976868,0.471002459526062,1.061340093612671,-0.5920801758766174,0.5115634799003601
1630678976978,0.471002459526062,1.061340093612671,-0.5920801758766174,0.5115634799003601
1630678977040,0.471002459526062,1.061340093612671,-0.5920801758766174,0.5115634799003601
1630678977150,0.471002459526062,1.061340093612671,-0.5920801758766174,0.5115634799003601
1630678977384,0.471002459526062,1.061340093612671,-0.5920801758766174,0.5115634799003601
1630678977684,0.471002459526062,1.0581120252609253,-0.5920801758766174,0.5115634799003601
1630678977902,0.471002459526062,1.0040676593780518,-0.5920801758766174,0.5115634799003601
1630678978074,0.471002459526062,0.8734601736068726,-0.5920801758766174,0.5115634799003601
1630678978121,0.471002459526062,0.6578335165977478,-0.5920801758766174,0.5115634799003601
1630678978308,0.471002459526062,0.4235195815563202,-0.5920801758766174,0.5115634799003601
1630678978511,0.471002459526062,0.3428742289543152,-0.5920801758766174,0.5115634799003601
1630678978542,0.471002459526062,0.3058286905288696,-0.5920801758766174,0.5115634799003601
1630678978733,0.471002459526062,0.3058286905288696,-0.5920801758766174,0.5115634799003601
1630678978842,0.471002459526062,0.3058286905288696,-0.5920801758766174,0.5115634799003601
1630678979077,0.471002459526062,0.3058286905288696,-0.5920801758766174,0.5115634799003601
1630678979092,0.471002459526062,0.3058286905288696,-0.5920801758766174,0.5115634799003601
1630678979264,0.471002459526062,0.3058286905288696,-0.5920801758766174,0.5115634799003601
1630678979264,0.471002459526062,0.3058286905288696,-0.5920801758766174,0.5115634799003601
1630678979327,0.471002459526062,0.3058286905288696,-0.5920801758766174,0.5115634799003601
1630678979467,0.471002459526062,0.3058286905288696,-0.5920801758766174,0.5115634799003601
1630678979579,0.471002459526062,0.3058286905288696,-0.5920801758766174,0.5115634799003601
1630678979672,0.471002459526062,1.6396657228469849,-0.5920801758766174,0.5115634799003601
1630678979735,0.471002459526062,1.6396657228469849,-0.5920801758766174,0.5115634799003601
1630678979735,0.471002459526062,1.6396657228469849,-0.5920801758766174,0.5115634799003601
1630678979750,0.471002459526062,1.6396657228469849,-0.5920801758766174,0.5115634799003601
1630678979782,0.471002459526062,1.6396657228469849,-0.5920801758766174,0.5115634799003601
1630678979829,0.471002459526062,1.6396657228469849,-0.5920801758766174,0.5115634799003601
1630678979875,0.471002459526062,1.6493505239486694,-0.5920801758766174,0.5115634799003601
1630678979891,0.471002459526062,1.6493505239486694,-0.5920801758766174,0.5115634799003601
1630678980000,0.471002459526062,1.6640137434005735,-0.5920801758766174,0.5115634799003601
1630678980016,0.471002459526062,1.6640137434005735,-0.5920801758766174,0.5115634799003601
1630678980047,0.471002459526062,1.6640137434005735,-0.5920801758766174,0.5115634799003601
1630678980094,0.471002459526062,1.6640137434005735,-0.5920801758766174,0.5115634799003601
1630678980125,0.471002459526062,1.6640137434005735,-0.5920801758766174,0.5115634799003601
1630678980157,0.471002459526062,1.6640137434005735,-0.5920801758766174,0.5115634799003601
1630678980219,0.471002459526062,1.5713118314743042,-0.5920801758766174,0.5115634799003601
1630678980282,0.471002459526062,1.555435299873352,-0.5920801758766174,0.5115634799003601
1630678980344,0.471002459526062,1.555435299873352,-0.5920801758766174,0.5115634799003601
1630678980407,0.471002459526062,1.555435299873352,-0.5920801758766174,0.5115634799003601
1630678980578,0.471002459526062,1.555435299873352,-0.5920801758766174,0.5115634799003601
1630678980657,0.471002459526062,1.551560878753662,-0.5920801758766174,0.5115634799003601
1630678980752,0.471002459526062,1.551560878753662,-0.5920801758766174,0.5115634799003601
1630678980832,0.471002459526062,1.551560878753662,-0.5920801758766174,0.5115634799003601
1630678980926,0.471002459526062,1.551560878753662,-0.5920801758766174,0.5115634799003601
1630678981035,0.471002459526062,1.551560878753662,-0.5920801758766174,0.5115634799003601
1630678981239,0.471002459526062,1.551560878753662,-0.5920801758766174,0.5115634799003601
1630678981457,0.471002459526062,1.551560878753662,-0.5920801758766174,0.5115634799003601
1630678981506,0.471002459526062,1.551560878753662,-0.5920801758766174,0.5115634799003601
1630678981553,0.471002459526062,1.551560878753662,-0.5920801758766174,0.5115634799003601
1630678981756,0.471002459526062,1.551560878753662,-0.5920801758766174,0.5115634799003601
1630678981772,0.471002459526062,1.551560878753662,-0.5920801758766174,0.5115634799003601
1630678981819,0.471002459526062,1.551560878753662,-0.5920801758766174,0.5115634799003601
1630678981897,0.471002459526062,1.551560878753662,-0.5920801758766174,0.5115634799003601
1630678981959,0.471002459526062,1.551560878753662,-0.5920801758766174,0.5115634799003601
1630678982038,0.471002459526062,1.551560878753662,-0.5920801758766174,0.5115634799003601
1630678982256,0.471002459526062,1.551560878753662,-0.5920801758766174,0.5115634799003601
1630678982444,0.471002459526062,0.1318790018558502,-0.5920801758766174,0.5115634799003601
1630678982522,0.471002459526062,0.1345614492893219,-0.5920801758766174,0.5115634799003601
1630678982571,0.471002459526062,0.1400011479854583,0.36784628033638,0.5115634799003601
1630678982649,0.471002459526062,0.15235036611557,0.3771829009056091,0.5115634799003601
1630678982649,0.471002459526062,0.1567953675985336,0.3771829009056091,0.5115634799003601
1630678982816,0.471002459526062,0.1596746295690536,0.3771829009056091,0.5115634799003601
1630678982941,0.471002459526062,0.1612371951341629,0.3771829009056091,0.5115634799003601
1630678982972,0.471002459526062,0.1617375314235687,0.3771829009056091,0.5115634799003601
1630678983081,0.471002459526062,0.1617375314235687,0.3771829009056091,0.5115634799003601
1630678983222,0.471002459526062,0.1617375314235687,0.3771829009056091,0.5115634799003601
1630678983472,0.471002459526062,0.1617375314235687,0.3771829009056091,0.5115634799003601
1630678983487,0.471002459526062,0.2126692980527877,0.3771829009056091,0.5115634799003601
1630678983550,0.471002459526062,0.3049268126487732,0.3771829009056091,0.5115634799003601
1630678983631,0.471002459526062,0.3317375183105469,0.3771829009056091,0.5115634799003601
1630678983693,0.471002459526062,0.3199823200702667,0.3481788039207458,0.5115634799003601
1630678983928,0.471002459526062,0.3320151567459106,0.3161644637584686,0.5115634799003601
1630678983990,0.471002459526062,0.3800240159034729,0.2445821762084961,0.5115634799003601
1630678984037,0.471002459526062,0.45567587018013,0.1328164190053939,0.5115634799003601
1630678984115,0.471002459526062,0.5042703747749329,-0.00306066730991,0.5115634799003601
1630678984209,0.471002459526062,0.5044313669204712,-0.00306066730991,0.5115634799003601
1630678984524,0.471002459526062,0.5044313669204712,-0.00306066730991,0.5115634799003601
1630678984729,0.471002459526062,0.5044313669204712,-0.00306066730991,0.5115634799003601
1630678984823,0.471002459526062,0.5044313669204712,-0.00306066730991,0.5115634799003601
1630678984869,0.471002459526062,0.5044313669204712,-0.00306066730991,0.5115634799003601
1630678984901,0.471002459526062,0.5044313669204712,-0.00306066730991,0.5115634799003601
1630678985276,0.471002459526062,0.5044313669204712,-0.00306066730991,0.5115634799003601
1630678985307,0.471002459526062,0.5044313669204712,-0.00306066730991,0.5115634799003601
1630678985416,0.471002459526062,0.5039235949516296,-0.00306066730991,0.5115634799003601
1630678985479,0.471002459526062,0.4843329787254333,-0.00306066730991,0.5115634799003601
1630678985494,0.471002459526062,0.4697369933128357,-0.00306066730991,0.5115634799003601
1630678985510,0.471002459526062,0.4511061012744903,-0.00306066730991,0.5115634799003601
1630678985510,0.471002459526062,0.4511061012744903,-0.00306066730991,0.5115634799003601
1630678985697,0.471002459526062,0.4511061012744903,-0.00306066730991,0.5115634799003601
1630678985713,0.471002459526062,0.4511061012744903,-0.00306066730991,0.5115634799003601
1630678985729,0.471002459526062,0.4511061012744903,-0.00306066730991,0.5115634799003601
1630678985807,0.471002459526062,0.4511061012744903,-0.00306066730991,0.5115634799003601
1630678986010,0.471002459526062,0.4511061012744903,-0.00306066730991,0.5115634799003601
1630678986025,0.471002459526062,0.4511061012744903,-0.00306066730991,0.5115634799003601
1630678986244,0.471002459526062,0.4511061012744903,-0.00306066730991,0.5115634799003601
1630678986291,0.471002459526062,0.4511061012744903,-0.00306066730991,0.5115634799003601
1630678986369,0.471002459526062,0.4511061012744903,-0.00306066730991,0.5115634799003601
1630678986419,0.471002459526062,0.4511061012744903,-0.00306066730991,0.5115634799003601
1630678986591,0.471002459526062,0.4511061012744903,-0.00306066730991,0.5115634799003601
1630678986685,0.471002459526062,0.4511061012744903,-0.00306066730991,0.5115634799003601
1630678986763,0.471002459526062,0.4511061012744903,-0.00306066730991,0.5115634799003601
1630678986825,0.471002459526062,0.4511061012744903,-0.00306066730991,0.5115634799003601
1630678986935,0.471002459526062,0.4511061012744903,-0.00306066730991,0.5115634799003601
1630678987122,0.471002459526062,0.4511061012744903,-0.00306066730991,0.5115634799003601
1630678987154,0.471002459526062,0.4511061012744903,-0.00306066730991,0.5115634799003601
1630678987294,0.471002459526062,0.4511061012744903,-0.00306066730991,0.5115634799003601
1630678987357,0.471002459526062,0.4511061012744903,-0.00306066730991,0.5115634799003601
1630678987420,0.471002459526062,0.4511061012744903,-0.00306066730991,0.5115634799003601
1630678987563,0.471002459526062,0.4511061012744903,-0.00306066730991,0.5115634799003601
1630678987641,0.471002459526062,0.4511061012744903,-0.00306066730991,0.5115634799003601
1630678987719,0.471002459526062,0.4511061012744903,-0.00306066730991,0.5115634799003601
1630678987844,0.471002459526062,0.4511061012744903,-0.00306066730991,0.5115634799003601
1630678988016,0.471002459526062,0.4511061012744903,-0.00306066730991,0.5115634799003601
1630678988125,0.471002459526062,0.4511061012744903,-0.00306066730991,0.5115634799003601
1630678988141,0.471002459526062,0.4511061012744903,-0.00306066730991,0.5115634799003601
1630678988297,0.471002459526062,0.4511061012744903,-0.00306066730991,0.5115634799003601
1630678988344,0.471002459526062,0.4511061012744903,-0.00306066730991,0.5115634799003601
1630678988422,0.471002459526062,0.4511061012744903,-0.00306066730991,0.5115634799003601
1630678988551,0.471002459526062,0.4511061012744903,-0.00306066730991,0.5115634799003601
1630678988723,0.471002459526062,0.4511061012744903,-0.00306066730991,0.5115634799003601
1630678988879,0.471002459526062,0.4511061012744903,-0.00306066730991,0.5115634799003601
1630678989020,0.471002459526062,0.4511061012744903,-0.00306066730991,0.5115634799003601
1630678989067,0.471002459526062,0.4511061012744903,-0.00306066730991,0.5115634799003601
1630678989098,0.471002459526062,0.4511061012744903,-0.00306066730991,0.5115634799003601
1630678989301,0.471002459526062,0.4511061012744903,-0.00306066730991,0.5115634799003601
1630678989441,0.471002459526062,0.4511061012744903,-0.00306066730991,0.5115634799003601
1630678989473,0.471002459526062,0.4511061012744903,-0.00306066730991,0.5115634799003601
1630678989835,0.471002459526062,0.4511061012744903,-0.00306066730991,0.5115634799003601
1630678989898,0.471002459526062,0.4511061012744903,-0.00306066730991,0.5115634799003601
1630678989992,0.471002459526062,0.4511061012744903,-0.00306066730991,0.5115634799003601
1630678990179,0.471002459526062,0.4999930262565613,-0.00306066730991,0.5115634799003601
1630678990257,0.471002459526062,0.6563688516616821,-0.00306066730991,0.5115634799003601
1630678990398,0.471002459526062,0.6846897006034851,-0.00306066730991,0.5115634799003601
1630678990445,0.471002459526062,0.6846897006034851,-0.00306066730991,0.5115634799003601
1630678990491,0.471002459526062,0.6847425103187561,-0.00306066730991,0.5115634799003601
1630678990507,0.471002459526062,0.6847425103187561,-0.00306066730991,0.5115634799003601
1630678990538,0.471002459526062,0.6847425103187561,-0.00306066730991,0.5115634799003601
1630678990728,0.471002459526062,0.6847425103187561,-0.00306066730991,0.5115634799003601
1630678990885,0.471002459526062,0.6847425103187561,-0.00306066730991,0.5115634799003601
1630678991025,0.471002459526062,0.6847425103187561,-0.00306066730991,0.5115634799003601
1630678991056,0.471002459526062,0.6847425103187561,-0.00306066730991,0.5115634799003601
1630678991103,0.471002459526062,0.6847425103187561,-0.00306066730991,0.5115634799003601
1630678991213,0.471002459526062,0.6847425103187561,-0.00306066730991,0.5115634799003601
1630678991291,0.471002459526062,0.6808094382286072,-0.00306066730991,0.5115634799003601
1630678991338,0.471002459526062,0.6669544577598572,-0.00306066730991,0.5115634799003601
1630678991353,0.471002459526062,0.6748236417770386,-0.00306066730991,0.5115634799003601
1630678991478,0.471002459526062,0.6567283272743225,-0.00306066730991,0.5115634799003601
1630678991603,0.471002459526062,0.5342973470687866,-0.00306066730991,0.5115634799003601
1630678991681,0.471002459526062,0.3540119230747223,-0.00306066730991,0.5115634799003601
1630678991759,0.471002459526062,0.3540119230747223,-0.00306066730991,0.5115634799003601
1630678991822,0.471002459526062,0.3540119230747223,-0.00306066730991,0.5115634799003601
1630678991962,0.471002459526062,0.3540119230747223,-0.00306066730991,0.5115634799003601
1630678992041,0.471002459526062,0.3540119230747223,-0.00306066730991,0.5115634799003601
1630678992087,0.471002459526062,0.3540119230747223,-0.00306066730991,0.5115634799003601
1630678992228,0.471002459526062,0.3540119230747223,-0.00306066730991,0.5115634799003601
1630678992353,0.471002459526062,0.3540119230747223,-0.00306066730991,0.5115634799003601
1630678992480,0.471002459526062,0.3540119230747223,-0.00306066730991,0.5115634799003601
1630678992527,0.471002459526062,0.3540119230747223,-0.00306066730991,0.5115634799003601
1630678992636,0.471002459526062,0.3540119230747223,-0.00306066730991,0.5115634799003601
1630678992683,0.471002459526062,0.3540119230747223,-0.00306066730991,0.5115634799003601
1630678992902,0.471002459526062,0.3540119230747223,-0.00306066730991,0.5115634799003601
1630678992949,0.471002459526062,0.3540119230747223,-0.00306066730991,0.5115634799003601
1630678993027,0.471002459526062,0.3540119230747223,-0.00306066730991,0.5115634799003601
1630678993167,0.471002459526062,0.3540119230747223,-0.00306066730991,0.5115634799003601
1630678993308,0.471002459526062,0.3540119230747223,-0.00306066730991,0.5115634799003601
1630678993437,0.471002459526062,0.3540119230747223,-0.00306066730991,0.5115634799003601
1630678993469,0.471002459526062,0.3540119230747223,-0.00306066730991,0.5115634799003601
1630678993609,0.471002459526062,0.3540119230747223,-0.00306066730991,0.5115634799003601
1630678993640,0.471002459526062,0.3540119230747223,-0.00306066730991,0.5115634799003601
1630678993721,0.471002459526062,0.3540119230747223,-0.00306066730991,0.5115634799003601
1630678993846,0.471002459526062,0.3540119230747223,-0.00306066730991,0.5115634799003601
1630678994017,0.471002459526062,-0.1945668309926986,-0.00306066730991,0.5115634799003601
1630678994189,0.471002459526062,0.104194775223732,-0.00306066730991,0.5115634799003601
1630678994252,0.471002459526062,0.3794503509998321,-0.00306066730991,0.5115634799003601
1630678994314,0.471002459526062,0.5158664584159851,-0.00306066730991,0.5115634799003601
1630678994567,0.471002459526062,0.55031818151474,-0.00306066730991,0.5115634799003601
1630678994692,0.471002459526062,0.55031818151474,-0.00306066730991,0.5115634799003601
1630678994801,0.471002459526062,0.55031818151474,-0.00306066730991,0.5115634799003601
1630678995051,0.471002459526062,0.55031818151474,-0.00306066730991,0.5115634799003601
1630678995223,0.471002459526062,0.55031818151474,-0.00306066730991,0.5115634799003601
1630678995238,0.471002459526062,0.55031818151474,-0.00306066730991,0.5115634799003601
1630678995285,0.471002459526062,0.55031818151474,-0.00306066730991,0.5115634799003601
1630678995348,0.471002459526062,1.391523838043213,-0.00306066730991,0.5115634799003601
1630678995363,0.471002459526062,1.391523838043213,-0.00306066730991,0.5115634799003601
1630678995410,0.471002459526062,1.391523838043213,-0.00306066730991,0.5115634799003601
1630678995410,0.471002459526062,1.391523838043213,-0.00306066730991,0.5115634799003601
1630678995473,0.471002459526062,1.391523838043213,-0.00306066730991,0.5115634799003601
1630678995569,0.471002459526062,1.391523838043213,-0.00306066730991,0.5115634799003601
1630678995709,0.471002459526062,1.391523838043213,-0.00306066730991,0.5115634799003601
1630678995787,0.471002459526062,1.391523838043213,-0.00306066730991,0.5115634799003601
1630678996084,0.471002459526062,1.391523838043213,-0.00306066730991,0.5115634799003601
1630678996209,0.471002459526062,1.391523838043213,-0.00306066730991,0.5115634799003601
1630678996256,0.471002459526062,1.391523838043213,-0.00306066730991,0.5115634799003601
1630678996303,0.471002459526062,1.391523838043213,-0.00306066730991,0.5115634799003601
1630678996350,0.471002459526062,1.391523838043213,-0.00306066730991,0.5115634799003601
1630678996412,0.471002459526062,1.391523838043213,-0.00306066730991,0.5115634799003601
1630678996506,0.471002459526062,1.391523838043213,-0.00306066730991,0.5115634799003601
1630678996634,0.471002459526062,1.391523838043213,-0.00306066730991,0.5115634799003601
1630678996743,0.471002459526062,1.391523838043213,-0.00306066730991,0.5115634799003601
1630678996853,0.471002459526062,1.391523838043213,-0.00306066730991,0.5115634799003601
1630678997040,0.471002459526062,1.391523838043213,-0.00306066730991,0.5115634799003601
1630678997071,0.471002459526062,1.391523838043213,-0.00306066730991,0.5115634799003601
1630678997306,0.471002459526062,1.391523838043213,-0.00306066730991,0.5115634799003601
1630678997306,0.471002459526062,1.391523838043213,-0.00306066730991,0.5115634799003601
1630678997431,0.471002459526062,1.391523838043213,-0.00306066730991,0.5115634799003601
1630678997540,0.471002459526062,1.391523838043213,-0.00306066730991,0.5115634799003601
1630678997606,0.471002459526062,0.2439301311969757,-0.00306066730991,0.5115634799003601
1630678997809,0.471002459526062,0.2444959133863449,-0.00306066730991,0.5115634799003601
1630678998059,0.471002459526062,0.2736394107341766,-0.00306066730991,0.5115634799003601
1630678998185,0.471002459526062,0.2736394107341766,-0.00306066730991,0.5115634799003601
1630678998516,0.471002459526062,0.2736394107341766,-0.00306066730991,0.5115634799003601
1630678998769,0.471002459526062,0.2736394107341766,-0.00306066730991,0.5115634799003601
1630678998940,0.471002459526062,0.2736394107341766,-0.00306066730991,0.5115634799003601
1630678999003,0.471002459526062,0.2736394107341766,-0.00306066730991,0.5115634799003601
1630678999081,0.471002459526062,0.2736394107341766,-0.00306066730991,0.5115634799003601
1630678999081,0.471002459526062,0.2736394107341766,-0.00306066730991,0.5115634799003601
1630678999112,0.471002459526062,0.2736394107341766,-0.00306066730991,0.5115634799003601
1630678999128,0.471002459526062,0.2736394107341766,-0.00306066730991,0.5115634799003601
1630678999128,0.471002459526062,0.093454010784626,-0.00306066730991,0.5115634799003601
1630678999206,0.471002459526062,-0.0781064331531524,-0.00306066730991,0.5115634799003601
1630678999269,0.471002459526062,-0.0781064331531524,-0.00306066730991,0.5115634799003601
1630678999300,0.471002459526062,-0.0781064331531524,-0.00306066730991,0.5115634799003601
1630678999331,0.471002459526062,-0.0781064331531524,-0.00306066730991,0.5115634799003601
1630678999362,0.471002459526062,-0.0781064331531524,-0.00306066730991,0.5115634799003601
1630678999409,0.471002459526062,-0.0781064331531524,-0.00306066730991,0.5115634799003601
1630678999503,0.471002459526062,-0.0781064331531524,-0.00306066730991,0.5115634799003601
1630678999662,0.471002459526062,-0.0781064331531524,-0.00306066730991,0.5115634799003601
1630678999740,0.471002459526062,-0.0781064331531524,-0.00306066730991,0.5115634799003601
1630678999802,0.471002459526062,-0.0781064331531524,-0.00306066730991,0.5115634799003601
1630678999865,0.471002459526062,-0.0781064331531524,-0.00306066730991,0.5115634799003601
1630678999959,0.471002459526062,-0.0781064331531524,-0.00306066730991,0.5115634799003601
1630679000068,0.471002459526062,-0.0781064331531524,-0.00306066730991,0.5115634799003601
1630679000146,0.471002459526062,-0.0781064331531524,-0.00306066730991,0.5115634799003601
1630679000255,0.471002459526062,-0.0781064331531524,-0.00306066730991,0.5115634799003601
1630679000318,0.471002459526062,-0.0781064331531524,-0.00306066730991,0.5115634799003601
1630679000443,0.471002459526062,-0.0781064331531524,-0.00306066730991,0.5115634799003601
1630679000553,0.471002459526062,-0.0781064331531524,-0.00306066730991,0.5115634799003601
1630679000662,0.471002459526062,-0.0781064331531524,-0.00306066730991,0.5115634799003601
1630679000742,0.471002459526062,-0.0781064331531524,-0.00306066730991,0.5115634799003601
1630679000821,0.471002459526062,-0.0781064331531524,-0.00306066730991,0.5115634799003601
1630679001024,0.471002459526062,0.5788973569869995,0.5529405474662781,0.5115634799003601
1630679001149,0.471002459526062,0.5958971381187439,0.5529405474662781,0.5115634799003601
1630679001180,0.471002459526062,0.6045276522636414,0.5540507435798645,0.5115634799003601
1630679001227,0.471002459526062,0.6045276522636414,0.5540507435798645,0.5115634799003601
1630679001368,0.471002459526062,0.6045276522636414,0.5540507435798645,0.5115634799003601
1630679001511,0.471002459526062,0.6045276522636414,0.5540507435798645,0.5115634799003601
1630679001589,0.471002459526062,0.607651948928833,0.5540507435798645,0.5115634799003601
1630679001684,0.471002459526062,0.6310532689094543,0.5540507435798645,0.5115634799003601
1630679001808,0.471002459526062,0.6557161808013916,0.5540507435798645,0.5115634799003601
1630679001871,0.471002459526062,0.6557161808013916,0.5540507435798645,0.5115634799003601
1630679002027,0.471002459526062,0.6557161808013916,0.5540507435798645,0.5115634799003601
1630679002074,0.471002459526062,0.6557161808013916,0.5540507435798645,0.5115634799003601
1630679002230,0.471002459526062,0.6557161808013916,0.427083820104599,0.5115634799003601
1630679002261,0.471002459526062,0.6543694734573364,0.2459346652030944,0.5115634799003601
1630679002370,0.471002459526062,0.6478320360183716,0.0457235649228096,0.5115634799003601
1630679002482,0.471002459526062,0.6236695647239685,-0.1146550327539444,0.5115634799003601
1630679002623,0.471002459526062,0.5631390810012817,-0.2551369369029999,0.5115634799003601
1630679002733,0.471002459526062,0.5022899508476257,-0.2551369369029999,0.5115634799003601
1630679003029,0.471002459526062,0.4453829526901245,-0.2551369369029999,0.5115634799003601
1630679003076,0.471002459526062,0.3900062143802643,-0.2551369369029999,0.5115634799003601
1630679003107,0.471002459526062,0.3900062143802643,-0.2551369369029999,0.5115634799003601
1630679003154,0.471002459526062,0.3900062143802643,-0.2551369369029999,0.5115634799003601
1630679003531,0.471002459526062,0.3900062143802643,-0.2551369369029999,0.5115634799003601
1630679003719,0.471002459526062,0.3900062143802643,0.8031165599822998,0.5115634799003601
1630679003859,0.471002459526062,0.3900062143802643,0.8031165599822998,0.5115634799003601
1630679004062,0.471002459526062,0.3900062143802643,0.8031165599822998,0.5115634799003601
1630679004312,0.471002459526062,0.3900062143802643,0.8031165599822998,0.5115634799003601
1630679004390,0.471002459526062,1.4220283031463623,0.8031165599822998,0.5115634799003601
1630679004643,0.471002459526062,1.4220283031463623,0.8054149746894836,0.5115634799003601
1630679004814,0.471002459526062,1.4220283031463623,0.8159109354019165,0.5115634799003601
1630679004955,0.471002459526062,1.4220283031463623,0.8363031148910522,0.5115634799003601
1630679005158,0.471002459526062,1.4220283031463623,0.8569813370704651,0.5115634799003601
1630679005189,0.471002459526062,1.4220283031463623,1.4385838508605957,0.5115634799003601
1630679005283,0.471002459526062,1.4220283031463623,1.6019947528839111,0.5115634799003601
1630679005361,0.471002459526062,1.4220283031463623,1.6019947528839111,0.5115634799003601
1630679005583,0.471002459526062,1.4220283031463623,1.6019947528839111,0.5115634799003601
1630679005677,0.471002459526062,1.4220283031463623,1.606665849685669,0.5115634799003601
1630679005677,0.471002459526062,1.4220283031463623,1.6019947528839111,0.5115634799003601
1630679005692,0.471002459526062,1.4220283031463623,1.606665849685669,0.5115634799003601
1630679005833,0.471002459526062,1.4220283031463623,1.6453040838241575,0.5115634799003601
1630679005833,0.471002459526062,1.4220283031463623,1.606665849685669,0.5115634799003601
1630679005833,0.471002459526062,1.4220283031463623,1.606665849685669,0.5115634799003601
1630679005911,0.471002459526062,1.4220283031463623,1.6453040838241575,0.5115634799003601
1630679006192,0.471002459526062,1.4220283031463623,1.6453040838241575,0.5115634799003601
1630679006208,0.471002459526062,2.7194862365722656,1.6453040838241575,0.5115634799003601
1630679006380,0.471002459526062,2.7194862365722656,1.6506832838058472,0.5115634799003601
1630679006426,1.4779837131500244,2.7194862365722656,1.646134614944458,0.5115634799003601
1630679006426,0.471002459526062,2.7194862365722656,1.6506832838058472,0.5115634799003601
1630679006489,1.4779837131500244,2.7194862365722656,1.5116623640060425,0.5115634799003601
1630679006647,2.557788610458374,2.7194862365722656,1.519540786743164,0.5115634799003601
1630679006647,2.557788610458374,2.7194862365722656,1.5116623640060425,0.5115634799003601
1630679006647,2.557788610458374,2.7194862365722656,1.519540786743164,0.5115634799003601
1630679006772,2.557788610458374,2.7194862365722656,1.519540786743164,0.5115634799003601
1630679006882,2.557788610458374,2.7194862365722656,1.519540786743164,0.5115634799003601
1630679006944,2.557788610458374,2.7194862365722656,1.519540786743164,0.5115634799003601
1630679007085,2.557788610458374,2.7194862365722656,1.519540786743164,0.5115634799003601
1630679007132,2.557788610458374,2.7194862365722656,1.4886574745178225,0.5115634799003601
1630679007210,2.557788610458374,2.2057666778564453,1.4886574745178225,0.5115634799003601
1630679007319,2.557788610458374,2.2057666778564453,1.4886574745178225,0.5115634799003601
1630679007397,2.557788610458374,2.2057666778564453,1.4886574745178225,0.5115634799003601
1630679007616,2.557788610458374,2.2057666778564453,1.4527802467346191,0.5115634799003601
1630679007647,2.557788610458374,1.2795311212539673,1.4527802467346191,0.5115634799003601
1630679007728,2.557788610458374,1.0817745923995972,1.4031928777694702,0.5115634799003601
1630679007805,2.557788610458374,0.7807564735412598,1.4031928777694702,0.5115634799003601
1630679007931,2.557788610458374,0.7807564735412598,1.4031928777694702,0.5115634799003601
1630679008040,2.557788610458374,0.7807564735412598,0.8703295588493347,0.5115634799003601
1630679008055,2.557788610458374,0.7807564735412598,0.2687586545944214,0.5115634799003601
1630679008149,2.557788610458374,0.7807564735412598,0.2059130817651748,0.5115634799003601
1630679008227,2.557788610458374,0.7807564735412598,0.2059130817651748,0.5115634799003601
1630679008305,2.557788610458374,0.7807564735412598,0.7965692281723022,0.5115634799003601
1630679008399,2.557788610458374,0.9511635899543762,0.8632100820541382,0.5115634799003601
1630679008508,2.557788610458374,0.9511635899543762,0.8632100820541382,0.5115634799003601
1630679008649,2.557788610458374,0.9511635899543762,0.8632100820541382,0.5115634799003601
1630679008664,2.557788610458374,0.9511635899543762,0.8632100820541382,0.5115634799003601
1630679008714,2.557788610458374,0.9511635899543762,0.8632100820541382,0.5115634799003601
1630679008886,2.557788610458374,0.9511635899543762,0.8632100820541382,0.5115634799003601
1630679009339,2.557788610458374,0.9511635899543762,0.8632100820541382,0.5115634799003601
1630679009417,2.557788610458374,0.9511635899543762,0.8632100820541382,0.5115634799003601
1630679009636,2.557788610458374,0.9511635899543762,0.8632100820541382,0.5115634799003601
1630679009732,2.557788610458374,0.9511635899543762,0.8632100820541382,0.5115634799003601
1630679010076,2.557788610458374,0.9511635899543762,0.8632100820541382,0.5115634799003601
1630679010076,2.557788610458374,0.9511635899543762,0.8632100820541382,0.5115634799003601
1630679010107,2.557788610458374,0.9511635899543762,0.8632100820541382,0.5115634799003601
1630679010154,2.557788610458374,0.9511635899543762,0.8632100820541382,0.5115634799003601
1630679010201,2.557788610458374,0.9511635899543762,0.8632100820541382,0.5115634799003601
1630679010513,2.557788610458374,0.9511635899543762,0.8632100820541382,0.5115634799003601
1630679010654,2.557788610458374,0.9511635899543762,0.8632100820541382,0.5115634799003601
1630679010890,2.557788610458374,0.9511635899543762,0.8632100820541382,0.5115634799003601
1630679010906,2.557788610458374,0.9511635899543762,0.8632100820541382,0.5115634799003601
1630679010953,2.557788610458374,0.9511635899543762,0.8632100820541382,0.5115634799003601
1630679011031,2.557788610458374,0.9511635899543762,0.8632100820541382,0.5115634799003601
1630679011249,2.557788610458374,0.9511635899543762,0.8632100820541382,0.5115634799003601
1630679011367,2.557788610458374,0.9511635899543762,0.8632100820541382,0.5115634799003601
1630679011698,2.557788610458374,0.9511635899543762,0.8632100820541382,0.5115634799003601
1630679011794,2.557788610458374,0.9511635899543762,0.8632100820541382,0.5115634799003601
1630679011826,2.557788610458374,0.9511635899543762,0.8632100820541382,0.5115634799003601
1630679011841,2.557788610458374,0.9511635899543762,0.8632100820541382,0.5115634799003601
1630679011857,2.557788610458374,0.9511635899543762,1.4121934175491333,0.5115634799003601
1630679011857,2.557788610458374,0.9511635899543762,1.31987202167511,0.5115634799003601
1630679011997,2.557788610458374,0.9511635899543762,1.4121934175491333,0.5115634799003601
1630679012013,2.557788610458374,0.9511635899543762,1.4121934175491333,0.5115634799003601
1630679012091,2.557788610458374,0.9511635899543762,1.4121934175491333,0.5115634799003601
1630679012154,2.557788610458374,0.9511635899543762,1.4121934175491333,0.5115634799003601
1630679012372,2.557788610458374,0.9511635899543762,1.8183809518814087,0.5115634799003601
1630679012372,2.557788610458374,0.9511635899543762,1.8745297193527224,0.5115634799003601
1630679012372,2.557788610458374,0.9511635899543762,1.8321990966796875,0.5115634799003601
1630679012388,2.557788610458374,0.9511635899543762,1.8321990966796875,0.5115634799003601
1630679012450,2.557788610458374,0.9511635899543762,2.3719558715820312,0.5115634799003601
1630679012544,2.557788610458374,0.9511635899543762,2.3719558715820312,0.5115634799003601
1630679012638,2.557788610458374,0.9511635899543762,2.3719558715820312,0.5115634799003601
1630679012638,2.557788610458374,0.9511635899543762,2.3719558715820312,0.5115634799003601
1630679012781,2.557788610458374,0.9511635899543762,2.3719558715820312,0.5115634799003601
1630679012781,2.557788610458374,0.9511635899543762,2.3719558715820312,0.5115634799003601
1630679012781,2.557788610458374,0.9511635899543762,2.3719558715820312,0.5115634799003601
1630679013047,2.557788610458374,0.9511635899543762,2.3719558715820312,0.5115634799003601
1630679013109,2.557788610458374,0.9511635899543762,2.3719558715820312,0.5115634799003601
1630679013156,2.557788610458374,0.9511635899543762,2.3719558715820312,0.5115634799003601
1630679013188,2.557788610458374,0.9511635899543762,2.3719558715820312,0.5115634799003601
1630679013532,2.557788610458374,0.9511635899543762,2.3698766231536865,0.5115634799003601
1630679013674,2.557788610458374,0.9511635899543762,2.3698766231536865,0.5115634799003601
1630679013753,2.557788610458374,0.9511635899543762,2.3698766231536865,0.5115634799003601
1630679014081,2.557788610458374,0.9511635899543762,2.3698766231536865,0.5115634799003601
1630679014174,2.557788610458374,0.9511635899543762,1.5200108289718628,0.5115634799003601
1630679014299,2.557788610458374,0.9511635899543762,1.5027424097061155,0.5115634799003601
1630679014488,2.557788610458374,0.9511635899543762,1.5027424097061155,0.5115634799003601
1630679014520,2.557788610458374,0.9511635899543762,1.5027424097061155,0.5115634799003601
1630679014567,2.557788610458374,0.9511635899543762,1.5027424097061155,0.5115634799003601
1630679014647,2.557788610458374,0.9511635899543762,1.5027424097061155,0.5115634799003601
1630679014647,2.557788610458374,0.9511635899543762,1.5027424097061155,0.5115634799003601
1630679014647,2.557788610458374,0.9511635899543762,1.5027424097061155,0.5115634799003601
1630679014741,2.557788610458374,0.9511635899543762,1.5027424097061155,0.5115634799003601
1630679014788,2.557788610458374,0.9511635899543762,1.5027424097061155,0.5115634799003601
1630679014851,2.557788610458374,2.4254496097564697,1.5027424097061155,0.5115634799003601
1630679014913,2.557788610458374,2.4254496097564697,1.5027424097061155,0.5115634799003601
1630679015022,2.557788610458374,2.4254496097564697,1.5027424097061155,0.5115634799003601
1630679015179,2.557788610458374,2.4254496097564697,1.5027424097061155,0.5115634799003601
1630679015350,2.557788610458374,2.4254496097564697,1.5027424097061155,0.5115634799003601
1630679015382,2.557788610458374,2.4254496097564697,1.5027424097061155,0.5115634799003601
1630679015460,2.557788610458374,2.4254496097564697,1.5027424097061155,0.5115634799003601
1630679015602,2.557788610458374,2.4254496097564697,1.5027424097061155,0.5115634799003601
1630679015602,2.557788610458374,2.4254496097564697,1.5027424097061155,0.5115634799003601
1630679015665,2.557788610458374,2.4254496097564697,1.5027424097061155,0.5115634799003601
1630679015728,2.557788610458374,2.4254496097564697,1.5027424097061155,0.5115634799003601
1630679015853,2.557788610458374,2.4254496097564697,1.5027424097061155,0.5115634799003601
1630679015962,2.557788610458374,1.4158347845077517,1.5027424097061155,0.5115634799003601
1630679016040,2.557788610458374,1.4158347845077517,0.0181938558816909,0.5115634799003601
1630679016040,2.557788610458374,1.4158347845077517,1.5027424097061155,0.5115634799003601
1630679016165,2.557788610458374,1.4158347845077517,0.0242463704198598,0.5115634799003601
1630679016337,2.557788610458374,1.4158347845077517,0.0242463704198598,0.5115634799003601
1630679016384,2.557788610458374,1.4158347845077517,0.0242463704198598,0.5115634799003601
1630679016496,2.557788610458374,1.4158347845077517,0.0242463704198598,0.5115634799003601
1630679016496,2.557788610458374,1.4158347845077517,0.0242463704198598,0.5115634799003601
1630679016527,2.557788610458374,1.4158347845077517,0.0242463704198598,0.5115634799003601
1630679016558,2.557788610458374,1.4158347845077517,0.0242463704198598,0.5115634799003601
1630679016590,2.557788610458374,1.4158347845077517,0.0242463704198598,0.5115634799003601
1630679016746,2.557788610458374,1.4158347845077517,0.0242463704198598,0.5115634799003601
1630679016808,2.557788610458374,1.4158347845077517,0.0242463704198598,0.5115634799003601
1630679016918,2.557788610458374,1.4158347845077517,0.0242463704198598,0.5115634799003601
1630679016996,2.557788610458374,0.0084434188902378,0.0132114561274647,0.5115634799003601
1630679017121,2.557788610458374,0.0084434188902378,0.0132114561274647,0.5115634799003601
1630679017482,2.557788610458374,0.0084434188902378,0.0132114561274647,0.5115634799003601
1630679017607,2.557788610458374,0.0084434188902378,0.0132114561274647,0.5115634799003601
1630679017810,2.557788610458374,0.0084434188902378,0.0132114561274647,0.5115634799003601
1630679017904,2.557788610458374,0.0084434188902378,0.0132114561274647,0.5115634799003601
1630679017920,2.557788610458374,0.0084434188902378,0.0132114561274647,0.5115634799003601
1630679018045,2.557788610458374,0.0084434188902378,0.0132114561274647,0.5115634799003601
1630679018138,2.557788610458374,0.0084434188902378,0.0132114561274647,0.5115634799003601
1630679018216,2.557788610458374,0.0084434188902378,0.0132114561274647,0.5115634799003601
1630679018248,2.557788610458374,0.0084434188902378,0.0132114561274647,0.5115634799003601
1630679018405,2.557788610458374,0.0084434188902378,0.0132114561274647,0.5115634799003601
1630679018453,2.557788610458374,0.0084434188902378,0.0132114561274647,0.5115634799003601
1630679018485,2.557788610458374,0.0084434188902378,0.0132114561274647,0.5115634799003601
1630679018547,2.557788610458374,0.0084434188902378,0.0132114561274647,0.5115634799003601
1630679018703,2.557788610458374,0.0084434188902378,0.0132114561274647,0.5115634799003601
1630679018766,2.557788610458374,0.0084434188902378,0.0132114561274647,0.5115634799003601
1630679018859,2.557788610458374,0.0084434188902378,0.0132114561274647,0.5115634799003601
1630679018906,2.557788610458374,0.0084434188902378,0.0132114561274647,0.5115634799003601
1630679018938,2.557788610458374,0.0084434188902378,0.0132114561274647,0.5115634799003601
1630679019047,2.557788610458374,0.0084434188902378,0.0132114561274647,0.5115634799003601
1630679019125,2.557788610458374,0.0084434188902378,0.0132114561274647,0.5115634799003601
1630679019219,2.557788610458374,0.0084434188902378,0.0132114561274647,0.5115634799003601
1630679019359,2.557788610458374,0.0084434188902378,0.0132114561274647,0.5115634799003601
1630679019406,2.557788610458374,0.0084434188902378,0.0132114561274647,0.5115634799003601
1630679019520,2.557788610458374,0.0084434188902378,0.0132114561274647,0.5115634799003601
1630679019692,2.557788610458374,0.0084434188902378,0.0132114561274647,0.5115634799003601
1630679019801,2.557788610458374,0.0084434188902378,0.0132114561274647,0.5115634799003601
1630679019879,2.557788610458374,0.0084434188902378,0.0132114561274647,0.5115634799003601
1630679019974,2.557788610458374,0.0084434188902378,0.0132114561274647,0.5115634799003601
1630679020068,2.557788610458374,0.0084434188902378,0.0132114561274647,0.5115634799003601
1630679020145,2.557788610458374,0.0084434188902378,0.0132114561274647,0.5115634799003601
1630679020270,2.557788610458374,0.0084434188902378,0.0132114561274647,0.5115634799003601
1630679020364,2.557788610458374,0.0084434188902378,0.0132114561274647,0.5115634799003601
1630679020442,2.557788610458374,0.0084434188902378,0.0132114561274647,0.5115634799003601
1630679020601,2.557788610458374,0.0084434188902378,0.0132114561274647,0.5115634799003601
1630679020632,2.557788610458374,0.0084434188902378,0.0132114561274647,0.5115634799003601
1630679020788,2.557788610458374,0.0084434188902378,0.0132114561274647,0.5115634799003601
1630679020850,2.557788610458374,0.0084434188902378,0.0132114561274647,0.5115634799003601
1630679020960,2.557788610458374,0.0084434188902378,0.0132114561274647,0.5115634799003601
1630679021132,2.557788610458374,0.0084434188902378,0.0132114561274647,0.5115634799003601
1630679021210,2.557788610458374,0.0084434188902378,0.0132114561274647,0.5115634799003601
1630679021225,2.557788610458374,0.0084434188902378,0.0132114561274647,0.5115634799003601
1630679021382,2.557788610458374,0.0084434188902378,0.0132114561274647,0.5115634799003601
1630679021681,2.557788610458374,0.0084434188902378,0.4339135289192199,0.5115634799003601
1630679021822,2.557788610458374,0.0084434188902378,0.4445986747741699,0.5115634799003601
1630679021869,2.557788610458374,0.0084434188902378,0.4445986747741699,0.5115634799003601
1630679021900,2.557788610458374,0.0084434188902378,0.4445986747741699,0.5115634799003601
1630679022009,2.557788610458374,0.0084434188902378,0.4445986747741699,0.5115634799003601
1630679022056,2.557788610458374,0.0084434188902378,0.4445986747741699,0.5115634799003601
1630679022462,2.557788610458374,0.0084434188902378,0.4445986747741699,0.5115634799003601
1630679023075,2.557788610458374,0.0084434188902378,0.4445986747741699,0.5115634799003601
1630679023231,2.557788610458374,0.0084434188902378,0.4445986747741699,0.5115634799003601
1630679023372,2.557788610458374,0.0084434188902378,0.4445986747741699,0.5115634799003601
1630679023465,2.557788610458374,0.0084434188902378,0.440534234046936,0.5115634799003601
1630679023671,2.557788610458374,0.0084434188902378,0.4271101653575897,0.5115634799003601
1630679023671,2.557788610458374,0.0084434188902378,0.4271101653575897,0.5115634799003601
1630679023874,2.557788610458374,0.0084434188902378,0.4015030860900879,0.5115634799003601
1630679023874,2.557788610458374,0.0084434188902378,0.4271101653575897,0.5115634799003601
1630679023874,2.557788610458374,0.0084434188902378,0.3010709583759308,0.5115634799003601
1630679023889,2.557788610458374,0.0084434188902378,0.3010709583759308,0.5115634799003601
1630679023921,2.557788610458374,0.0084434188902378,0.3010709583759308,0.5115634799003601
1630679024092,2.557788610458374,0.0084434188902378,0.3010709583759308,0.5115634799003601
1630679024155,2.557788610458374,0.0084434188902378,0.3010709583759308,0.5115634799003601
1630679024170,2.557788610458374,0.0084434188902378,0.3010709583759308,0.5115634799003601
1630679024170,2.557788610458374,0.0084434188902378,0.3010709583759308,0.5115634799003601
1630679024217,2.557788610458374,0.0084434188902378,0.3010709583759308,0.5115634799003601
1630679024264,2.557788610458374,0.0084434188902378,0.3010709583759308,0.5115634799003601
1630679024295,2.557788610458374,0.0084434188902378,0.3010709583759308,0.5115634799003601
1630679024295,2.557788610458374,0.0084434188902378,0.3010709583759308,0.5115634799003601
1630679024295,2.557788610458374,0.0084434188902378,0.3010709583759308,0.5115634799003601
1630679024483,2.557788610458374,0.0084434188902378,0.3010709583759308,0.5115634799003601
1630679024689,2.557788610458374,0.0084434188902378,0.3010709583759308,0.5115634799003601
1630679024814,2.557788610458374,0.0084434188902378,0.3010709583759308,0.5115634799003601
1630679024860,2.557788610458374,0.0084434188902378,0.3010709583759308,0.5115634799003601
1630679025048,2.557788610458374,0.0084434188902378,0.3010709583759308,0.5115634799003601
1630679025142,2.557788610458374,1.0626020431518557,0.8613719344139099,0.5115634799003601
1630679025329,2.557788610458374,1.3674927949905396,1.2343591451644895,0.5115634799003601
1630679025610,2.557788610458374,1.3674927949905396,1.2343591451644895,0.5115634799003601
1630679025912,2.557788610458374,1.3674927949905396,1.2343591451644895,0.5115634799003601
1630679026193,2.557788610458374,1.3674927949905396,1.2343591451644895,0.5115634799003601
1630679026193,2.557788610458374,1.3674927949905396,1.2343591451644895,0.5115634799003601
1630679026255,2.557788610458374,1.3674927949905396,1.2343591451644895,0.5115634799003601
1630679026287,2.557788610458374,1.3674927949905396,1.2343591451644895,0.5115634799003601
1630679026333,2.557788610458374,1.3674927949905396,1.2343591451644895,0.5115634799003601
1630679026333,2.557788610458374,1.3674927949905396,1.2343591451644895,0.5115634799003601
1630679026445,2.557788610458374,1.3674927949905396,1.2343591451644895,0.5115634799003601
1630679026492,2.557788610458374,1.3674927949905396,1.2343591451644895,0.5115634799003601
1630679026508,2.557788610458374,1.3674927949905396,1.2343591451644895,0.5115634799003601
1630679026508,2.557788610458374,1.3674927949905396,1.2343591451644895,0.5115634799003601
1630679026523,2.557788610458374,1.3674927949905396,1.2343591451644895,0.5115634799003601
1630679026726,2.557788610458374,1.3351640701293943,1.2343591451644895,0.5115634799003601
1630679027023,2.557788610458374,0.775178074836731,1.2343591451644895,0.5115634799003601
1630679027117,2.557788610458374,0.775178074836731,1.2343591451644895,0.5115634799003601
1630679027320,2.557788610458374,0.775178074836731,1.2343591451644895,0.5115634799003601
1630679027320,2.557788610458374,0.775178074836731,1.2343591451644895,0.5115634799003601
1630679027336,2.557788610458374,0.775178074836731,1.2343591451644895,0.5115634799003601
1630679027367,2.557788610458374,0.775178074836731,1.2343591451644895,0.5115634799003601
1630679027398,2.557788610458374,0.775178074836731,1.2343591451644895,0.5115634799003601
1630679027414,2.557788610458374,0.775178074836731,1.2343591451644895,0.5115634799003601
1630679027445,2.557788610458374,0.775178074836731,1.2343591451644895,0.5115634799003601
1630679027495,2.557788610458374,0.775178074836731,1.2343591451644895,0.5115634799003601
1630679027589,2.557788610458374,0.775178074836731,1.2343591451644895,0.5115634799003601
1630679027729,2.557788610458374,0.775178074836731,1.2343591451644895,0.5115634799003601
1630679027917,2.557788610458374,0.775178074836731,1.2343591451644895,0.5115634799003601
1630679028073,2.557788610458374,0.775178074836731,1.2343591451644895,0.5115634799003601
1630679028136,2.557788610458374,0.775178074836731,1.2343591451644895,0.5115634799003601
1630679028183,2.557788610458374,0.775178074836731,1.2343591451644895,0.5115634799003601
1630679028261,2.557788610458374,0.775178074836731,1.2343591451644895,0.5115634799003601
1630679028417,2.557788610458374,0.775178074836731,1.2343591451644895,0.5115634799003601
1630679028684,2.557788610458374,0.775178074836731,1.2343591451644895,0.5115634799003601
1630679028935,1.1915994882583618,0.775178074836731,1.2343591451644895,0.5115634799003601
1630679029043,1.1915994882583618,-0.1431159079074859,1.2343591451644895,0.5115634799003601
1630679029122,1.1915994882583618,-0.0943238958716392,1.2343591451644895,0.5115634799003601
1630679029481,1.1915994882583618,1.4207470417022705,1.2343591451644895,0.5115634799003601
1630679029481,1.1915994882583618,0.0407009534537792,1.2343591451644895,0.5115634799003601
1630679029703,1.1915994882583618,1.4207470417022705,1.2343591451644895,0.5115634799003601
1630679029719,1.1915994882583618,1.6315933465957642,1.2343591451644895,0.5115634799003601
1630679029875,1.1915994882583618,1.6315933465957642,1.2343591451644895,0.5115634799003601
1630679029891,1.1915994882583618,1.6315933465957642,1.2343591451644895,0.5115634799003601
1630679030078,1.1915994882583618,1.6315933465957642,1.2343591451644895,0.5115634799003601
1630679030125,1.1915994882583618,1.6528505086898804,1.2343591451644895,0.5115634799003601
1630679030141,0.6172441840171814,1.9757968187332156,1.2343591451644895,0.5115634799003601
1630679030141,1.1915994882583618,1.6528505086898804,1.2343591451644895,0.5115634799003601
1630679030266,0.6172441840171814,1.9757968187332156,1.2343591451644895,0.5115634799003601
1630679030297,0.6172441840171814,1.9757968187332156,1.2343591451644895,0.5115634799003601
1630679030313,0.6172441840171814,2.0095973014831543,1.2343591451644895,0.5115634799003601
1630679030313,0.6172441840171814,1.9757968187332156,1.2343591451644895,0.5115634799003601
1630679030453,1.6584688425064087,2.0095973014831543,1.2343591451644895,0.5115634799003601
1630679030500,1.6584688425064087,2.0095973014831543,1.2343591451644895,0.5115634799003601
1630679030531,1.6584688425064087,2.0095973014831543,1.2343591451644895,0.5115634799003601
1630679030627,1.6584688425064087,2.0095973014831543,1.2811055183410645,0.5115634799003601
1630679030627,1.6584688425064087,2.0095973014831543,1.2811055183410645,0.5115634799003601
1630679030721,1.6584688425064087,2.0095973014831543,1.2811055183410645,0.5115634799003601
1630679030815,1.6584688425064087,2.0095973014831543,1.2811055183410645,0.5115634799003601
1630679030830,1.6584688425064087,2.0095973014831543,1.2811055183410645,0.5115634799003601
1630679030987,1.6584688425064087,2.0095973014831543,1.2811055183410645,0.5115634799003601
1630679031174,1.6584688425064087,2.0095973014831543,1.2811055183410645,0.5115634799003601
1630679031205,1.6584688425064087,1.769399881362915,1.2811055183410645,0.5115634799003601
1630679031221,1.6584688425064087,1.769399881362915,1.2811055183410645,0.5115634799003601
1630679031283,1.6584688425064087,1.755746603012085,1.2811055183410645,0.5115634799003601
1630679031346,1.6584688425064087,1.755746603012085,1.2811055183410645,0.5115634799003601
1630679031439,1.6584688425064087,1.4667024612426758,1.2811055183410645,0.5115634799003601
1630679031517,1.6584688425064087,1.4667024612426758,1.2811055183410645,0.5115634799003601
1630679031660,1.6584688425064087,1.4667024612426758,1.2811055183410645,0.5115634799003601
1630679031738,1.6584688425064087,1.4667024612426758,1.2811055183410645,0.5115634799003601
1630679031926,1.6584688425064087,1.4667024612426758,1.2811055183410645,0.5115634799003601
1630679032129,1.6584688425064087,1.4667024612426758,1.2811055183410645,0.5115634799003601
1630679032176,1.6584688425064087,1.4667024612426758,1.2811055183410645,0.5115634799003601
1630679032238,1.6584688425064087,1.4667024612426758,1.2811055183410645,0.5115634799003601
1630679032285,1.6584688425064087,1.4667024612426758,1.2811055183410645,0.5115634799003601
1630679032316,1.6584688425064087,1.4667024612426758,1.2811055183410645,0.5115634799003601
1630679032488,1.6584688425064087,1.4667024612426758,1.2811055183410645,0.5115634799003601
1630679032566,1.6584688425064087,1.4667024612426758,1.2811055183410645,0.5115634799003601
1630679032661,1.6584688425064087,1.4667024612426758,1.2811055183410645,0.5115634799003601
1630679032725,1.6584688425064087,1.4667024612426758,1.2811055183410645,0.5115634799003601
1630679032912,1.6584688425064087,1.4667024612426758,1.2811055183410645,0.5115634799003601
1630679032959,1.6584688425064087,1.4667024612426758,1.2811055183410645,0.5115634799003601
1630679033053,1.6584688425064087,1.4667024612426758,1.2811055183410645,0.5115634799003601
1630679033162,1.6584688425064087,1.4667024612426758,1.2811055183410645,0.5115634799003601
1630679033256,1.6584688425064087,1.4667024612426758,-0.1445160657167434,0.5115634799003601
1630679033396,1.6584688425064087,1.4667024612426758,0.0547376312315464,0.5115634799003601
1630679033490,1.6584688425064087,1.4667024612426758,0.1776095628738403,0.5115634799003601
1630679033664,0.7086948156356812,1.4667024612426758,0.2137535214424133,0.5115634799003601
1630679033805,0.7539037466049194,-0.048095915466547,0.2137535214424133,0.5115634799003601
1630679033946,0.768447756767273,-0.0454094149172306,0.2137535214424133,0.5115634799003601
1630679033961,0.768447756767273,-0.0413871593773365,0.2137535214424133,0.5115634799003601
1630679033977,0.768447756767273,-0.0360783413052558,0.2293030619621276,0.5115634799003601
1630679034117,0.7727901339530945,0.0061208615079522,0.2504095733165741,0.5115634799003601
1630679034165,0.7916979193687439,0.0823052749037742,0.2504095733165741,0.5115634799003601
1630679034305,0.7916979193687439,0.1554392725229263,0.2504095733165741,0.5115634799003601
1630679034383,0.7916979193687439,0.1738619804382324,0.2504095733165741,0.5115634799003601
1630679034494,0.7916979193687439,0.1738619804382324,0.2504095733165741,0.5115634799003601
1630679034572,0.7916979193687439,0.1738619804382324,0.2504095733165741,0.5115634799003601
1630679034697,0.7916979193687439,0.1738619804382324,0.2504095733165741,0.5115634799003601
1630679034806,0.7916979193687439,0.1738619804382324,0.2504095733165741,0.5115634799003601
1630679034869,0.7916979193687439,0.1738619804382324,0.2504095733165741,0.5115634799003601
1630679034962,0.7856297492980957,0.1738619804382324,0.250156968832016,0.5115634799003601
1630679035057,0.7656674981117249,0.1696396023035049,0.2200947701930999,0.5115634799003601
1630679035204,0.722557783126831,0.1574928164482116,0.1485700905323028,0.5115634799003601
1630679035297,0.651063084602356,0.1453740894794464,0.1127628162503242,0.5115634799003601
1630679035422,0.651063084602356,0.1292243003845214,0.1032384186983108,0.5115634799003601
1630679035504,0.651063084602356,0.1179858893156051,0.1032384186983108,0.5115634799003601
1630679035675,0.651063084602356,0.1179858893156051,0.1032384186983108,0.5115634799003601
1630679035691,0.651063084602356,0.1179858893156051,0.1032384186983108,0.5115634799003601
1630679035896,0.651063084602356,0.1179858893156051,0.1032384186983108,0.5115634799003601
1630679035928,0.651063084602356,0.1179858893156051,0.1032384186983108,0.5115634799003601
1630679036022,0.651063084602356,0.1179858893156051,0.1032384186983108,0.5115634799003601
1630679036209,0.651063084602356,0.1179858893156051,0.1032384186983108,0.5115634799003601
1630679036302,0.651063084602356,0.1179858893156051,0.1032384186983108,0.5115634799003601
1630679036302,0.651063084602356,0.1179858893156051,0.1032384186983108,0.5115634799003601
1630679036443,0.651063084602356,0.1179858893156051,0.1032384186983108,0.5115634799003601
1630679036505,0.651063084602356,0.1179858893156051,0.1032384186983108,0.5115634799003601
1630679036696,0.651063084602356,0.1179858893156051,0.1032384186983108,0.5115634799003601
1630679036820,0.651063084602356,0.1179858893156051,0.1032384186983108,0.5115634799003601
1630679036914,0.651063084602356,0.1179858893156051,0.1032384186983108,0.5115634799003601
1630679037226,0.651063084602356,0.1179858893156051,0.1032384186983108,0.5115634799003601
1630679037351,0.651063084602356,0.1179858893156051,0.1032384186983108,0.5115634799003601
1630679037398,0.651063084602356,0.1179858893156051,0.1032384186983108,0.5115634799003601
1630679037492,0.651063084602356,0.1179858893156051,0.1032384186983108,0.5115634799003601
1630679037667,0.651063084602356,0.1179858893156051,0.1032384186983108,0.5115634799003601
1630679037760,0.651063084602356,0.1179858893156051,0.1032384186983108,0.5115634799003601
1630679037901,0.651063084602356,0.1179858893156051,0.1032384186983108,0.5115634799003601
1630679037979,0.651063084602356,0.1179858893156051,0.1032384186983108,0.5115634799003601
1630679038229,0.651063084602356,0.1179858893156051,0.1032384186983108,0.5115634799003601
1630679038229,0.651063084602356,0.1179858893156051,0.1032384186983108,0.5115634799003601
1630679038338,0.651063084602356,0.1179858893156051,0.1032384186983108,0.5115634799003601
1630679038432,0.651063084602356,0.1179858893156051,0.1032384186983108,0.5115634799003601
1630679038447,0.651063084602356,0.1179858893156051,0.1032384186983108,0.5115634799003601
1630679038463,0.651063084602356,0.1179858893156051,0.1032384186983108,0.5115634799003601
1630679038494,0.651063084602356,0.1179858893156051,0.1032384186983108,0.5115634799003601
1630679038525,0.651063084602356,1.0824761390686035,0.5613406896591187,0.5115634799003601
1630679038603,0.651063084602356,1.0824761390686035,0.6064185500144958,0.5115634799003601
1630679038809,0.651063084602356,1.0824761390686035,0.6346678733825684,0.5115634799003601
1630679038856,0.651063084602356,1.0824761390686035,0.6346678733825684,0.5115634799003601
1630679038966,0.6950116753578186,1.0824761390686035,0.6346678733825684,0.5115634799003601
1630679039169,0.7053455114364624,1.0824761390686035,0.6346678733825684,0.5115634799003601
1630679039372,0.7148182392120361,1.0824761390686035,0.6346678733825684,0.5115634799003601
1630679039497,0.7148182392120361,1.4488208293914795,1.4412602186203003,0.5115634799003601
1630679039559,0.7148182392120361,1.4488208293914795,1.4412602186203003,0.5115634799003601
1630679039575,0.7148182392120361,1.4488208293914795,1.4412602186203003,0.5115634799003601
1630679039622,0.7296448349952698,1.4488208293914795,1.4412602186203003,0.5115634799003601
1630679039655,0.7437689304351807,1.4488208293914795,1.4412602186203003,0.5115634799003601
1630679039953,0.7437689304351807,1.445876121520996,1.4412602186203003,0.5115634799003601
1630679040109,0.7437689304351807,1.445876121520996,1.4412602186203003,0.5115634799003601
1630679040234,0.7437689304351807,1.445876121520996,1.4412602186203003,0.9948440790176392
1630679040343,0.7437689304351807,1.445876121520996,1.4412602186203003,1.020622491836548
1630679040455,0.7333921790122986,1.445876121520996,1.4412602186203003,1.0215476751327517
1630679040486,0.7434133291244507,1.445876121520996,1.4412602186203003,1.0215476751327517
1630679040486,0.81856769323349,1.445876121520996,1.4412602186203003,1.0215476751327517
1630679040830,0.9342988729476928,1.445876121520996,1.4412602186203003,1.0215476751327517
1630679040892,1.17817485332489,1.445876121520996,1.4412602186203003,1.0215476751327517
1630679040955,1.245061993598938,1.445876121520996,1.4412602186203003,1.0215476751327517
1630679041033,1.2777527570724487,0.8059934377670288,0.6219289898872375,1.0215476751327517
1630679041220,1.294140338897705,0.8059934377670288,0.6402363777160645,1.0215476751327517
1630679041345,1.3011747598648071,0.8059934377670288,0.6402363777160645,1.0215476751327517
1630679041454,1.3033429384231567,0.8059934377670288,0.6329829096794128,1.0215476751327517
1630679041534,1.3031209707260132,0.8059934377670288,0.6241470575332642,0.979237735271454
1630679041691,1.300562858581543,1.142030954360962,1.1233752965927124,0.9164550304412842
1630679041737,1.2965824604034424,1.142030954360962,1.1233752965927124,0.9164550304412842
1630679041784,1.506851077079773,1.3668755292892456,1.1233752965927124,0.9164550304412842
1630679041816,1.5068986415863037,1.3668755292892456,1.1233752965927124,0.9164550304412842
1630679041894,1.5068986415863037,1.3668755292892456,1.1233752965927124,0.9164550304412842
1630679041925,1.5077311992645264,1.3668755292892456,1.1233752965927124,1.0642693042755127
1630679041941,1.5077311992645264,1.3668755292892456,1.1233752965927124,1.072007656097412
1630679041987,1.5077311992645264,1.3668755292892456,1.1233752965927124,1.0862547159194946
1630679042050,1.4839483499526978,1.3668755292892456,1.1233752965927124,1.1129488945007324
1630679042081,1.4831053018569946,1.3668755292892456,1.1233752965927124,1.1642448902130127
1630679042284,1.4860843420028689,1.3668755292892456,1.1233752965927124,1.5857869386672974
1630679042347,1.4821362495422363,1.3668755292892456,1.1233752965927124,1.5861775875091553
1630679042487,1.4821362495422363,1.3668755292892456,1.1233752965927124,1.5861775875091553
1630679042519,1.4821362495422363,1.3668755292892456,1.1233752965927124,1.5861775875091553
1630679042706,1.4821362495422363,1.3668755292892456,1.1233752965927124,1.5861775875091553
1630679042768,1.4864035844802856,1.3644195795059204,0.316480815410614,1.5861775875091553
1630679042831,1.4864035844802856,1.3644195795059204,0.2954773604869842,1.5861775875091553
1630679042893,1.2936339378356934,0.8468177318572998,0.2873368561267853,1.5884394645690918
1630679043018,1.2586686611175537,0.8129869103431702,0.2873368561267853,1.5805907249450684
1630679043159,1.2586686611175537,0.8129869103431702,0.286040335893631,1.5835295915603638
1630679043237,1.250428318977356,0.7684960961341858,0.2927455008029938,1.5835295915603638
1630679043315,1.250428318977356,0.7684960961341858,0.2930701375007629,1.5835295915603638
1630679043456,1.250428318977356,0.7684960961341858,0.2990258038043976,1.5835295915603638
1630679043534,1.250428318977356,0.7684960961341858,0.2990258038043976,1.5835295915603638
1630679043616,1.250428318977356,0.7684960961341858,0.2990258038043976,1.5835295915603638
1630679043788,1.207511067390442,0.7684960961341858,0.1578640937805175,1.1410406827926636
1630679043928,1.1778087615966797,0.7684960961341858,0.1619938015937805,1.1316453218460083
1630679043991,1.1435219049453735,0.7684960961341858,0.1619938015937805,1.1134296655654907
1630679044038,1.1272648572921753,0.7684960961341858,0.1628202050924301,1.081468939781189
1630679044147,1.112082839012146,0.7684960961341858,0.1660165041685104,1.0443580150604248
1630679044225,0.9159162044525146,0.0579718276858329,0.1673943251371383,1.0368483066558838
1630679044350,0.9113287329673768,0.0580698773264884,0.1454335153102874,1.030587911605835
1630679044475,0.9117465019226074,0.0631175339221954,0.1277780681848526,1.028813362121582
1630679044553,0.8953664898872375,0.1022725403308868,0.1277780681848526,1.028419852256775
1630679044824,0.8904944062232971,0.2459996491670608,0.1277780681848526,1.0137423276901243
1630679044887,0.8943336009979248,0.3248472511768341,0.1161100342869758,0.9338483214378356
1630679044980,0.8961836695671082,0.3596814572811126,0.0902485847473144,0.8953145146369934
1630679045043,0.901167929172516,0.3920369446277618,0.0595983080565929,0.9281631708145142
1630679045090,0.9002838134765625,0.4030623137950897,0.0268644616007804,0.9551896452903748
1630679045136,0.8999671339988708,0.4030623137950897,-0.0298188086599111,0.9530488848686218
1630679045261,0.8789728879928589,0.4005755484104156,-0.0791512429714202,0.954866886138916
1630679045386,0.8395441174507141,0.4005755484104156,-0.0341125726699829,0.9575095176696776
1630679045449,0.8480623364448547,0.4005755484104156,0.0161100439727306,0.9651909470558168
1630679045543,0.8524848222732544,0.4005755484104156,0.0345140621066093,0.9857930541038512
1630679045718,0.855076253414154,0.4005755484104156,0.0552333034574985,1.081663727760315
1630679045843,0.855076253414154,0.4005755484104156,0.0675525292754173,1.1685625314712524
1630679045921,0.855076253414154,0.4005755484104156,0.0535237155854702,1.192231059074402
1630679045999,0.859566330909729,0.4005755484104156,0.0479135029017925,1.2029101848602295
1630679046155,0.8587967157363892,0.4005755484104156,0.0479135029017925,1.2124853134155271
1630679046421,0.8584761023521423,0.4005755484104156,0.045500174164772,1.2399864196777344
1630679046483,0.870762288570404,0.3717384040355682,0.0409315526485443,1.2695553302764893
1630679046577,0.900766372680664,0.251324713230133,0.0434160865843296,1.2734432220458984
1630679046690,0.912885308265686,0.1819495111703872,0.0483293049037456,1.2734432220458984
1630679046690,0.9121547937393188,0.1574359685182571,0.0646647438406944,1.2742189168930054
1630679046783,0.9070279598236084,0.1212850213050842,0.0798737853765487,1.2801209688186646
1630679046955,0.9103229641914368,0.0794318839907646,0.0798737853765487,1.2801209688186646
1630679047049,0.9112978577613832,0.0528494529426097,0.0798737853765487,1.296048879623413
1630679047111,0.9207481145858764,0.0209792032837867,0.0798737853765487,1.3022476434707642
1630679047267,0.9266361594200134,-0.0252881646156311,0.0576099343597888,1.302269697189331
1630679047330,0.92297101020813,-0.0381964445114135,0.0149619663134217,1.3056820631027222
1630679047580,0.91983824968338,-0.0430144891142845,-0.0397674813866615,1.301924228668213
1630679047810,0.916466236114502,-0.0399164669215679,-0.1135232001543045,1.3007556200027466
1630679048013,0.91960471868515,-0.0291815884411335,-0.1313549429178238,1.2980341911315918
1630679048154,0.922565758228302,-0.0038468942511826,-0.117260456085205,1.2939105033874512
1630679048378,0.9158616065979004,0.0056450958363711,-0.1060936525464057,1.2805300951004028
1630679048534,1.0548256635665894,0.7403178811073303,0.7627391815185547,1.247921109199524
1630679048721,1.0519400835037231,0.7403178811073303,0.7627391815185547,1.2321544885635376
1630679048820,1.0416425466537476,1.280219554901123,0.7627391815185547,1.213709592819214
1630679048821,1.0284628868103027,1.280219554901123,0.7627391815185547,1.1981041431427002
1630679048860,1.441247820854187,1.4340022802352903,1.4310601949691772,1.1997730731964111
1630679049014,1.441247820854187,1.4340022802352903,1.4310601949691772,1.1782747507095337
1630679049029,1.5393626689910889,1.5080432891845703,1.4310601949691772,1.211595058441162
1630679049146,1.5763379335403442,1.5169421434402466,1.4310601949691772,1.482881784439087
1630679049152,1.5393626689910889,1.5080432891845703,1.4310601949691772,1.1956501007080078
1630679049189,1.6107141971588137,1.528189778327942,1.4505336284637451,1.5901445150375366
1630679049250,1.624860405921936,1.5514328479766846,1.5126259326934814,1.5901445150375366
1630679049339,1.624860405921936,1.5514328479766846,1.5126259326934814,1.5901445150375366
1630679049448,1.6388133764266968,1.6274471282958984,1.518385648727417,1.5901445150375366
1630679049542,1.6388133764266968,1.6274471282958984,1.518385648727417,1.5901445150375366
1630679049683,1.6388133764266968,1.6274471282958984,1.518385648727417,1.5901445150375366
1630679049683,1.647809624671936,1.6297835111618042,1.5288753509521484,1.5901445150375366
1630679049729,1.647809624671936,1.6297835111618042,1.5348868370056152,1.5901445150375366
1630679049870,1.647809624671936,1.6297835111618042,1.5348868370056152,1.5901445150375366
1630679050011,1.647809624671936,1.6297835111618042,1.5348868370056152,1.5901445150375366
1630679050120,1.6783195734024048,1.6238069534301758,1.5472123622894287,1.6664915084838867
1630679050173,1.6783195734024048,1.6243613958358765,1.5472123622894287,1.6664915084838867
1630679050585,1.6566966772079468,1.6144769191741943,1.5472123622894287,1.6664915084838867
1630679050585,1.6566966772079468,1.6144769191741943,1.5472123622894287,1.6664915084838867
1630679051021,1.63186514377594,1.6144769191741943,1.5472123622894287,1.6305937767028809
1630679051144,1.6126619577407837,1.6111758947372437,1.5408421754837036,1.5341044664382937
1630679051194,1.754582166671753,2.055142641067505,1.5093175172805786,1.5666110515594482
1630679051195,1.5738525390625,1.5875606536865234,1.5093175172805786,1.5666110515594482
1630679051236,1.754582166671753,2.055142641067505,1.5218946933746338,1.5666110515594482
1630679051236,1.754582166671753,2.055142641067505,1.5200310945510864,1.5666110515594482
1630679051347,1.754582166671753,2.055142641067505,1.5218946933746338,1.5666110515594482
1630679051451,1.7425260543823242,2.055142641067505,1.5218946933746338,1.5666110515594482
1630679051529,1.7425260543823242,2.055142641067505,1.498151421546936,1.5666110515594482
1630679051578,1.7539838552474976,2.055142641067505,1.4987491369247437,1.6023647785186768
1630679051578,1.832372546195984,2.125655174255371,1.4987491369247437,1.6361415386199951
1630679051690,1.8234708309173584,2.125655174255371,1.4730567932128906,1.5207895040512085
1630679051849,2.215588092803955,2.130704402923584,1.528824806213379,2.203613758087158
1630679051958,2.215588092803955,2.130704402923584,1.5292582511901855,2.203613758087158
1630679052021,2.215588092803955,2.130704402923584,1.5292582511901855,2.203613758087158
1630679052121,2.215588092803955,2.130704402923584,1.5292582511901855,2.203613758087158
1630679052183,2.215588092803955,2.130704402923584,1.531488299369812,2.203613758087158
1630679052246,2.215588092803955,2.130704402923584,1.531488299369812,2.203613758087158
1630679052456,2.215588092803955,2.122199058532715,1.531488299369812,2.203613758087158
1630679052518,2.215588092803955,2.1246135234832764,1.503090739250183,2.203613758087158
1630679052547,2.215588092803955,2.1246135234832764,1.5280053615570068,2.203613758087158
1630679052584,2.215588092803955,2.1246135234832764,1.503090739250183,2.203613758087158
1630679052584,2.215588092803955,2.1246135234832764,1.503090739250183,2.203613758087158
1630679052631,2.215588092803955,2.1246135234832764,1.503090739250183,2.203613758087158
1630679052808,2.215588092803955,2.1246135234832764,1.503090739250183,2.203613758087158
1630679052832,2.215588092803955,1.915809631347656,1.503090739250183,2.203613758087158
1630679053003,2.215588092803955,1.915809631347656,1.503090739250183,2.203613758087158
1630679053018,1.5698893070220947,1.855509877204895,1.4685269594192505,1.711450695991516
1630679053065,1.5644545555114746,1.855509877204895,1.427591323852539,1.711450695991516
1630679053097,1.5644545555114746,1.855509877204895,1.427591323852539,1.711450695991516
1630679053190,1.5644545555114746,1.855509877204895,1.427591323852539,1.7068758010864258
1630679053446,1.576857328414917,1.855509877204895,1.421562433242798,1.672682523727417
1630679053589,1.576857328414917,1.855509877204895,1.421562433242798,1.672682523727417
1630679053683,1.576857328414917,1.855509877204895,1.421562433242798,1.7242387533187866
1630679053901,1.5753999948501587,1.4911655187606812,-0.0226602051407098,1.7242387533187866
1630679054042,1.5753999948501587,1.480167031288147,-0.0226587858051061,1.708821415901184
1630679054152,1.5753999948501587,1.480167031288147,-0.0215855818241834,1.708821415901184
1630679054258,1.5753999948501587,1.480167031288147,-0.0112867401912808,1.708821415901184
1630679054383,1.466755509376526,1.460789442062378,0.0129980277270078,1.708821415901184
1630679054383,1.5159190893173218,1.4754633903503418,0.0547860711812973,1.7064993381500244
1630679054522,1.5159190893173218,1.4637551307678225,0.0577082894742488,1.7033450603485107
1630679054682,1.5159190893173218,1.4637551307678225,0.0577082894742488,1.5259548425674438
1630679054869,1.5159190893173218,1.4637551307678225,0.0572806857526302,1.5034308433532717
1630679054963,1.5159190893173218,1.4637551307678225,0.0503395311534404,1.482434868812561
1630679055228,1.5159190893173218,1.4637551307678225,0.0290429946035146,1.4679806232452393
1630679055291,1.5159190893173218,1.4637551307678225,0.015171580016613,1.4536850452423096
1630679055291,1.302656173706055,1.277157187461853,0.0066241123713552,1.45366370677948
1630679055400,1.302656173706055,1.3861287832260132,-0.0098695149645209,1.060678482055664
1630679055400,1.302656173706055,1.3861287832260132,0.0022645674180239,1.442245602607727
1630679055447,1.302656173706055,1.466064691543579,-0.0183087699115276,1.505014419555664
1630679055556,1.3487128019332886,2.015129566192627,1.0788019895553589,1.500158429145813
1630679055603,1.3487128019332886,2.015129566192627,1.0788019895553589,1.5339200496673584
1630679055639,1.3487128019332886,2.015129566192627,1.0788019895553589,1.5339200496673584
1630679055889,1.3487128019332886,2.015129566192627,1.0788019895553589,1.5339200496673584
1630679056138,1.0984230041503906,2.015129566192627,1.0788019895553589,1.5339200496673584
1630679056185,1.0984230041503906,2.015129566192627,1.0788019895553589,1.5584537982940674
1630679056263,1.3994348049163818,2.015129566192627,1.3959394693374634,1.5584537982940674
1630679056263,1.3994348049163818,2.015129566192627,1.3757731914520264,1.5584537982940674
1630679056387,1.3994348049163818,2.015129566192627,1.3959394693374634,1.5584537982940674
1630679056497,1.3994348049163818,2.141803026199341,1.3959394693374634,1.5584537982940674
1630679056590,1.5205247402191162,2.141803026199341,1.4691007137298584,1.5584537982940674
1630679056684,1.5205247402191162,2.141803026199341,1.4691007137298584,1.5584537982940674
1630679056731,1.5205247402191162,2.141803026199341,1.4691007137298584,1.5584537982940674
1630679056887,1.5205247402191162,2.141803026199341,1.4691007137298584,1.5584537982940674
1630679057022,1.5205247402191162,2.141803026199341,1.4691007137298584,1.4896132946014404
1630679057132,1.5161006450653076,2.052109956741333,1.4691007137298584,1.4896132946014404
1630679057639,1.5161006450653076,2.052109956741333,1.4691007137298584,1.4446570873260498
1630679057954,1.5161006450653076,2.052109956741333,1.4691007137298584,1.4597750902175903
1630679058001,1.5161006450653076,2.052109956741333,1.4691007137298584,1.4710897207260132
1630679058142,1.5289366245269775,2.0525145530700684,1.4716213941574097,1.4710897207260132
1630679058323,1.5289366245269775,2.053642749786377,1.4716213941574097,1.4710897207260132
1630679058369,1.513340711593628,2.055827617645264,1.4526464939117432,1.4710897207260132
1630679058401,1.513340711593628,2.055827617645264,1.4526464939117432,1.4710897207260132
1630679058401,1.513340711593628,2.053642749786377,1.4682796001434326,1.4710897207260132
1630679058401,1.513340711593628,1.628509283065796,1.4526464939117432,1.4710897207260132
1630679058528,1.2711350917816162,1.600981831550598,1.2664610147476196,1.4710897207260132
1630679058556,1.5260268449783323,1.6107933521270752,1.2664610147476196,2.2250375747680664
1630679058572,1.5260268449783323,1.6107933521270752,1.2664610147476196,2.2250375747680664
1630679058572,1.4307467937469482,1.6014962196350098,1.2664610147476196,2.2250375747680664
1630679058697,1.5260268449783323,1.6107933521270752,1.2664610147476196,2.2250375747680664
1630679058791,1.6434065103530884,1.6404709815979004,1.5434672832489014,2.942525148391724
1630679058916,1.6434065103530884,2.018475294113159,1.5633156299591064,2.942525148391724
1630679058931,1.6434065103530884,2.018475294113159,1.5633156299591064,2.942525148391724
1630679058994,1.6434065103530884,2.1060407161712646,1.5633156299591064,2.942525148391724
1630679059117,1.6391209363937378,2.1060407161712646,1.5429006814956665,2.942525148391724
1630679059180,1.6391209363937378,2.1060407161712646,1.5893679857254028,2.942525148391724
1630679059260,1.6391209363937378,2.1060407161712646,1.5893679857254028,2.942525148391724
1630679059261,1.6542633771896362,2.1060407161712646,1.5954774618148804,2.942525148391724
1630679059306,1.6542633771896362,2.1060407161712646,1.5954774618148804,2.942525148391724
1630679059463,1.663588047027588,2.100428342819214,1.5954774618148804,2.942525148391724
1630679059828,1.9564573764801023,2.105618715286255,1.6009070873260498,2.942525148391724
1630679059968,1.9564573764801023,2.105618715286255,1.6009070873260498,2.942525148391724
1630679060278,1.9564573764801023,2.105618715286255,1.6009070873260498,2.942525148391724
1630679060377,1.9564573764801023,2.105618715286255,1.6009070873260498,2.942525148391724
1630679060576,1.9564573764801023,2.105618715286255,1.6009070873260498,2.942525148391724
1630679060590,1.9451608657836916,2.105618715286255,1.5295311212539673,2.738745212554932
1630679060593,1.9451608657836916,1.9852107763290403,1.5244522094726562,2.266266345977783
1630679060797,1.9451608657836916,2.0342092514038086,1.5244522094726562,1.6842976808547974
1630679060799,1.9451608657836916,1.9852107763290403,1.5244522094726562,1.6842976808547974
1630679060801,2.097054481506348,2.0342092514038086,1.5323442220687866,1.6842976808547974
1630679060906,2.097054481506348,2.0342092514038086,1.4972631931304932,1.6842976808547974
1630679060937,2.097054481506348,2.0342092514038086,1.4972631931304932,1.6842976808547974
1630679060953,2.097054481506348,2.0342092514038086,1.4872218370437622,1.6842976808547974
1630679060961,2.097054481506348,2.0342092514038086,1.4872218370437622,1.6868709325790403
1630679061060,2.1085546016693115,2.044320106506348,1.7799255847930908,1.6868709325790403
1630679061345,2.0879786014556885,2.041538953781128,1.7799255847930908,1.6868709325790403
1630679061461,2.0879786014556885,2.041538953781128,1.7799255847930908,1.6868709325790403
1630679061508,2.0879786014556885,2.247016906738281,1.7799255847930908,1.6868709325790403
1630679061665,2.088346004486084,2.247016906738281,1.7799255847930908,1.6868709325790403
1630679061712,2.088346004486084,2.247016906738281,1.7799255847930908,1.6868709325790403
1630679061729,2.088346004486084,2.247016906738281,1.7799255847930908,1.5492452383041382
1630679061757,2.088346004486084,2.247016906738281,1.7799255847930908,1.542651891708374
1630679061901,2.088346004486084,2.247016906738281,1.7799255847930908,1.542651891708374
1630679061929,2.088346004486084,2.24167537689209,1.7799255847930908,1.5912963151931765
1630679062029,1.8072528839111328,2.24167537689209,1.7673574686050415,1.5912963151931765
1630679062116,1.8072528839111328,2.24167537689209,1.7673574686050415,1.6324164867401123
1630679062222,1.8072528839111328,2.24167537689209,1.7673574686050415,1.6324164867401123
1630679062269,1.8072528839111328,2.24167537689209,1.7673574686050415,1.6324164867401123
1630679062425,1.8072528839111328,2.24167537689209,1.7673574686050415,1.614987015724182
1630679062519,1.6652759313583374,2.24167537689209,1.4198533296585083,1.6039350032806396
1630679062672,1.6775267124176023,2.24167537689209,1.4002708196640017,1.651555061340332
1630679062813,1.6775267124176023,2.24167537689209,1.4002708196640017,1.651555061340332
1630679062844,1.6775267124176023,1.4185395240783691,1.4002708196640017,1.6739704608917236
1630679062985,1.635798454284668,1.4001483917236328,1.4002708196640017,1.6739704608917236
1630679063047,1.635798454284668,1.4001483917236328,1.4002708196640017,1.6739704608917236
1630679063141,1.635798454284668,1.4001483917236328,1.4002708196640017,1.6739704608917236
1630679063188,1.635679841041565,1.4001483917236328,1.3829795122146606,1.667241096496582
1630679063234,1.5799131393432615,1.363500475883484,1.3829795122146606,1.667241096496582
1630679063362,1.5514167547225952,1.363500475883484,1.3829795122146606,1.6266298294067385
1630679063521,1.5476301908493042,1.363500475883484,1.3829795122146606,1.6264612674713137
1630679063636,1.5476301908493042,1.363500475883484,1.3829795122146606,1.5805275440216064
1630679063699,1.4828201532363892,1.363500475883484,1.3829795122146606,1.5809568166732788
1630679063808,1.4828201532363892,1.363500475883484,1.3829795122146606,1.5809568166732788
1630679063808,1.4828201532363892,1.363500475883484,1.3829795122146606,1.5809568166732788
1630679063902,1.4828201532363892,1.363500475883484,1.3829795122146606,1.5809568166732788
1630679063933,1.0043187141418457,1.363500475883484,1.3829795122146606,1.4342718124389648
1630679064120,1.0043187141418457,1.363500475883484,1.3829795122146606,1.4342718124389648
1630679064120,1.0043187141418457,0.2634817659854889,1.3829795122146606,1.0180065631866455
1630679064246,1.0043187141418457,0.2634817659854889,-0.3197011351585388,1.0180065631866455
1630679064308,0.99715393781662,0.2634817659854889,-0.2815867066383362,1.0180065631866455
1630679064448,0.9959942102432252,0.2641215324401855,-0.2322117984294891,0.9693521857261658
1630679064542,0.9941789507865906,0.2831346392631531,-0.176182672381401,1.047440528869629
1630679064669,1.0205342769622805,0.3235918283462524,-0.1055437326431274,1.152922511100769
1630679064888,1.0640501976013184,0.3545540273189544,-0.033938892185688,1.2244079113006592
1630679064935,1.0896563529968262,0.3653255701065063,0.0181728545576334,1.2488415241241455
1630679065044,1.082459807395935,0.3719510734081268,0.0498801581561565,1.2529090642929075
1630679065201,1.060654878616333,0.3767343461513519,0.0856937319040298,1.2409101724624634
1630679065250,1.0629854202270508,0.382116436958313,0.1139145269989967,1.2214418649673462
1630679065461,1.0867751836776731,0.3856933712959289,0.1139145269989967,1.210107922554016
1630679065649,1.102197766304016,0.3688349425792694,0.1139145269989967,1.207310676574707
1630679065758,1.11870539188385,0.3491946756839752,0.1139145269989967,1.2037783861160278
1630679065933,1.1374216079711914,0.344619482755661,0.1139145269989967,1.2029881477355957
1630679066011,1.1479490995407104,0.3231460452079773,0.1139145269989967,1.2029881477355957
1630679066136,1.5000015497207642,0.3018661439418793,0.1139145269989967,1.2029881477355957
1630679066324,1.500328540802002,0.2975720167160034,0.1139145269989967,1.2000716924667358
1630679066482,1.5019408464431765,0.2961979210376739,0.107347086071968,1.5298149585723877
1630679066482,1.5013864040374756,0.2961979210376739,0.1139145269989967,1.5298149585723877
1630679066623,1.5019408464431765,0.2961979210376739,0.0868682190775871,1.5298149585723877
1630679066717,1.5019408464431765,0.2799354195594787,0.0599184483289718,1.5545092821121216
1630679066889,1.5019408464431765,0.2015306800603866,0.0481164008378982,1.5463484525680542
1630679066998,1.5012065172195437,0.0963873490691185,0.0080966856330633,1.6607036590576172
1630679067093,1.5001453161239624,0.0244275238364934,-0.0340462811291217,1.6607036590576172
1630679067248,1.4993748664855957,-0.0268985964357852,-0.0683437511324882,1.6607036590576172
1630679067468,1.5195443630218506,-0.0268985964357852,1.270642876625061,1.6940693855285645
1630679067468,1.5195443630218506,-0.0268985964357852,0.8311299681663513,1.6607036590576172
1630679067485,1.5195443630218506,-0.0268985964357852,0.8311299681663513,1.6607036590576172
1630679067610,1.5195443630218506,-0.0268985964357852,1.270642876625061,1.6940693855285645
1630679067610,1.5195443630218506,-0.0268985964357852,1.270642876625061,1.6940693855285645
1630679067673,1.4883275032043457,-0.0268985964357852,1.475865602493286,1.6634385585784912
1630679067673,1.2907739877700806,-0.0268985964357852,1.270642876625061,1.6940693855285645
1630679067688,1.4794299602508545,-0.0268985964357852,1.475865602493286,1.6940693855285645
1630679067735,1.4843313694000244,1.8460590839385984,1.475865602493286,1.6634385585784912
1630679067782,1.4843313694000244,1.8460590839385984,1.475865602493286,1.6634385585784912
1630679068016,1.48976731300354,1.8460590839385984,1.475865602493286,1.6619292497634888
1630679068204,1.48976731300354,1.8460590839385984,1.475865602493286,1.6619292497634888
1630679068266,1.5799826383590698,1.8460590839385984,1.4943946599960327,1.526303768157959
1630679068423,1.5799826383590698,1.8460590839385984,1.4943946599960327,1.526303768157959
1630679068579,1.5833935737609863,1.8460590839385984,1.4943946599960327,1.526303768157959
1630679068766,1.5829005241394043,1.8460590839385984,1.4943946599960327,1.5221771001815796
1630679068829,1.5850452184677124,1.8460590839385984,1.4943946599960327,1.5274059772491455
1630679069063,1.5957791805267334,1.8460590839385984,1.491146683692932,1.5355520248413086
1630679069126,1.5957791805267334,1.8460590839385984,1.491146683692932,1.5355520248413086
1630679069251,1.6074885129928589,1.8460590839385984,1.502727746963501,1.5355520248413086
1630679069329,1.6074885129928589,1.8460590839385984,1.502727746963501,1.5355520248413086
1630679069469,1.6041724681854248,1.4898104667663574,1.4717721939086914,1.5355520248413086
1630679069469,1.6235265731811523,1.5054690837860107,1.4717721939086914,1.5355520248413086
1630679069500,1.6041724681854248,1.4898104667663574,1.4717721939086914,1.5355520248413086
1630679069579,1.6041724681854248,1.4898104667663574,1.4717721939086914,1.5355520248413086
1630679069672,1.5967068672180176,1.4898104667663574,1.4717721939086914,1.4791412353515625
1630679069688,1.5967068672180176,1.4898104667663574,1.4717721939086914,1.552427053451538
1630679069906,1.5514627695083618,1.5393913984298706,1.4495209455490112,1.552427053451538
1630679069906,1.5514627695083618,1.5393913984298706,1.4067542552947998,1.6294779777526855
1630679070000,1.525006890296936,1.4987345933914185,1.3822904825210571,1.6294779777526855
1630679070062,1.525006890296936,1.4987345933914185,1.3822904825210571,1.6294779777526855
1630679070203,1.525006890296936,1.4987345933914185,1.3822904825210571,1.5703253746032717
1630679070359,1.525006890296936,1.4987345933914185,1.3822904825210571,1.551440715789795
1630679070562,1.525006890296936,1.4987345933914185,1.3822904825210571,1.5824341773986816
1630679070644,1.4471653699874878,1.4987345933914185,0.2999438047409057,1.5824341773986816
1630679070769,1.4471653699874878,1.4987345933914185,0.2869418263435364,1.5824341773986816
1630679070847,1.45646333694458,1.5878417491912842,0.272113174200058,1.5824341773986816
1630679070847,1.2253241539001465,1.500522494316101,0.2785646021366119,1.5824341773986816
1630679070910,1.45646333694458,1.5941978693008425,0.2725250124931335,1.5824341773986816
1630679071003,1.45646333694458,1.5941978693008425,0.2729439735412597,1.5824341773986816
1630679071003,1.45646333694458,1.5941978693008425,0.2709541916847229,1.5824341773986816
1630679071113,1.45646333694458,1.5941978693008425,-0.1638119220733642,1.5824341773986816
1630679071300,1.4190326929092407,1.481182336807251,-0.1194434240460395,1.5824341773986816
1630679071347,1.4190326929092407,1.481182336807251,-0.0838918983936309,1.4546507596969604
1630679071456,1.418351173400879,1.481182336807251,-0.0637303441762924,1.441401124000549
1630679071550,1.418351173400879,1.481182336807251,-0.0633108839392662,1.439481496810913
1630679071662,1.562656044960022,1.5402843952178955,1.439614176750183,1.4384456872940063
1630679071818,1.562656044960022,1.5402843952178955,1.439614176750183,1.438288331031799
1630679071833,1.6544249057769775,1.570403218269348,1.5124598741531372,0.8034197688102722
1630679071958,1.670603632926941,1.5739128589630127,1.5124598741531372,0.8034197688102722
1630679072240,1.6728613376617432,1.5739128589630127,1.5124598741531372,0.8034197688102722
1630679072396,1.6728613376617432,1.5739128589630127,1.5124598741531372,0.9256864786148072
1630679072583,1.6323696374893188,1.5488300323486328,1.5124598741531372,0.9256864786148072
1630679072666,1.6323696374893188,1.5456706285476685,1.5124598741531372,0.9256864786148072
1630679072823,1.6323696374893188,1.5456706285476685,1.5124598741531372,1.0783209800720217
1630679072823,1.6323696374893188,1.5456706285476685,1.5124598741531372,1.0783209800720217
1630679072995,1.8791632652282717,1.5456706285476685,1.5124598741531372,1.072578191757202
1630679072995,1.8791632652282717,1.5456706285476685,1.5124598741531372,1.3738127946853638
1630679072995,1.65717613697052,1.5456706285476685,1.5124598741531372,1.0769836902618408
1630679073073,1.8791632652282717,1.5456706285476685,1.5124598741531372,1.3738127946853638
1630679073244,1.8791632652282717,1.5456706285476685,1.5124598741531372,1.3738127946853638
1630679073572,1.871637463569641,1.509123682975769,1.462173581123352,1.3738127946853638
1630679073572,1.871637463569641,1.509123682975769,1.462173581123352,1.3738127946853638
1630679073635,1.867228388786316,1.426275610923767,0.165964737534523,1.3738127946853638
1630679073730,1.867228388786316,1.426275610923767,1.409753918647766,1.3738127946853638
1630679073830,1.867228388786316,1.426275610923767,1.409753918647766,1.3738127946853638
1630679073908,1.867228388786316,1.426275610923767,1.5482292175292969,1.367592692375183
1630679073908,1.867228388786316,1.426275610923767,1.554468274116516,1.3671796321868896
1630679073940,1.867228388786316,1.426275610923767,1.554468274116516,1.3671796321868896
1630679074033,1.867228388786316,1.426275610923767,1.554468274116516,1.3260440826416016
1630679074049,1.867228388786316,1.426275610923767,1.554468274116516,1.3281115293502808
1630679074174,1.867228388786316,1.426275610923767,1.554468274116516,1.3193739652633667
1630679074252,1.4964035749435425,1.426275610923767,1.5762948989868164,1.4454199075698853
1630679074315,0.6104579567909241,1.426275610923767,1.5762948989868164,1.4350179433822632
1630679074377,0.6104579567909241,1.4410771131515503,1.5762948989868164,1.4350179433822632
1630679074486,0.6104579567909241,1.4410771131515503,1.5762948989868164,1.4350179433822632
1630679074611,0.6104579567909241,2.295310735702514,1.5762948989868164,2.442249298095703
1630679074770,0.6104579567909241,2.295310735702514,1.5943759679794312,2.442249298095703
1630679074833,1.3494439125061035,2.295310735702514,1.5943759679794312,2.442249298095703
1630679075005,1.3542139530181885,2.295310735702514,1.5669777393341064,2.442249298095703
1630679075192,1.3553333282470703,2.295310735702514,1.5669777393341064,2.442249298095703
1630679075223,1.356474757194519,2.295310735702514,1.474565029144287,2.442249298095703
1630679075239,1.356474757194519,2.295310735702514,1.474565029144287,2.442249298095703
1630679075395,1.356474757194519,2.295310735702514,1.474565029144287,2.442249298095703
1630679075458,1.356474757194519,2.295310735702514,1.474565029144287,2.442249298095703
1630679075569,1.356474757194519,2.295310735702514,1.474565029144287,2.442249298095703
1630679075647,1.356474757194519,2.295310735702514,1.474565029144287,2.442249298095703
1630679075788,1.356474757194519,2.295310735702514,1.3516970872879028,2.442249298095703
1630679075850,1.356474757194519,2.295310735702514,1.3516970872879028,2.442249298095703
1630679076006,1.356474757194519,2.295310735702514,1.3516970872879028,2.442249298095703
1630679076147,1.3587522506713867,2.295310735702514,1.3516970872879028,2.442249298095703
1630679076319,0.9426531791687012,0.3221682012081146,-0.100217118859291,1.442827582359314
1630679076319,1.3587522506713867,1.3897831439971924,1.3516970872879028,1.889383316040039
1630679076444,0.9490123391151428,0.3221682012081146,-0.0980291664600372,1.213080883026123
1630679076541,0.9490123391151428,0.3081719875335693,-0.0915346071124076,1.2225338220596311
1630679076696,0.948301076889038,0.1405053734779358,0.0014034868218004,1.1020586490631104
1630679076696,0.9490123391151428,0.2340237349271774,-0.078558325767517,1.2600184679031372
1630679076775,0.968486487865448,0.0817974880337715,0.0795437693595886,1.124781370162964
1630679076915,0.9778270721435548,0.0478545986115932,0.0889211893081665,1.1284425258636477
1630679076978,0.9726341962814332,0.0212635267525911,0.0986516699194908,1.128322958946228
1630679077103,0.9719415307044984,-0.026630787178874,0.1088378727436065,1.128322958946228
1630679077243,0.9832738637924194,-0.083696037530899,0.1267549693584442,1.128322958946228
1630679077274,0.986832559108734,-0.0977951660752296,0.140377327799797,1.128322958946228
1630679077337,0.987789750099182,-0.0549953877925872,0.1613807082176208,1.128322958946228
1630679077637,0.9879207611083984,-0.0409256778657436,0.1645619422197342,1.128322958946228
1630679077683,0.9879207611083984,-0.0439631752669811,0.1687588542699813,1.1244261264801023
1630679077855,0.9912090301513672,-0.050301469862461,0.1796931326389312,1.1234431266784668
1630679077933,0.9931330680847168,-0.0544615499675273,0.2007594853639602,1.1230700016021729
1630679078089,0.9895756840705872,-0.0602969788014888,0.2007594853639602,1.1233972311019895
1630679078152,0.986565887928009,-0.061892207711935,0.2007594853639602,1.123185634613037
1630679078324,0.9896842241287231,-0.061892207711935,0.2007594853639602,1.3468118906021118
1630679078418,0.9896842241287231,-0.061892207711935,0.2007594853639602,1.3408986330032349
1630679078670,0.9811640381813048,-0.0620713979005813,0.1972715854644775,1.3200228214263916
1630679078779,0.9661307334899902,-0.0788938179612159,0.1838336884975433,1.3049719333648682
1630679078889,0.9483777284622192,-0.1163640171289444,0.1838336884975433,1.379989743232727
1630679078889,0.9571874141693116,-0.1091290786862373,0.1838336884975433,1.3021975755691528
1630679079014,0.934374213218689,-0.1163640171289444,0.1761795133352279,1.379989743232727
1630679079170,0.8518997430801392,-0.1241186186671257,0.0992088764905929,1.5003303289413452
1630679079170,0.8936060070991516,-0.1180631294846534,0.161928653717041,1.5003303289413452
1630679079217,0.8186979293823242,-0.1241186186671257,0.0992088764905929,1.5003303289413452
1630679079263,0.7845752835273743,-0.1241186186671257,0.0992088764905929,1.5003303289413452
1630679079326,0.7480589747428894,-0.1241186186671257,0.0992088764905929,1.5003303289413452
1630679079451,0.6994466185569763,-0.1241186186671257,0.0992088764905929,1.5003303289413452
1630679079482,0.6507453918457031,-0.1241186186671257,0.0992088764905929,1.5003303289413452
1630679079498,0.6464642286300659,-0.1241186186671257,0.0992088764905929,1.5003303289413452
1630679079658,0.7554664611816406,-0.1241186186671257,0.0992088764905929,1.4869335889816284
1630679079798,0.7468944191932678,-0.1241186186671257,0.368248850107193,1.4869335889816284
1630679079939,0.7556461095809937,1.8076804876327517,0.3691469728946686,1.5616455078125
1630679080001,1.2988353967666626,1.8076804876327517,0.3725136518478393,1.6377811431884766
1630679080095,1.2988353967666626,1.8076804876327517,0.3766318559646606,1.6377811431884766
1630679080142,1.3001770973205566,1.8076804876327517,0.3806507885456085,1.6353199481964111
1630679080314,1.3044567108154297,1.8076804876327517,0.3806507885456085,1.6353199481964111
1630679080361,1.3052654266357422,1.8076804876327517,0.3806507885456085,1.6205520629882812
1630679080533,1.4886080026626587,1.8110631704330444,1.3706421852111816,1.6262023448944092
1630679080629,1.4917011260986328,1.8110631704330444,1.3706421852111816,1.6262023448944092
1630679080941,1.493857741355896,1.8110631704330444,1.3706421852111816,1.6262023448944092
1630679081097,1.493857741355896,1.8110631704330444,1.3706421852111816,1.6262023448944092
1630679081332,1.493857741355896,1.8110631704330444,1.3706421852111816,1.6262023448944092
1630679081522,1.493857741355896,1.8110631704330444,1.3706421852111816,1.6262023448944092
1630679081616,1.5150938034057615,1.8110631704330444,1.3706421852111816,1.6262023448944092
1630679081663,1.7314003705978394,1.8099552392959597,1.6700347661972046,1.635305881500244
1630679081694,1.760440230369568,1.6927473545074463,1.6797714233398438,1.60712730884552
1630679081709,1.7314003705978394,1.8183419704437256,1.6700347661972046,1.635305881500244
1630679081756,1.760440230369568,1.6927473545074463,1.6797714233398438,1.5444341897964478
1630679081756,1.760440230369568,1.7044597864151,1.7102543115615845,1.5444341897964478
1630679081881,1.760440230369568,1.7044597864151,1.7102543115615845,1.5444341897964478
1630679081897,1.760440230369568,1.7095744609832764,1.7102543115615845,1.5444341897964478
1630679082037,1.760440230369568,1.7095744609832764,1.7102543115615845,1.5061399936676023
1630679082209,1.6987500190734863,1.7095744609832764,1.7102543115615845,1.408524513244629
1630679082303,1.6987500190734863,1.7095744609832764,1.7102543115615845,1.408524513244629
1630679082334,1.6987500190734863,1.7095744609832764,1.7102543115615845,1.408524513244629
1630679082430,1.6987500190734863,1.7095744609832764,1.7102543115615845,1.408524513244629
1630679082454,1.6987500190734863,1.7095744609832764,1.7102543115615845,1.408524513244629
1630679082579,1.6987500190734863,1.7095744609832764,1.7102543115615845,1.408524513244629
1630679082626,1.6987500190734863,1.7095744609832764,1.7102543115615845,1.408524513244629
1630679082782,1.6987500190734863,1.5301837921142578,1.5366828441619873,1.408524513244629
1630679082813,1.6987500190734863,1.5301837921142578,1.5366828441619873,1.408524513244629
1630679082907,1.6987500190734863,1.5301837921142578,1.523637771606445,1.408524513244629
1630679083094,1.6987500190734863,1.5301837921142578,1.523637771606445,1.408524513244629
1630679083126,0.5359932780265808,1.4846082925796509,1.4564472436904907,1.408524513244629
1630679083173,1.0007035732269287,1.4846082925796509,1.4564472436904907,0.6655671000480652
1630679083204,1.0348258018493652,1.4676861763000488,1.4564472436904907,0.7462958097457886
1630679083438,1.046320915222168,1.4676861763000488,1.4564472436904907,0.8065122961997986
1630679083550,1.4692271947860718,1.4912641048431396,1.4966901540756226,1.4830451011657717
1630679083660,1.471575140953064,1.436684250831604,1.452958345413208,1.4874107837677002
1630679083707,1.4730526208877563,1.436684250831604,1.452958345413208,1.4874107837677002
1630679083722,1.4730526208877563,1.4090484380722046,1.452958345413208,1.4874107837677002
1630679083754,1.4730526208877563,1.4090484380722046,1.452958345413208,1.4874107837677002
1630679083894,1.4730526208877563,1.3683233261108398,1.3830994367599487,1.4874107837677002
1630679083910,1.4730526208877563,1.3683233261108398,1.3830994367599487,1.4874107837677002
1630679084097,1.4730526208877563,1.3683233261108398,1.3830994367599487,1.4874107837677002
1630679084097,1.4730526208877563,1.3683233261108398,1.3830994367599487,1.4874107837677002
1630679084128,1.4730526208877563,1.3683233261108398,1.3830994367599487,1.4874107837677002
1630679084332,1.4730526208877563,1.3683233261108398,1.3830994367599487,1.4874107837677002
1630679084425,1.4730526208877563,1.3683233261108398,1.3830994367599487,1.4874107837677002
1630679084457,1.4685320854187012,1.3683233261108398,1.3830994367599487,1.4874107837677002
1630679084646,1.4685320854187012,1.3683233261108398,1.3830994367599487,1.4874107837677002
1630679084678,1.4685320854187012,1.3683233261108398,1.3830994367599487,1.4874107837677002
1630679084896,0.9595933556556702,0.319016695022583,0.173633724451065,0.8585125207901001
1630679084990,0.9465596079826356,0.319016695022583,0.2180500328540802,0.5283184051513672
1630679085037,0.8361663818359375,0.3314908742904663,0.326740026473999,0.6264780163764954
1630679085193,0.8361663818359375,0.3851727843284607,0.4437903463840484,0.7354188561439514
1630679085443,0.8496009707450867,0.4168779551982879,0.5099621415138245,0.7850655317306519
1630679085574,0.8624005913734436,0.4102834463119507,0.5226340889930725,0.7888732552528381
1630679085589,0.8759974241256714,0.4091397821903229,0.5226340889930725,0.7901690602302551
1630679085995,0.8874255418777466,0.4091397821903229,0.5226340889930725,0.7904192805290222
1630679086105,0.8950386643409729,0.4217831790447235,0.5226340889930725,0.792312741279602
1630679086120,0.9227495193481444,0.461392879486084,0.5361116528511047,0.8031195402145386
1630679086386,0.9770410060882568,0.4658428430557251,0.5481433272361755,0.8375558853149414
1630679086448,1.043621301651001,0.4874403476715088,0.5675324201583862,0.9124879240989684
1630679086480,1.5446381568908691,1.45504891872406,1.4676635265350342,1.5380183458328247
1630679086495,1.5464648008346558,1.45504891872406,1.4676635265350342,1.539417028427124
1630679086624,1.5466492176055908,1.45504891872406,1.4676635265350342,1.539417028427124
1630679086686,1.5491492748260498,1.45504891872406,1.4676635265350342,1.539417028427124
1630679086733,1.5497808456420898,1.45504891872406,1.4676635265350342,1.539417028427124
1630679086764,1.5497808456420898,1.45504891872406,1.4676635265350342,1.539417028427124
1630679086842,1.5497808456420898,1.45504891872406,1.4676635265350342,1.539499282836914
1630679087077,1.5497808456420898,1.45504891872406,1.4676635265350342,1.5446679592132568
1630679087201,1.5497808456420898,1.45504891872406,1.4676635265350342,1.5467995405197144
1630679087295,1.5497808456420898,1.45504891872406,1.4676635265350342,1.5467995405197144
1630679087436,1.5497808456420898,1.45504891872406,1.4676635265350342,1.5467995405197144
1630679087545,1.5497808456420898,1.45504891872406,1.4676635265350342,1.5467995405197144
1630679087642,1.5497808456420898,1.45504891872406,1.4676635265350342,1.5467995405197144
1630679087674,1.5497808456420898,1.45504891872406,1.4676635265350342,1.5467995405197144
1630679087783,1.5497808456420898,1.45504891872406,1.4676635265350342,1.5436480045318604
1630679087814,1.0499435663223269,1.45504891872406,1.4676635265350342,1.0681668519973757
1630679088064,1.0499435663223269,1.45504891872406,1.4676635265350342,0.978950023651123
1630679088267,1.0499435663223269,1.45504891872406,1.4676635265350342,1.1355581283569336
1630679088564,1.0499435663223269,1.45504891872406,1.4676635265350342,1.1361017227172852
1630679088675,1.0499435663223269,1.45504891872406,1.4676635265350342,1.1301450729370115
1630679088893,0.7654065489768982,1.6025487184524536,0.1343009024858474,1.529433012008667
1630679088893,1.0499435663223269,0.9664647579193116,1.4676635265350342,1.1333986520767212
1630679088940,0.7654065489768982,2.3808915615081787,1.297262191772461,2.079280138015747
1630679088956,0.7654065489768982,2.3808915615081787,1.389874815940857,2.0934226512908936
1630679088956,0.7654065489768982,2.3808915615081787,1.389874815940857,2.0934226512908936
1630679089097,0.7654065489768982,2.3808915615081787,1.389874815940857,2.0934226512908936
1630679089222,0.7654065489768982,2.3808915615081787,1.389874815940857,2.0934226512908936
1630679089300,0.7654065489768982,2.3808915615081787,1.4990864992141724,2.0934226512908936
1630679089362,0.7654065489768982,2.3808915615081787,1.4990864992141724,2.0934226512908936
1630679089425,1.382251501083374,2.3808915615081787,1.4990864992141724,2.0934226512908936
1630679089472,1.382251501083374,2.3808915615081787,1.4990864992141724,2.0934226512908936
1630679089596,1.382251501083374,2.3808915615081787,1.4990864992141724,2.0934226512908936
1630679089596,1.382251501083374,2.3808915615081787,1.4990864992141724,2.0934226512908936
1630679089596,1.382251501083374,2.3808915615081787,1.4990864992141724,2.0934226512908936
1630679089755,1.382251501083374,2.3808915615081787,1.4990864992141724,2.0934226512908936
1630679089880,1.382251501083374,2.3808915615081787,1.4990864992141724,2.0934226512908936
1630679090021,1.382251501083374,1.4058787822723389,1.4979506731033323,1.6315486431121826
1630679090021,1.382251501083374,2.3808915615081787,1.4990864992141724,2.0934226512908936
1630679090208,1.382251501083374,1.4058787822723389,1.4138386249542236,1.5058995485305786
1630679090349,1.382251501083374,1.4058787822723389,1.4138386249542236,1.6145563125610352
1630679090364,1.382251501083374,1.4058787822723389,1.4138386249542236,1.6097676753997805
1630679090429,1.382251501083374,1.4058787822723389,1.4138386249542236,1.6097676753997805
1630679090494,1.383123517036438,1.3829830884933472,1.0820083618164062,1.5984355211257937
1630679090556,1.383123517036438,1.4815963506698608,1.0837435722351074,1.5984355211257937
1630679090650,1.1276484727859497,1.4728633165359497,1.0837435722351074,1.5984355211257937
1630679090837,1.1276484727859497,1.4728633165359497,1.0837435722351074,1.5984355211257937
1630679090931,1.1276484727859497,1.4728633165359497,1.0837435722351074,1.5984355211257937
1630679090947,1.1276484727859497,1.4728633165359497,1.0837435722351074,1.5984355211257937
1630679090994,1.1276484727859497,1.4728633165359497,0.5900917053222656,1.5984355211257937
1630679091322,1.1276484727859497,1.4728633165359497,0.5900917053222656,1.594925045967102
1630679091573,1.0310008525848389,1.467612862586975,0.5900917053222656,1.5209767818450928
1630679091824,1.0310008525848389,1.467612862586975,0.5900917053222656,1.5209767818450928
1630679091886,1.0310008525848389,1.467612862586975,0.5486396551132202,1.5209767818450928
1630679091995,1.049177885055542,1.4856096506118774,0.5486396551132202,1.5920647382736206
1630679092089,1.0888006687164309,1.5301964282989502,0.6150594353675842,1.4640469551086426
1630679092105,1.0888006687164309,1.4856096506118774,0.5506513714790344,1.466016173362732
1630679092105,1.0888006687164309,2.2664754390716557,1.5257731676101685,1.456330418586731
1630679092152,0.9531476497650146,2.2664754390716557,1.5257731676101685,1.4542667865753174
1630679092292,1.3085120916366575,2.2664754390716557,1.5470871925354004,1.4471222162246704
1630679092355,1.3085120916366575,2.2664754390716557,1.5470871925354004,1.4471222162246704
1630679092448,1.3085120916366575,2.2664754390716557,1.5470871925354004,1.4471222162246704
1630679092576,1.3085120916366575,2.2664754390716557,1.5470871925354004,1.4471222162246704
1630679092685,1.3085120916366575,2.2664754390716557,1.5470871925354004,1.4471222162246704
1630679092779,1.3085120916366575,2.3330495357513428,1.5470871925354004,1.507942795753479
1630679092779,1.3085120916366575,2.2664754390716557,1.5470871925354004,1.4471222162246704
1630679092810,1.670722723007202,2.3330495357513428,1.5470871925354004,1.507942795753479
1630679092842,1.670722723007202,2.3330495357513428,1.5470871925354004,1.507942795753479
1630679092904,1.670722723007202,2.3330495357513428,1.5470871925354004,1.507942795753479
1630679093048,1.670722723007202,2.3330495357513428,1.5470871925354004,1.339002013206482
1630679093235,1.670722723007202,2.3330495357513428,1.5470871925354004,1.339002013206482
1630679093344,1.670722723007202,2.3330495357513428,1.5470871925354004,1.3433843851089478
1630679093391,1.670722723007202,2.3019495010375977,1.3146623373031616,1.348449945449829
1630679093454,1.670722723007202,2.3019495010375977,1.3146623373031616,1.348449945449829
1630679093629,1.6419315338134766,2.3019495010375977,0.4277490377426147,1.348449945449829
1630679093691,1.6419315338134766,2.3019495010375977,0.3460606038570404,1.337777614593506
1630679093738,1.6419315338134766,2.3019495010375977,0.239065796136856,1.333626389503479
1630679093816,1.6419315338134766,2.3019495010375977,0.1436748206615448,1.3317148685455322
1630679093847,1.6419315338134766,2.3019495010375977,0.0822677090764045,1.3317148685455322
1630679093878,1.6419315338134766,2.3019495010375977,0.0465690158307552,1.3317148685455322
1630679094082,1.6419315338134766,1.5487278699874878,-0.1341271549463272,0.7872205972671509
1630679094113,1.0995386838912964,0.806828498840332,-0.1341271549463272,0.7872205972671509
1630679094238,0.8437678217887878,0.2022066712379455,-0.1341271549463272,0.7872205972671509
1630679094331,0.82630854845047,0.1992112547159195,-0.1341271549463272,0.7872205972671509
1630679094425,0.82630854845047,0.1686758548021316,-0.1559340804815292,0.7872205972671509
1630679094535,0.82630854845047,0.1313313841819763,-0.2256843000650406,0.7872205972671509
1630679094662,0.82630854845047,0.0670150965452194,-0.0238417983055114,0.7872205972671509
1630679094740,0.82630854845047,-0.051791850477457,-0.0505518205463886,0.7872205972671509
1630679094865,0.82630854845047,-0.1083365231752395,0.0364830940961837,0.7872205972671509
1630679094993,0.82630854845047,-0.1057794764637947,0.1120514720678329,0.7872205972671509
1630679095196,0.82630854845047,-0.096115842461586,0.1672496199607849,0.7872205972671509
1630679095196,0.82630854845047,-0.0947041884064674,0.1708536297082901,0.7872205972671509
1630679095352,0.82630854845047,-0.128139242529869,0.1708536297082901,0.7872205972671509
1630679095368,0.82630854845047,-0.1085923388600349,0.1708536297082901,0.7872205972671509
1630679095555,0.82630854845047,-0.0804167836904525,0.1720163822174072,0.7872205972671509
1630679095555,0.82630854845047,-0.087720051407814,0.1708536297082901,0.7872205972671509
1630679095790,0.82630854845047,-0.0804167836904525,0.1733172982931137,0.7872205972671509
1630679095961,0.82630854845047,-0.0804167836904525,0.1766303181648254,0.7872205972671509
1630679096181,0.82630854845047,-0.0804167836904525,0.1820355951786041,0.7872205972671509
1630679096321,0.82630854845047,-0.0804167836904525,0.1946870982646942,0.7872205972671509
1630679096353,0.82630854845047,-0.0804167836904525,0.2066822499036789,0.9559953212738036
1630679096478,0.2799147665500641,-0.1481362730264663,0.1821127980947494,0.961395263671875
1630679096556,0.4023349285125732,-0.1452405750751495,0.1821127980947494,0.9625269174575806
1630679096651,0.4460128843784332,-0.1284286230802536,0.1821127980947494,0.9625269174575806
1630679096995,0.4508675932884216,-0.1247687190771102,0.1821127980947494,0.9625269174575806
1630679097042,0.4515033662319183,-0.1247687190771102,0.170170709490776,0.9625269174575806
1630679097089,0.4515033662319183,-0.139332965016365,0.0985895469784736,0.9625269174575806
1630679097214,0.4515033662319183,-0.1727206408977508,-0.0148357199504971,0.5646870136260986
1630679097245,1.2584357261657717,1.2527960538864136,1.247569561004639,1.4142591953277588
1630679097261,0.4600063562393188,-0.1660888791084289,-0.0908314511179924,0.5646870136260986
1630679097308,1.2639886140823364,1.2527960538864136,1.247569561004639,1.4492738246917725
1630679097401,1.266970157623291,1.2527960538864136,1.247569561004639,1.4492738246917725
1630679097433,1.2679907083511353,1.2527960538864136,1.247569561004639,1.4492738246917725
1630679097557,1.2679907083511353,1.2527960538864136,1.247569561004639,1.4492738246917725
1630679097700,1.2679907083511353,1.2527960538864136,1.247569561004639,1.4492738246917725
1630679097700,1.2679907083511353,1.2527960538864136,1.247569561004639,1.4492738246917725
1630679097888,1.2679907083511353,1.2527960538864136,1.247569561004639,1.4492738246917725
1630679098060,1.2679907083511353,1.2527960538864136,1.247569561004639,1.4492738246917725
1630679098075,1.2679907083511353,1.3191986083984375,1.297494411468506,1.4492738246917725
1630679098185,1.2679907083511353,1.3191986083984375,1.297494411468506,1.4492738246917725
1630679098310,1.2679907083511353,1.3191986083984375,1.297494411468506,1.4546854496002195
1630679098310,1.2679907083511353,1.3191986083984375,1.297494411468506,1.4546854496002195
1630679098544,1.2679907083511353,1.3191986083984375,1.297494411468506,1.4546854496002195
1630679098560,1.2679907083511353,1.3191986083984375,1.297494411468506,1.4546854496002195
1630679098656,0.6596609950065613,1.2226263284683228,1.2105236053466797,1.413993239402771
1630679098702,0.6889064908027649,1.2226263284683228,1.2105236053466797,1.1062254905700684
1630679098765,0.6973096132278442,1.2226263284683228,1.2105236053466797,1.1062254905700684
1630679098890,0.6966966986656189,1.2226263284683228,1.2105236053466797,1.1062254905700684
1630679099077,0.7000147104263306,1.2226263284683228,1.2105236053466797,1.1062254905700684
1630679099249,0.7051911354064941,1.2226263284683228,1.2105236053466797,1.1062254905700684
1630679099312,0.7026853561401367,1.2226263284683228,1.2105236053466797,1.1062254905700684
1630679099359,0.7026853561401367,1.2226263284683228,1.2105236053466797,1.1062254905700684
1630679099515,0.6846396923065186,1.2226263284683228,1.2105236053466797,1.1062254905700684
1630679099738,0.6846396923065186,0.1704115271568298,0.2496313750743866,1.1077629327774048
1630679099816,0.6846396923065186,0.1704115271568298,0.3427858352661133,1.1174136400222778
1630679099988,0.6581807136535645,0.1645572185516357,0.4253059029579162,0.8341493606567383
1630679100050,0.6095267534255981,0.1282560229301452,0.4504528343677521,0.8341493606567383
1630679100191,0.5863251686096191,0.1341207474470138,0.4576266705989837,0.8341493606567383
1630679100394,0.5715941786766052,0.1838975846767425,0.4752528369426727,0.8341493606567383
1630679100472,0.5591281056404114,0.2153043895959854,0.4791289567947387,0.8331469297409058
1630679100582,0.4985541999340057,0.2637893259525299,0.4826380014419555,0.8292866945266724
1630679100631,0.4290578067302704,0.8595135807991028,0.4826380014419555,0.8217890858650208
1630679100665,0.415241926908493,0.8595135807991028,0.4826380014419555,0.8170115351676941
1630679100743,0.3879188299179077,1.2695256471633911,0.4826380014419555,0.8131078481674194
1630679100743,0.4048366248607635,1.2695256471633911,0.4826380014419555,0.814155101776123
1630679100790,0.3461057245731354,1.2695256471633911,0.4826380014419555,0.8128527998924255
1630679100899,0.3461057245731354,1.2695256471633911,0.4826380014419555,0.8128527998924255
1630679100962,0.3461057245731354,1.2695256471633911,0.503581702709198,0.8128527998924255
1630679101024,0.3461057245731354,1.2695256471633911,0.5049203634262085,0.8128527998924255
1630679101165,0.3461057245731354,1.2695256471633911,0.5049203634262085,0.8128527998924255
1630679101243,0.3461057245731354,1.2695256471633911,0.4846576154232025,0.8128527998924255
1630679101446,0.3461057245731354,1.2695256471633911,0.4237220883369446,0.8128527998924255
1630679101571,0.3461057245731354,1.2695256471633911,0.3757034540176391,0.8128527998924255
1630679101789,0.3461057245731354,1.2695256471633911,0.3512534499168396,0.8128527998924255
1630679101993,0.3461057245731354,1.2695256471633911,0.3512534499168396,0.8128527998924255
1630679102008,0.3461057245731354,1.2695256471633911,0.3512534499168396,0.8128527998924255
1630679102196,0.3461057245731354,1.2695256471633911,0.3512534499168396,0.8128527998924255
1630679102336,0.3461057245731354,1.2695256471633911,0.3512534499168396,0.8128527998924255
1630679102555,0.3461057245731354,-0.0285038258880376,0.3512534499168396,0.8128527998924255
1630679102555,0.3461057245731354,-0.0285038258880376,0.3512534499168396,0.8128527998924255
1630679102696,0.3461057245731354,-0.0296921767294406,0.3512534499168396,0.8128527998924255
1630679102758,0.3461057245731354,-0.0296921767294406,0.3512534499168396,0.8128527998924255
1630679102774,0.3461057245731354,-0.0296921767294406,0.3512534499168396,0.8128527998924255
1630679102852,0.3461057245731354,-0.0296921767294406,0.3512534499168396,0.8128527998924255
1630679102867,0.3461057245731354,-0.0296921767294406,0.3512534499168396,0.8128527998924255
1630679102883,0.3461057245731354,-0.0296921767294406,0.3512534499168396,0.8128527998924255
1630679102945,0.3461057245731354,-0.0296921767294406,0.3512534499168396,0.8128527998924255
1630679103117,0.3461057245731354,-0.0296921767294406,0.3512534499168396,0.8128527998924255
1630679103149,0.3461057245731354,1.3931338787078855,0.3512534499168396,0.8128527998924255
1630679103541,0.3461057245731354,1.3931338787078855,0.3512534499168396,0.8128527998924255
1630679103682,0.3461057245731354,1.3931338787078855,0.3512534499168396,0.8128527998924255
1630679103948,0.3461057245731354,1.3931338787078855,0.3512534499168396,0.8128527998924255
1630679104057,0.3461057245731354,1.3931338787078855,0.3512534499168396,0.8128527998924255
1630679104072,0.3461057245731354,2.0620458126068115,1.325944900512695,0.8128527998924255
1630679104072,0.3461057245731354,2.0620458126068115,1.325944900512695,0.8128527998924255
1630679104072,0.3461057245731354,2.0620458126068115,0.3512534499168396,0.8128527998924255
