timestamp,TP9,AF7,AF8,TP10
1630415912010,0.7881677150726318,0.3077874183654785,0.3944065272808075,1.1038833856582642
1630415912136,0.7881677150726318,0.2829936742782593,0.3940841257572174,1.1038833856582642
1630415912245,0.7881677150726318,0.2508121430873871,0.3972876071929931,1.1038833856582642
1630415912292,0.7881677150726318,0.2149927765130996,0.4051084518432617,1.1038833856582642
1630415912432,0.7881677150726318,0.1899670958518982,0.4169322252273559,1.1038833856582642
1630415912495,0.7881677150726318,0.1839478611946106,0.4259276986122131,1.1038833856582642
1630415912608,0.7881677150726318,0.1892628073692321,0.4219690263271332,1.1038833856582642
1630415912701,0.7881677150726318,0.1941335648298263,0.3987158536911011,1.1038833856582642
1630415912826,0.7881677150726318,0.1947427093982696,0.3560446202754974,1.1038833856582642
1630415912889,0.5012466907501221,0.1918416917324066,0.3000191748142242,1.1038833856582642
1630415912983,0.5013893246650696,0.1862680912017822,0.240262895822525,1.1038833856582642
1630415913123,0.4914418160915375,0.1784408539533615,0.1852054297924041,1.1038833856582642
1630415913233,0.4759835004806518,0.1696628034114837,0.137830838561058,1.1038833856582642
1630415913295,0.462439626455307,0.1616833955049514,0.096739187836647,1.1038833856582642
1630415913420,0.4561890959739685,0.1545626670122146,0.061709851026535,1.1038833856582642
1630415913561,0.4575497508049011,0.1496391296386718,0.0374813266098499,1.1038833856582642
1630415913608,0.4575497508049011,0.1507615894079208,0.0254109725356102,1.1038833856582642
1630415913686,0.4575497508049011,0.1626024842262268,0.0171043239533901,1.1038833856582642
1630415913842,0.4575497508049011,0.1837880909442901,0.0031788232736289,1.1038833856582642
1630415913967,0.4575497508049011,0.2057206183671951,-0.0160124581307172,1.1038833856582642
1630415914014,0.4575497508049011,0.2197636663913726,-0.0289225876331329,1.1038833856582642
1630415914076,0.4964312314987182,0.2238141745328903,-0.0229635331779718,1.1038833856582642
1630415914232,0.5433297157287598,0.2213497459888458,0.0005912999040447,1.1038833856582642
1630415914295,0.5896404385566711,0.2171956747770309,0.0284309443086385,1.1038833856582642
1630415914498,0.6298662424087524,0.2151498794555664,0.0522936843335628,1.1038833856582642
1630415914564,0.6645585298538208,0.2191537916660308,0.0732564553618431,1.1038833856582642
1630415914688,0.6961458325386047,0.2308803349733352,0.0933130830526351,1.1038833856582642
1630415914751,0.72431480884552,0.2464295029640197,0.1113206818699836,1.1038833856582642
1630415914798,0.747545063495636,0.2580485343933105,0.1243578195571899,1.1038833856582642
1630415914892,0.767023503780365,0.2603046894073486,0.1315019875764846,1.1038833856582642
1630415915063,0.7846255302429199,0.2527253627777099,0.1351018548011779,0.9258451461791992
1630415915141,0.7813786268234253,0.2376894354820251,0.1380520313978195,0.890297532081604
1630415915220,0.7762092351913452,0.2165887206792831,0.1409659832715988,0.8557366728782654
1630415915360,0.7656126618385315,0.1893922537565231,0.1412500739097595,0.8327234983444214
1630415915423,0.7499426007270813,0.1582924127578735,0.1338037997484207,0.8192798495292664
1630415915565,0.7325242757797241,0.1296235173940658,0.1142396032810211,0.8106455206871033
1630415915659,0.7144985198974609,0.1085543110966682,0.0971635431051254,0.8054381608963013
1630415915768,0.6906905174255371,0.0951680019497871,0.0744129195809364,0.8033038377761841
1630415915846,0.6644676923751831,0.0844243317842483,0.0540409050881862,0.8024607300758362
1630415915925,0.6397048234939575,0.0711801946163177,0.0399407185614109,0.8023030757904053
1630415916034,0.6225840449333191,0.0500673614442348,0.0280756019055843,0.8064850568771362
1630415916143,0.6060822010040283,0.0188678950071334,0.0131403412669897,0.817953884601593
1630415916315,0.5911886096000671,-0.018841378390789,-0.0037118766922503,0.8130633234977722
1630415916346,0.5781576633453369,-0.047784861177206,-0.0150895416736602,0.7977344393730164
1630415916424,0.5629050135612488,-0.0500666573643684,-0.0156535468995571,0.779682457447052
1630415916549,0.5396888256072998,-0.0219443086534738,-0.0111098811030387,0.7709646821022034
1630415916690,0.5050281882286072,0.0200641639530658,-0.0140637177973985,0.776695728302002
1630415916768,0.4646673202514648,0.0554404705762863,-0.0140637177973985,0.7908061146736145
1630415916893,0.4341660439968109,0.0770633667707443,-0.0140637177973985,0.8046051263809204
1630415917002,0.4270877540111542,0.0903055742383003,-0.0140637177973985,0.8164335489273071
1630415917112,0.4417251944541931,0.1012791246175766,-0.0140637177973985,0.8286908864974976
1630415917174,0.4417251944541931,0.1108483970165252,0.2306759655475616,0.8419526219367981
1630415917284,0.4417251944541931,0.1165441200137138,0.2898266315460205,0.8558655977249146
1630415917362,0.4417251944541931,0.1187432259321212,0.3259048461914062,0.8558655977249146
1630415917471,0.4417251944541931,0.1217532604932785,0.3385474979877472,0.8558655977249146
1630415917596,0.4417251944541931,0.1308339685201645,0.3362770080566406,0.8558655977249146
1630415917721,0.4417251944541931,0.1483349949121475,0.3271297812461853,0.8558655977249146
1630415917784,0.4417251944541931,0.1719577312469482,0.3153742551803589,0.8558655977249146
1630415917862,0.4417251944541931,0.1940567046403885,0.305883377790451,0.8558655977249146
1630415918065,0.4417251944541931,0.2097434401512146,0.3030668199062347,0.8558655977249146
1630415918127,0.4417251944541931,0.2191201448440551,0.30483478307724,0.8558655977249146
1630415918221,0.4417251944541931,0.227468729019165,0.3050186336040497,0.8558655977249146
1630415918283,0.4417251944541931,0.2397587895393371,0.3001460134983063,0.8558655977249146
1630415918408,0.4417251944541931,0.2563311457633972,0.3010102808475494,0.8558655977249146
1630415918486,0.4417251944541931,0.2723575234413147,0.301710695028305,0.8558655977249146
1630415918580,0.4417251944541931,0.2835493385791778,0.2982978522777557,0.8558655977249146
1630415918706,0.4417251944541931,0.2898033559322357,0.2852821052074432,0.8558655977249146
1630415918846,0.4417251944541931,0.2939436137676239,0.2626685202121734,0.8558655977249146
1630415918893,0.4417251944541931,0.2989588677883148,0.236170545220375,0.8558655977249146
1630415918986,0.4417251944541931,0.3044595718383789,0.2125221043825149,0.8558655977249146
1630415919127,0.4417251944541931,0.3076964616775512,0.1951289921998977,0.8558655977249146
1630415919174,0.4417251944541931,0.3068012297153473,0.1860792636871338,0.8558655977249146
1630415919330,0.4417251944541931,0.3019201755523681,0.1866420060396194,0.8558655977249146
1630415919408,0.4417251944541931,0.2935845851898193,0.1914357542991638,1.0787628889083862
1630415919502,0.4417251944541931,0.2817540168762207,0.1914730370044708,1.0717397928237915
1630415919583,0.4417251944541931,0.2686888575553894,0.1882838308811187,1.053715705871582
1630415919661,0.4417251944541931,0.2613239586353302,0.1955673098564148,1.053715705871582
1630415919755,0.4417251944541931,0.242791086435318,0.1933497786521911,1.053715705871582
1630415919942,0.4417251944541931,0.2231385558843612,0.1967457979917526,1.053715705871582
1630415920004,0.4417251944541931,0.2046952843666076,0.2010943442583084,1.053715705871582
1630415920067,0.4417251944541931,0.1900868862867355,0.2037417143583297,1.053715705871582
1630415920208,0.4417251944541931,0.1828215271234512,0.2056132853031158,1.053715705871582
1630415920348,0.4417251944541931,0.1849865317344665,0.2095522284507751,1.053715705871582
1630415920442,0.4417251944541931,0.1934252977371215,0.2189544737339019,1.053715705871582
1630415920520,0.4417251944541931,0.2037198394536972,0.2361876517534256,1.053715705871582
1630415920632,0.4417251944541931,0.2160625457763672,0.2604443430900574,1.068604826927185
1630415920757,0.4417251944541931,0.2308393269777298,0.2856454253196716,1.0662673711776731
1630415920804,0.4417251944541931,0.2479704469442367,0.3045664727687835,1.0662673711776731
1630415920897,0.4417251944541931,0.2479704469442367,0.3045664727687835,1.0662673711776731
1630415921038,0.4417251944541931,0.2479704469442367,0.3045664727687835,1.0662673711776731
1630415921210,0.4417251944541931,0.2479704469442367,0.3045664727687835,1.0662673711776731
1630415921225,0.4417251944541931,0.2479704469442367,0.3045664727687835,1.0662673711776731
1630415921366,0.4417251944541931,0.2479704469442367,0.3045664727687835,1.0662673711776731
1630415921428,0.4417251944541931,0.2479704469442367,0.0090461168438196,1.0662673711776731
1630415921522,0.4417251944541931,0.2479704469442367,6.377049430739135e-05,1.0662673711776731
1630415921603,0.4417251944541931,0.2479704469442367,0.0129500450566411,1.0662673711776731
1630415921744,0.4417251944541931,0.2479704469442367,0.0379554964601993,1.0662673711776731
1630415921869,0.4417251944541931,0.2660095691680908,0.063888169825077,1.0662673711776731
1630415921931,0.4417251944541931,0.2596427500247955,0.0843333154916763,1.0662673711776731
1630415922072,0.4417251944541931,0.2544916868209839,0.0957410112023353,1.0662673711776731
1630415922134,0.4417251944541931,0.2462693750858307,0.0965594723820686,1.0662673711776731
1630415922213,0.4417251944541931,0.2372172623872757,0.0888484716415405,1.0662673711776731
1630415922384,0.4417251944541931,0.2325969785451889,0.0799832418560981,1.0662673711776731
1630415922492,0.4417251944541931,0.2345273643732071,0.0774062126874923,1.0662673711776731
1630415922540,0.4417251944541931,0.2390422970056533,0.0813250318169593,1.0662673711776731
1630415922665,0.4417251944541931,0.2398076802492141,0.086952768266201,1.0662673711776731
1630415922743,0.4417251944541931,0.2327435463666916,0.0956734791398048,1.0662673711776731
1630415922886,0.4417251944541931,0.2183710485696792,0.10594093054533,1.0662673711776731
1630415922977,0.4417251944541931,0.2007320076227188,0.1156561821699142,1.0662673711776731
1630415923070,0.4417251944541931,0.1715864986181259,0.1199595183134079,1.0662673711776731
1630415923149,0.4417251944541931,0.148047924041748,0.1157552376389503,1.0662673711776731
1630415923288,0.4417251944541931,0.127781793475151,0.10397220402956,1.0662673711776731
1630415923367,0.3368268311023712,0.1083912253379821,0.0878161862492561,1.0662673711776731
1630415923475,0.3387070000171661,0.0901898369193077,0.0701850950717926,1.0662673711776731
1630415923554,0.3359400331974029,0.0774907022714614,0.0541815795004367,1.0662673711776731
1630415923694,0.32848060131073,0.0728556811809539,0.0441661067306995,0.8632323145866394
1630415923806,0.32848060131073,0.0728653371334075,0.0445096269249916,0.8663008809089661
1630415923851,0.32848060131073,0.0702330023050308,0.0553448535501956,0.865538477897644
1630415923931,0.32848060131073,0.0595317259430885,0.0706494078040123,0.8644646406173706
1630415924024,0.32848060131073,0.0420026220381259,0.0835463106632232,0.8640353679656982
1630415924166,0.32848060131073,0.0253345929086208,0.0893327966332435,0.86257404088974
1630415924259,0.3127340972423553,0.0213222969323396,0.0868906676769256,0.8431262969970703
1630415924398,0.3166939616203308,0.036491185426712,0.0781349688768386,0.8493301868438721
1630415924539,0.3318336009979248,0.0653469488024711,0.0662485733628273,0.8648709654808044
1630415924570,0.3318336009979248,0.0948868244886398,0.0547393187880516,0.8889079689979553
1630415924661,0.3869317770004272,0.1164287105202674,0.0449557900428772,0.914218246936798
1630415924817,0.4131783246994018,0.1297334134578704,0.035558670759201,0.9328659176826476
1630415924959,0.4299062490463257,0.1381866633892059,0.0243043303489685,0.9430368542671204
1630415925005,0.452557235956192,0.1444053649902343,0.0117847025394439,0.9615859985351562
1630415925083,0.49398273229599,0.1484169661998748,0.0016304616583511,0.970081388950348
1630415925208,0.5545094013214111,0.151297315955162,-0.0032193863298743,0.9762923121452332
1630415925254,0.5545094013214111,0.153033897280693,-0.0042937588877975,0.9835376739501952
1630415925380,0.5545094013214111,0.1527409255504608,-0.0037580856587737,0.9930895566940308
1630415925490,0.5545094013214111,0.1504573225975036,-0.0003305208520032,1.0045493841171265
1630415925643,0.5545094013214111,0.1471739709377288,0.0084671303629875,1.017921805381775
1630415925706,0.5545094013214111,0.1440236568450927,0.0199664775282144,1.0349328517913818
1630415925770,0.5545094013214111,0.147720918059349,0.0288711581379175,1.0556116104125977
1630415925879,0.5545094013214111,0.1456949710845947,0.0333925560116767,1.0767124891281128
1630415926067,0.5545094013214111,0.1291706562042236,0.0422683246433734,1.0912489891052246
1630415926098,0.5545094013214111,0.1141896694898605,0.0556291416287422,1.0913294553756714
1630415926193,0.5541715025901794,0.1046087667346,0.0653553754091262,1.0913294553756714
1630415926285,0.5612021088600159,0.0993124768137931,0.0748195648193359,1.0913294553756714
1630415926363,0.5612021088600159,0.0945972204208374,0.0832593962550163,1.0913294553756714
1630415926469,0.5612021088600159,0.0868937894701957,0.091877281665802,1.0913294553756714
1630415926675,0.5612021088600159,0.0767513662576675,0.0998006537556648,1.0913294553756714
1630415926767,0.5612021088600159,0.0646238848567009,0.1031017303466796,1.0913294553756714
1630415926815,0.5612021088600159,0.0536744110286235,0.0974495336413383,1.0913294553756714
1630415926877,0.5612021088600159,0.0481954887509346,0.0776083767414093,1.0913294553756714
1630415927067,0.5612021088600159,0.0500961914658546,0.03916572406888,1.0913294553756714
1630415927128,0.5612021088600159,0.0567889362573623,-0.0165505912154912,1.0913294553756714
1630415927191,0.5612021088600159,0.0620059184730052,-0.0763104483485221,1.0913294553756714
1630415927300,0.6381406188011169,0.0556056424975395,-0.120685338973999,1.0913294553756714
1630415927426,0.6154958009719849,0.0426494851708412,-0.1429873704910278,1.0913294553756714
1630415927517,0.6007091403007507,0.0255717914551496,-0.1467073559761047,1.0913294553756714
1630415927627,0.5887529253959656,0.0023339379113167,-0.1525198221206665,1.0913294553756714
1630415927705,0.5887529253959656,-0.0216672830283641,-0.1591937988996505,1.0913294553756714
1630415927879,0.5887529253959656,-0.0407250225543975,-0.117118015885353,1.0913294553756714
1630415927910,0.5887529253959656,-0.0515152104198932,0.0004843961796723,1.0913294553756714
1630415928004,0.5887529253959656,-0.0540984310209751,0.1494743824005127,1.0913294553756714
1630415928151,0.5887529253959656,-0.0521849691867828,0.2742708921432495,1.0913294553756714
1630415928241,0.5887529253959656,-0.0461180806159973,0.3549506664276123,1.0913294553756714
1630415928413,0.5887529253959656,-0.0280662905424833,0.398997962474823,1.0913294553756714
1630415928466,0.5887529253959656,0.0103624425828456,0.4252222180366516,1.0913294553756714
1630415928552,0.553432822227478,0.0017016070196405,0.4495492279529571,1.0913294553756714
1630415928630,0.5276303291320801,-0.0082496320828795,0.4763753116130829,1.0913294553756714
1630415928756,0.5142330527305603,-0.0154747497290372,0.5051867365837097,1.0913294553756714
1630415928818,0.5142330527305603,-0.0135248722508549,0.5358105301856995,1.0913294553756714
1630415928928,0.5142330527305603,0.001180684310384,0.5693254470825195,1.0913294553756714
1630415929088,0.5142330527305603,0.026079399511218,0.607601523399353,1.0913294553756714
1630415929132,0.5142330527305603,0.0571051910519599,0.651898205280304,1.0913294553756714
1630415929226,0.5142330527305603,0.0927701517939567,0.7002856731414795,1.0913294553756714
1630415929411,0.5142330527305603,0.1326144486665725,0.7421767711639404,1.0913294553756714
1630415929456,0.5142330527305603,0.1749929934740066,0.759767472743988,1.0913294553756714
1630415929518,0.5142330527305603,0.2192087024450302,0.736705482006073,1.0913294553756714
1630415929708,0.5142330527305603,0.2192087024450302,0.736705482006073,1.0913294553756714
1630415929754,0.5142330527305603,0.2192087024450302,0.736705482006073,1.0913294553756714
1630415929862,0.5142330527305603,0.2192087024450302,0.736705482006073,1.0913294553756714
1630415929944,0.5142330527305603,0.2192087024450302,0.736705482006073,1.0913294553756714
1630415930087,0.5142330527305603,0.2192087024450302,0.736705482006073,1.0913294553756714
1630415930149,0.5142330527305603,0.2192087024450302,0.736705482006073,1.0913294553756714
1630415930258,0.5142330527305603,0.2192087024450302,0.736705482006073,1.0913294553756714
1630415930352,0.5142330527305603,0.2192087024450302,0.736705482006073,1.0913294553756714
1630415930478,0.5142330527305603,0.2192087024450302,0.736705482006073,1.0913294553756714
1630415930524,0.5142330527305603,0.2192087024450302,0.736705482006073,1.0913294553756714
1630415930665,0.5142330527305603,0.2192087024450302,0.736705482006073,1.0913294553756714
1630415930721,0.5142330527305603,0.2192087024450302,0.736705482006073,1.0913294553756714
1630415930952,0.5142330527305603,0.2192087024450302,0.736705482006073,1.0913294553756714
1630415931030,0.5142330527305603,0.2192087024450302,0.736705482006073,1.0913294553756714
1630415931093,0.5142330527305603,0.2192087024450302,0.736705482006073,1.0913294553756714
1630415931186,0.5142330527305603,0.2192087024450302,0.736705482006073,1.0913294553756714
1630415931233,0.5142330527305603,0.2192087024450302,0.736705482006073,1.0913294553756714
1630415931327,0.5142330527305603,0.2192087024450302,0.736705482006073,1.0913294553756714
1630415931499,0.5142330527305603,0.2192087024450302,0.736705482006073,1.0913294553756714
1630415931605,0.5142330527305603,0.2192087024450302,0.736705482006073,1.0913294553756714
1630415931699,0.5142330527305603,0.2192087024450302,0.736705482006073,1.0913294553756714
1630415931746,0.5142330527305603,0.2192087024450302,0.736705482006073,1.0913294553756714
1630415931902,0.5142330527305603,0.2192087024450302,0.736705482006073,1.0913294553756714
1630415932027,0.5142330527305603,0.2192087024450302,0.736705482006073,1.0913294553756714
1630415932123,0.5142330527305603,0.2192087024450302,0.736705482006073,1.0913294553756714
1630415932201,0.5142330527305603,0.2192087024450302,0.736705482006073,1.0913294553756714
1630415932279,0.5142330527305603,0.2192087024450302,0.736705482006073,1.0913294553756714
1630415932420,0.5142330527305603,0.2192087024450302,0.736705482006073,1.0913294553756714
1630415932492,0.5142330527305603,0.2192087024450302,0.736705482006073,1.0913294553756714
1630415932560,0.5142330527305603,0.2192087024450302,0.736705482006073,1.0913294553756714
1630415932732,0.5142330527305603,0.2192087024450302,0.736705482006073,1.0913294553756714
1630415932810,0.5142330527305603,0.2192087024450302,0.736705482006073,1.0913294553756714
1630415932982,0.5142330527305603,0.2192087024450302,0.736705482006073,1.0913294553756714
1630415933029,0.5142330527305603,0.2192087024450302,0.736705482006073,1.0913294553756714
1630415933076,0.5142330527305603,0.2192087024450302,0.0810434222221374,1.0913294553756714
1630415933217,0.5142330527305603,0.2192087024450302,0.0621433965861797,1.0913294553756714
1630415933329,0.5142330527305603,-0.0536511316895484,0.0444041527807712,1.0913294553756714
1630415933495,0.5142330527305603,0.0171876233071088,0.0289578977972269,1.0913294553756714
1630415933542,0.5142330527305603,0.0752840340137481,0.0141019131988286,1.0913294553756714
1630415933635,0.5142330527305603,0.1150000095367431,-0.0005953696672804,1.0913294553756714
1630415933713,0.5142330527305603,0.134408414363861,-0.0129984784871339,1.0913294553756714
1630415933776,0.5142330527305603,0.1356707513332367,-0.0202577374875545,1.0913294553756714
1630415933963,0.5142330527305603,0.1244074404239654,-0.023082710802555,1.0913294553756714
1630415934073,0.5142330527305603,0.1090694069862365,-0.0253873690962791,1.0913294553756714
1630415934120,0.5142330527305603,0.0965594202280044,-0.0304610934108495,1.0913294553756714
1630415934229,0.5142330527305603,0.0895939618349075,-0.0383478216826915,1.0913294553756714
1630415934292,0.5142330527305603,0.0862410515546798,-0.0578719489276409,1.0913294553756714
1630415934389,0.5142330527305603,0.0837442949414253,-0.0798864439129829,1.0913294553756714
1630415934561,0.5142330527305603,0.0930499508976936,-0.0999984294176101,1.0913294553756714
1630415934639,0.3072644472122192,0.0996664091944694,-0.1157459765672683,1.0913294553756714
1630415934732,0.3216653168201446,0.1081317961215972,-0.1239314973354339,1.0913294553756714
1630415934810,0.3398679196834564,0.1083793491125106,-0.122629277408123,1.0913294553756714
1630415934935,0.3398679196834564,0.0974359363317489,-0.11189566552639,1.0913294553756714
1630415935060,0.3398679196834564,0.0661214590072631,-0.0949337929487228,1.0913294553756714
1630415935154,0.3398679196834564,0.0330290906131267,-0.0773209929466247,1.0913294553756714
1630415935264,0.3398679196834564,0.0087526217103004,-0.0620541647076606,1.0913294553756714
1630415935326,0.3432078957557678,-0.0007647417369298,-0.0506799593567848,1.0913294553756714
1630415935435,0.3535106778144836,0.0019480308983474,-0.0439297147095203,1.0913294553756714
1630415935590,0.3810832500457763,0.0076080928556621,-0.0417689271271228,1.0913294553756714
1630415935668,0.4235860705375671,0.0083944564685225,-0.0426923781633377,0.8010815978050232
1630415935761,0.4235860705375671,0.0018562610493972,-0.045292641967535,0.8132607936859131
1630415935871,0.4361336231231689,-0.0050527998246252,-0.0483542531728744,0.8132607936859131
1630415935965,0.4941756129264831,-0.0043883430771529,-0.0488307364284992,0.8368626832962036
1630415936074,0.5434319376945496,0.0102016739547252,-0.042396567761898,0.8368626832962036
1630415936105,0.5635784268379211,0.0375054590404033,-0.0266792681068182,0.8368626832962036
1630415936215,0.5849063396453857,0.0644009932875633,-0.0047521032392978,0.8287065029144287
1630415936375,0.6070913076400757,0.0877841114997863,0.0170151107013225,0.8017615675926208
1630415936437,0.6070913076400757,0.1042374745011329,0.0354489125311374,0.7849051356315613
1630415936562,0.6070913076400757,0.1223449856042862,0.0517664104700088,0.7838183641433716
1630415936673,0.6070913076400757,0.1347828358411789,0.0690363720059394,0.7922810316085815
1630415936767,0.6070913076400757,0.1472481787204742,0.0872193202376365,0.8014937043190002
1630415936876,0.6429463028907776,0.1637066453695297,0.1063424944877624,0.8014937043190002
1630415937048,0.6845559477806091,0.1817606985569,0.1270857751369476,0.8014937043190002
1630415937095,0.6845559477806091,0.1965384781360626,0.149057999253273,0.7966996431350708
1630415937189,0.6845559477806091,0.2091850936412811,0.1702372431755066,0.7885752320289612
1630415937298,0.6845559477806091,0.2234667986631393,0.1886015087366104,0.7756771445274353
1630415937361,0.6845559477806091,0.2388890832662582,0.2043600231409073,0.7756771445274353
1630415937411,0.6845559477806091,0.2495035082101822,0.2194347977638244,0.7756771445274353
1630415937629,0.6845559477806091,0.2554436326026916,0.2343705594539642,0.7756771445274353
1630415937676,0.6845559477806091,0.255966454744339,0.2449525743722915,0.7756771445274353
1630415937864,0.6845559477806091,0.2517244219779968,0.2509485781192779,0.7784249186515808
1630415937879,0.6845559477806091,0.2450389564037323,0.2533559799194336,0.801158607006073
1630415937958,0.6845559477806091,0.2402130961418151,0.2532579898834228,0.801158607006073
1630415938098,0.6845559477806091,0.2413887828588485,0.2512443959712982,0.801158607006073
1630415938192,0.6845559477806091,0.2079631984233856,0.2474312335252761,0.801158607006073
1630415938332,0.6845559477806091,0.1652948558330536,0.2421109080314636,0.801158607006073
1630415938400,0.5014345049858093,0.1112448871135711,0.2329895943403244,0.801158607006073
1630415938509,0.5262150764465332,0.0595605634152889,0.2165965139865875,0.801158607006073
1630415938572,0.5491040349006653,0.0309524089097976,0.1690272092819214,0.801158607006073
1630415938712,0.5659056901931763,0.0219322610646486,0.1143959164619445,0.801158607006073
1630415938806,0.5779371857643127,0.0101591916754841,0.0641450136899948,0.801158607006073
1630415938931,0.593716025352478,-0.0205997824668884,0.0243857782334089,0.801158607006073
1630415938978,0.6239362359046936,-0.0127811692655086,-0.0066923084668815,0.801158607006073
1630415939087,0.6390478014945984,-0.008731703273952,0.0244519039988517,0.801158607006073
1630415939181,0.6513640284538269,-0.0018252480076625,0.0549405254423618,0.801158607006073
1630415939275,0.6586140394210815,0.0083534503355622,0.0727981850504875,0.801158607006073
1630415939431,0.6623006463050842,0.0188418272882699,0.0789537206292152,0.801158607006073
1630415939525,0.6650947332382202,0.0280740316957235,0.0838592872023582,0.801158607006073
1630415939618,0.6667978167533875,0.0370182320475578,0.0948506817221641,0.801158607006073
1630415939712,0.664154589176178,0.0605274923145771,0.1112483739852905,0.801158607006073
1630415939775,0.6666584610939026,0.0819410532712936,0.129156544804573,0.801158607006073
1630415939900,0.6602208614349365,0.0962587967514991,0.1473857760429382,0.801158607006073
1630415940009,0.6503154039382935,0.1027200743556022,0.1664122939109802,0.801158607006073
1630415940118,0.6409415006637573,0.1048126891255378,0.1915504187345504,0.801158607006073
1630415940243,0.6320827007293701,0.1048049852252006,0.2155777961015701,0.801158607006073
1630415940337,0.621443510055542,0.1032344326376915,0.2318025827407837,0.801158607006073
1630415940415,0.6074798703193665,0.1002104952931404,0.2377525120973587,0.801158607006073
1630415940493,0.5908017158508301,0.0958068892359733,0.2344087660312652,0.801158607006073
1630415940618,0.5729056596755981,0.0900476723909378,0.2257661372423172,0.6805821657180786
1630415940727,0.556060254573822,0.0832503363490104,0.2183715552091598,0.6611877083778381
1630415940837,0.5413076877593994,0.0786927714943885,0.2162621617317199,0.6406382322311401
1630415940946,0.5267402529716492,0.0807184800505638,0.216812252998352,0.6200773119926453
1630415941040,0.5107071399688721,0.0889832898974418,0.2129910141229629,0.6133930087089539
1630415941180,0.4942798018455505,0.099150575697422,0.2011829167604446,0.6282346248626709
1630415941243,0.484611451625824,0.1089339628815651,0.1830205023288726,0.6597310304641724
1630415941337,0.4875243008136749,0.1192013844847679,0.1609095335006714,0.6948736906051636
1630415941449,0.500102162361145,0.1313399374485016,0.1362609416246414,0.7242680191993713
1630415941527,0.5120547413825989,0.1430647075176239,0.11094830930233,0.7462639212608337
1630415941652,0.5157231092453003,0.1500708311796188,0.0888504758477211,0.7626001834869385
1630415941730,0.5113487839698792,0.1507359445095062,0.0738442093133926,0.7746411561965942
1630415941886,0.5036346912384033,0.1465007364749908,0.0681856647133827,0.781338095664978
1630415941949,0.4964069724082947,0.1404663175344467,0.072308212518692,0.7931035757064819
1630415942048,0.4900910854339599,0.1357249617576599,0.0845540389418602,0.8077920079231262
1630415942139,0.4835470616817474,0.135063499212265,0.0920975059270858,0.8225911855697632
1630415942295,0.4769585132598877,0.1396802961826324,0.0938674658536911,0.8382183909416199
1630415942342,0.4712897837162018,0.1474110037088394,0.0893390178680419,0.8566924929618835
1630415942459,0.4666999876499176,0.1534194946289062,0.0849038586020469,0.8763098120689392
1630415942552,0.4615873694419861,0.1537588834762573,0.0883469358086586,0.8895533680915833
1630415942646,0.4557372331619262,0.1477953493595123,0.1010587587952613,0.8907800316810608
1630415942802,0.4520952403545379,0.1396532207727432,0.1187528818845748,0.8921036720275879
1630415942834,0.4465237855911255,0.1369230449199676,0.1395028382539749,0.8877865672111511
1630415942974,0.4451247453689575,0.1442680656909942,0.1611718088388443,0.8812131881713867
1630415943068,0.449930340051651,0.1579646170139312,0.1767334192991256,0.8745588660240173
1630415943208,0.4626450836658478,0.1694626063108444,0.1776162683963775,0.8682765364646912
1630415943240,0.4846277236938476,0.1763750612735748,0.1776162683963775,0.8627094626426697
1630415943349,0.5161552429199219,0.1824096441268921,0.1776162683963775,0.8589621782302856
1630415943525,0.5513893365859985,0.1923116892576217,0.1776162683963775,0.8576553463935852
1630415943572,0.5815699696540833,0.2080914080142974,0.1776162683963775,0.8574479818344116
1630415943712,0.5929933786392212,0.2268857806921005,0.1776162683963775,0.8575113415718079
1630415943759,0.6033186316490173,0.2426993995904922,0.1776162683963775,0.8545488715171814
1630415943868,0.6138855218887329,0.2494764775037765,0.1776162683963775,0.8545488715171814
1630415943978,0.6271579265594482,0.2464038431644439,0.1776162683963775,0.8545488715171814
1630415944072,0.6450022459030151,0.2398936748504638,0.1776162683963775,0.8545488715171814
1630415944118,0.6680121421813965,0.2382193058729171,0.1776162683963775,0.8545488715171814
1630415944321,0.6900889873504639,0.2420941293239593,0.1776162683963775,0.8545488715171814
1630415944415,0.722190797328949,0.2429269850254058,0.1776162683963775,0.8545488715171814
1630415944497,0.7407245635986328,0.2320611327886581,0.1776162683963775,0.8545488715171814
1630415944560,0.7499914169311523,0.210442379117012,0.1776162683963775,0.8545488715171814
1630415944701,0.7545881271362305,0.1914325803518295,0.1776162683963775,0.8545488715171814
1630415944763,0.7560794949531555,0.1875374019145965,0.2232448607683181,0.8545488715171814
1630415944903,0.7534066438674927,0.1975376605987548,0.1817461401224136,0.8545488715171814
1630415944997,0.7482424378395081,0.2093059569597244,0.1454328149557113,0.8545488715171814
1630415945122,0.7452943921089172,0.211869791150093,0.1200304329395294,0.8545488715171814
1630415945169,0.7453247904777527,0.2020984143018722,0.109390303492546,0.8545488715171814
1630415945310,0.7453247904777527,0.1838232576847076,0.1102495640516281,0.8545488715171814
1630415945388,0.7453247904777527,0.1648300886154174,0.11349868029356,0.8545488715171814
1630415945544,0.7453247904777527,0.1514725685119629,0.1120470166206359,0.8545488715171814
1630415945622,0.7453247904777527,0.1447755247354507,0.105146050453186,0.8545488715171814
1630415945747,0.7453247904777527,0.1407441645860672,0.0970463305711746,0.8545488715171814
1630415945809,0.7340956330299377,0.1354239881038665,0.0911659225821495,0.8545488715171814
1630415945903,0.7245474457740784,0.1293220669031143,0.0870371982455253,0.8545488715171814
1630415946013,0.7190804481506348,0.1256960928440094,0.0575216338038444,0.8545488715171814
1630415946184,0.7170457243919373,0.1262923032045364,0.0311811342835426,0.8545488715171814
1630415946216,0.7182145714759827,0.1262174695730209,0.0110648656263947,0.8545488715171814
1630415946294,0.7231882810592651,0.1184569224715232,-0.0023036340717226,0.8545488715171814
1630415946403,0.7231882810592651,0.1022249981760978,-0.0100296316668391,0.8545488715171814
1630415946499,0.7231882810592651,0.0846328809857368,-0.0149961402639746,0.8545488715171814
1630415946624,0.7231882810592651,0.0732335746288299,-0.0231456700712442,0.9280531406402588
1630415946764,0.7231882810592651,0.0706688240170478,-0.039884440600872,0.9319586753845216
1630415946842,0.7231882810592651,0.0746205672621727,-0.0654368847608566,0.931380569934845
1630415946936,0.5660913586616516,0.0814927294850349,-0.0937391817569732,0.9213126301765442
1630415947030,0.5660913586616516,0.088032841682434,-0.1172557920217514,0.9084701538085938
1630415947108,0.5660913586616516,0.090877778828144,-0.1338270306587219,0.904029667377472
1630415947202,0.5660913586616516,0.0877909064292907,-0.1475419402122497,0.9030733704566956
1630415947389,0.5660913586616516,0.0806133598089218,-0.1586520969867706,0.9009227752685548
1630415947452,0.5660913586616516,0.0742249190807342,-0.1561569571495056,0.9009227752685548
1630415947498,0.5660913586616516,0.0735857933759689,-0.1292044669389724,0.9009227752685548
1630415947639,0.5660913586616516,0.078653298318386,-0.0838559865951538,0.9009227752685548
1630415947764,0.5660913586616516,0.0845162719488143,-0.0398004911839962,0.9323758482933044
1630415947826,0.5660913586616516,0.0859003812074661,-0.0119282975792884,0.9491235613822936
1630415947983,0.6241910457611084,0.0808324813842773,-0.0020859388168901,0.9511838555336
1630415948030,0.649365246295929,0.0711402744054794,-0.0025378672871738,0.9426283240318298
1630415948139,0.662589967250824,0.0631005838513374,-0.0028796489350497,0.9302750825881958
1630415948233,0.6645982265472412,0.0634287148714065,0.0037455656565725,0.928699553012848
1630415948389,0.6548926830291748,0.0717289745807647,0.0176689978688955,0.9287216663360596
1630415948451,0.6430550217628479,0.0826473906636238,0.0340766794979572,0.936149537563324
1630415948611,0.6485678553581238,0.0930778458714485,0.0483392626047134,0.9325880408287048
1630415948720,0.6819297075271606,0.1057673618197441,0.0596642568707466,0.9422067999839784
1630415948783,0.7225775122642517,0.1244519799947738,0.0687472373247146,0.9448174238204956
1630415948861,0.7500972151756287,0.1469372063875198,0.074084959924221,0.9408881068229676
1630415948970,0.7585031390190125,0.1659872978925705,0.0708757936954498,0.9408881068229676
1630415949048,0.7527526617050171,0.1764210015535354,0.0565137080848217,0.9408881068229676
1630415949174,0.7404499650001526,0.1804286539554596,0.0354882888495922,0.9408881068229676
1630415949236,0.7263261675834656,0.1850796490907669,0.0186220314353704,0.8923571109771729
1630415949423,0.712319016456604,0.1955365985631942,0.0142016392201185,0.8309221863746643
1630415949490,0.6948319673538208,0.2106904536485672,0.0224561151117086,0.8309221863746643
1630415949512,0.6889141201972961,0.224970206618309,0.037125077098608,0.8309221863746643
1630415949637,0.6991265416145325,0.2334095537662506,0.0519209876656532,0.8309221863746643
1630415949856,0.7209143042564392,0.2351426184177398,0.0628261789679527,0.8309221863746643
1630415949887,0.744544267654419,0.2346443831920623,0.0670408383011818,0.8309221863746643
1630415949965,0.7609719038009644,0.2363721877336502,0.0668241307139396,0.8309221863746643
1630415950075,0.7612547278404236,0.2403458803892135,0.0672266036272049,0.8309221863746643
1630415950184,0.7409117221832275,0.242501825094223,0.0484662465751171,0.8309221863746643
1630415950262,0.7037280797958374,0.2405856847763061,0.0315747112035751,0.8309221863746643
1630415950387,0.6648857593536377,0.2377825528383255,0.0157546047121286,0.8309221863746643
1630415950481,0.6403166651725769,0.2393738180398941,0.0020324694924056,0.8309221863746643
1630415950606,0.6333420872688293,0.2476992458105087,-0.0072445939294993,0.8309221863746643
1630415950731,0.637742280960083,0.2608528137207031,-0.0085385423153638,0.8309221863746643
1630415950778,0.6479532718658447,0.2739421427249908,-0.0003676934575196,0.8309221863746643
1630415950934,0.662760853767395,0.282827079296112,0.0126987323164939,0.8309221863746643
1630415951075,0.6764111518859863,0.286783903837204,0.020591352134943,0.8309221863746643
1630415951122,0.6794797778129578,0.2895091772079468,0.0174176059663295,0.7142338752746582
1630415951168,0.6662012338638306,0.2942597866058349,0.0079745203256607,0.7142338752746582
1630415951309,0.6390593647956848,0.2990204393863678,-0.0044725644402205,0.7142338752746582
1630415951418,0.6070888042449951,0.2988163530826568,-0.0168817285448312,0.7142338752746582
1630415951481,0.581402599811554,0.2923494279384613,-0.0259250756353139,0.7142338752746582
1630415951590,0.5712714791297913,0.2824014127254486,-0.0286561492830514,0.7142338752746582
1630415951731,0.5774999260902405,0.2715621888637543,-0.0141187543049454,0.7142338752746582
1630415951840,0.5923451781272888,0.2606850862503052,0.0019527019467204,0.7142338752746582
1630415951918,0.6042296886444092,0.2497913837432861,0.0148029290139675,0.7142338752746582
1630415952012,0.6075522899627686,0.239750474691391,0.0229856614023447,0.7142338752746582
1630415952106,0.605097770690918,0.2305398881435394,0.0277283042669296,0.7138757705688477
1630415952262,0.6015621423721313,0.2201642841100692,0.0276369545608758,0.7122917771339417
1630415952308,0.5998883247375488,0.2089370340108871,0.0207358039915561,0.724078357219696
1630415952418,0.6009068489074707,0.2004427313804626,0.0131571171805262,0.7243931293487549
1630415952555,0.6069730520248413,0.1978912353515625,0.019142186269164,0.8131182193756104
1630415952649,0.6197460889816284,0.1987071633338928,0.045573104172945,0.889462947845459
1630415952696,0.637946605682373,0.1975650340318679,0.0832266956567764,0.9032419919967652
1630415952805,0.6568831205368042,0.1922632753849029,0.1182070448994636,0.8983993530273438
1630415952992,0.671116828918457,0.184697225689888,0.142802432179451,0.885657548904419
1630415953039,0.6773901581764221,0.1778856366872787,0.1550879776477813,0.8717412352561951
1630415953133,0.6746981143951416,0.1731720119714737,0.1578415483236313,0.8611556887626648
1630415953211,0.6656568646430969,0.1717650592327118,0.1573785990476608,0.8558635711669922
1630415953305,0.6558816432952881,0.1721134632825851,0.1617484539747238,0.8548537492752075
1630415953430,0.6495488882064819,0.170475959777832,0.1749901920557022,0.8540827631950378
1630415953570,0.647948145866394,0.1633724868297577,0.1932952553033828,0.8493385910987854
1630415953633,0.6494831442832947,0.1500840336084365,0.208399161696434,0.8472659587860107
1630415953742,0.6505337357521057,0.1320412009954452,0.2156433910131454,0.8411266207695007
1630415953867,0.6466420292854309,0.1102025657892227,0.2165214419364929,0.8259056210517883
1630415953914,0.6326568722724915,0.0864744335412979,0.2138092517852783,0.8136692047119141
1630415954086,0.6065506935119629,0.0651557967066764,0.206639677286148,0.7869016528129578
1630415954180,0.5705727338790894,0.0524584464728832,0.1931747198104858,0.7687737345695496
1630415954258,0.5312533378601074,0.05208720266819,0.1748448610305786,0.767417848110199
1630415954336,0.4956132471561432,0.0610477626323699,0.1562845110893249,0.7786868810653687
1630415954414,0.4695780873298645,0.07152059674263,0.1415040493011474,0.7782937288284302
1630415954554,0.4558204412460327,0.0761821866035461,0.1327899098396301,0.7810565233230591
1630415954664,0.4542767107486725,0.0730519443750381,0.1299201101064682,0.7833845615386963
1630415954773,0.4614260494709015,0.063863381743431,0.1300376504659652,0.7764646410942078
1630415954867,0.4693051874637604,0.0524076521396636,0.1280891299247741,0.7695275545120239
1630415954945,0.473073810338974,0.0420761778950691,0.1193085834383964,0.7685336470603943
1630415955039,0.4731513559818268,0.0350887142121791,0.1032003089785575,0.7759696841239929
1630415955132,0.473365306854248,0.032284490764141,0.0841851681470871,0.7891750931739807
1630415955289,0.4632457196712494,0.0319736450910568,0.0674453377723693,0.8043765425682068
1630415955351,0.453341007232666,0.0317012704908847,0.054522767663002,0.8217784762382507
1630415955476,0.4495519399642944,0.0295770820230245,0.0434373468160629,0.8435956835746765
1630415955586,0.4532032310962677,0.0265022572129964,0.031987365335226,0.8541527390480042
1630415955617,0.4627653062343597,0.0234797894954681,0.018337583169341,0.8548213839530945
1630415955710,0.4754820168018341,0.020571244880557,0.0018620359478518,0.8423806428909302
1630415955898,0.490766167640686,0.0221180208027362,-0.0139420647174119,0.8205076456069946
1630415955945,0.5077275037765503,0.0339666008949279,-0.0194752924144268,0.8205076456069946
1630415956054,0.5237281918525696,0.0553996451199054,-0.0085966233164072,0.8205076456069946
1630415956242,0.534177303314209,0.0780706852674484,0.0134548731148242,0.8205076456069946
1630415956288,0.5351840257644653,0.0949622094631195,0.0335184447467327,0.8254718780517578
1630415956398,0.5351840257644653,0.1068470329046249,0.0428719967603683,0.8238134384155273
1630415956492,0.5351840257644653,0.1174358800053596,0.0433798022568225,0.8084729313850403
1630415956570,0.5351840257644653,0.1273391097784042,0.0427435487508773,0.7828611731529236
1630415956679,0.5351840257644653,0.1341751366853714,0.0468701384961605,0.7565985918045044
1630415956820,0.5097982287406921,0.1371272653341293,0.0591564290225505,0.7336180210113525
1630415956851,0.4880053400993347,0.1377583146095276,0.0795652791857719,0.7035787105560303
1630415956976,0.4754875302314758,0.1372647285461425,0.1048216745257377,0.6553587317466736
1630415957116,0.4737104475498199,0.1345846205949783,0.1302910596132278,0.6568439602851868
1630415957194,0.486153095960617,0.129921019077301,0.1522592157125473,0.6568439602851868
1630415957304,0.5113716125488281,0.1259869784116745,0.168909877538681,0.6568439602851868
1630415957382,0.5383708477020264,0.1220471933484077,0.1791146397590637,0.6568439602851868
1630415957460,0.5545666217803955,0.1156328320503234,0.1808340549468994,0.6568439602851868
1630415957572,0.557523787021637,0.1099655553698539,0.1735647320747375,0.6568439602851868
1630415957713,0.5547802448272705,0.1153813600540161,0.160056471824646,0.6568439602851868
1630415957807,0.55556720495224,0.1367145776748657,0.1466118097305297,0.6420651078224182
1630415957931,0.5635620951652527,0.1641377061605453,0.1392846256494522,0.624024510383606
1630415957994,0.5732399821281433,0.1844502687454223,0.1385267376899719,0.6104923486709595
1630415958056,0.5939377546310425,0.1939547806978225,0.1397545635700225,0.6051463484764099
1630415958213,0.6186771392822266,0.1982764452695846,0.1380908340215683,0.6045466065406799
1630415958369,0.6413763165473938,0.2037277221679687,0.1321616321802139,0.6045466065406799
1630415958416,0.6574501395225525,0.2127435207366943,0.1258833110332489,0.6045466065406799
1630415958494,0.6644406914710999,0.2244233191013336,0.1248283758759498,0.6045466065406799
1630415958650,0.6624386310577393,0.2363660782575607,0.1302046030759811,0.6045466065406799
1630415958697,0.6518492102622986,0.2460316121578216,0.1378776729106903,0.6045466065406799
1630415958775,0.6333742737770081,0.2523234784603119,0.144116535782814,0.6045466065406799
1630415958947,0.6104925870895386,0.2569433748722076,0.149423748254776,0.6045466065406799
1630415958994,0.591629683971405,0.2637430429458618,0.1567823737859726,0.6045466065406799
1630415959087,0.5829014182090759,0.2745645940303802,0.1662044823169708,0.6045466065406799
1630415959244,0.5833816528320312,0.2851046919822693,0.1758019030094146,0.6045466065406799
1630415959290,0.5861923694610596,0.2885225713253021,0.1841352880001068,0.6045466065406799
1630415959431,0.5846228003501892,0.282270073890686,0.1913003176450729,0.8718764185905457
1630415959559,0.5733881592750549,0.2703792452812195,0.197828784584999,0.8490176796913147
1630415959606,0.5503758192062378,0.2592962384223938,0.2039207965135574,0.8264316916465759
1630415959762,0.5166651010513306,0.2508686780929565,0.2105970680713653,0.8062278628349304
1630415959824,0.4772795140743255,0.2430105805397033,0.2185075134038925,0.7875116467475891
1630415959887,0.4412597417831421,0.2340596467256546,0.2259824723005294,0.7702386975288391
1630415960012,0.418368250131607,0.2247082740068435,0.2296505123376846,0.7551260590553284
1630415960152,0.4120099544525146,0.2167667746543884,0.2289282232522964,0.7439916133880615
1630415960246,0.416867047548294,0.2110653519630432,0.2277757376432418,0.7371519804000854
1630415960324,0.4239033758640289,0.2080463767051696,0.2305950969457626,0.7329234480857849
1630415960418,0.4280990064144134,0.2092750072479248,0.2371309548616409,0.7288163304328918
1630415960562,0.4280985891819,0.21348537504673,0.2432274520397186,0.7232385277748108
1630415960608,0.4232015013694763,0.213919848203659,0.2462853491306305,0.7043331861495972
1630415960783,0.411059707403183,0.2043773978948593,0.2459985613822937,0.6753730177879333
1630415960833,0.395049124956131,0.1870673149824142,0.2432929575443267,0.6434226036071777
1630415960942,0.3854275941848755,0.1750126779079437,0.2382470518350601,0.618613600730896
1630415961083,0.3950011134147644,0.1816596686840057,0.23054239153862,0.6066574454307556
1630415961131,0.4230867028236389,0.2067440003156662,0.2213815301656723,0.6071910858154297
1630415961222,0.4569672346115112,0.2385173290967941,0.2125542163848877,0.6168177127838135
1630415961374,0.484337568283081,0.2657758593559265,0.2057295143604278,0.6325653791427612
1630415961468,0.4998969137668609,0.2833423912525177,0.2014172673225402,0.6524182558059692
1630415961561,0.5051358938217163,0.2914571166038513,0.1994667649269104,0.6745196580886841
1630415961609,0.5051257610321045,0.2929383516311645,0.2003083378076553,0.694928765296936
1630415961722,0.504712700843811,0.2905664443969726,0.205979898571968,0.710204005241394
1630415961847,0.5070858597755432,0.2850554287433624,0.215836614370346,0.7219895720481873
1630415961957,0.5144029855728149,0.2741540074348449,0.2255645096302032,0.7359592318534851
1630415962035,0.5269473195075989,0.256473571062088,0.2302039861679077,0.756495475769043
1630415962144,0.5422945618629456,0.2364925295114517,0.2292495369911193,0.7833004593849182
1630415962253,0.5548230409622192,0.2228151857852935,0.2283703535795211,0.8127468228340149
1630415962378,0.5576863288879395,0.2196769118309021,0.233744665980339,0.8408761620521545
1630415962441,0.5470079183578491,0.2201901823282241,0.24595408141613,0.8644477128982544
1630415962546,0.5262085199356079,0.2126900106668472,0.2614506483078003,0.8816821575164795
1630415962687,0.5093300342559814,0.1912315785884857,0.2765300869941711,0.8933537602424622
1630415962843,0.515763521194458,0.1605523973703384,0.2903991043567657,0.9024028778076172
1630415962859,0.5523717403411865,0.1344061195850372,0.3023958802223205,0.9121463894844056
1630415962953,0.6035550832748413,0.1264787465333938,0.3101208209991455,0.9237968325614928
1630415963077,0.6474571228027344,0.1397349387407302,0.3105599284172058,0.9360394477844238
1630415963171,0.6732960939407349,0.1650626808404922,0.3030976355075836,0.9464486837387084
1630415963296,0.6827227473258972,0.190911054611206,0.2958321869373321,0.9537298679351808
1630415963406,0.6833767890930176,0.2104437947273254,0.2851088643074035,0.9572501182556152
1630415963499,0.6824159026145935,0.2239563912153244,0.2752239108085632,0.9578962326049804
1630415963577,0.6821056008338928,0.2351277321577072,0.2736443281173706,0.9567476511001588
1630415963640,0.6825476288795471,0.2452365159988403,0.2832594215869903,0.954452395439148
1630415963843,0.685736894607544,0.2525261342525482,0.2971275448799133,0.9516705274581908
1630415963859,0.6943936944007874,0.2566078007221222,0.2914236187934875,0.9489395022392272
1630415964015,0.7068895697593689,0.2599309682846069,0.2861266136169433,0.9467202425003052
1630415964077,0.71554034948349,0.2646415531635284,0.2856164276599884,0.9457457661628724
1630415964187,0.712195634841919,0.2711150050163269,0.2920280992984772,0.9482825994491576
1630415964281,0.6918984651565552,0.2784085273742676,0.3032523691654205,0.950062930583954
1630415964421,0.6547333002090454,0.2840157747268677,0.3182448744773865,0.9486904144287108
1630415964514,0.6081610321998596,0.2841916680335998,0.337399274110794,0.9422639012336732
1630415964626,0.5645384788513184,0.2760105431079864,0.3595132231712341,0.9310201406478882
1630415964673,0.5342344641685486,0.2610163688659668,0.3788231909275055,0.9188259840011596
1630415964814,0.5192073583602905,0.2445858865976333,0.3740415573120117,0.9114810824394226
1630415964876,0.5177910923957825,0.2313709259033203,0.3642732501029968,0.9127694964408876
1630415965017,0.5298901796340942,0.2222318798303604,0.3552423417568207,0.9189075827598572
1630415965160,0.5555827617645264,0.2171111851930618,0.3486711978912353,0.9227770566940308
1630415965225,0.588869035243988,0.2183078974485397,0.3440678119659424,0.920475423336029
1630415965334,0.6183319687843323,0.2272610515356063,0.3399337232112884,0.920475423336029
1630415965428,0.6349745988845825,0.2389816492795944,0.3442538976669311,0.920475423336029
1630415965475,0.640213131904602,0.2460879534482956,0.3410079777240753,0.920475423336029
1630415965647,0.6464463472366333,0.2463758885860443,0.332590788602829,0.920475423336029
1630415965725,0.6653491854667664,0.2427611947059631,0.3244491517543793,0.920475423336029
1630415965834,0.6955100297927856,0.2385032027959823,0.320385992527008,0.7425387501716614
1630415965928,0.7240790128707886,0.2334441840648651,0.3183367848396301,0.7458502054214478
1630415966022,0.741616427898407,0.2256964892148971,0.3133101463317871,0.7610952854156494
1630415966115,0.7492592930793762,0.2152789235115051,0.3043522834777832,0.7795907258987427
1630415966209,0.7544723749160767,0.2031785249710083,0.2950519621372223,0.7932628393173218
1630415966371,0.7636855244636536,0.1913849860429763,0.2876722514629364,0.7971348762512207
1630415966418,0.7749258875846863,0.1827966868877411,0.2806829512119293,0.7914353609085083
1630415966528,0.7806058526039124,0.1782287359237671,0.2710436880588531,0.782288134098053
1630415966640,0.7767530679702759,0.1729824393987655,0.257926732301712,0.782288134098053
1630415966734,0.7627550363540649,0.1593587547540664,0.2417618930339813,0.782288134098053
1630415966859,0.7459374070167542,0.1339432448148727,0.2241669297218322,0.782288134098053
1630415966937,0.7363667488098145,0.1017098501324653,0.2084635198116302,0.782288134098053
1630415967031,0.7382986545562744,0.0719674825668335,0.1992247104644775,0.7765920758247375
1630415967187,0.7438238859176636,0.0503046289086341,0.1958411782979965,0.7801998853683472
1630415967249,0.7382675409317017,0.035261794924736,0.1909352093935012,0.7910400032997131
1630415967359,0.7123851776123047,0.0220815744251012,0.1767210215330124,0.803468644618988
1630415967499,0.6745848655700684,0.0085781179368495,0.1516282558441162,0.8104790449142456
1630415967596,0.6488738656044006,-0.0024721273221075,0.1218214333057403,0.8064256906509399
1630415967658,0.6559070944786072,-0.0070137521252036,0.0944543331861496,0.7869686484336853
1630415967721,0.6559070944786072,-0.0045053674839437,0.0721743106842041,0.7869686484336853
1630415967814,0.6559070944786072,-0.0009595326264388,0.054708082228899,0.7869686484336853
1630415967970,0.6559070944786072,-0.000648672983516,0.0438451990485191,0.7869686484336853
1630415968033,0.6559070944786072,0.0012005602475255,0.0487584546208381,0.7869686484336853
1630415968189,0.6559070944786072,0.0159242898225784,0.0827094539999961,0.7869686484336853
1630415968236,0.6559070944786072,0.0521181188523769,0.1446540802717209,0.6503874063491821
1630415968395,0.6559070944786072,0.1079164519906044,0.2149154394865036,0.6409506797790527
1630415968457,0.6559070944786072,0.1716350466012954,0.2727549970149994,0.6333527565002441
1630415968535,0.6559070944786072,0.182904377579689,0.3089739680290222,0.6374741196632385
1630415968660,0.6559070944786072,0.1945552080869674,0.3263921737670898,0.6374741196632385
1630415968770,0.6559070944786072,0.2068658918142318,0.3324322402477264,0.6374741196632385
1630415968832,0.6559070944786072,0.2219279259443283,0.3329741060733795,0.6374741196632385
1630415968942,0.6559070944786072,0.2422648519277572,0.3311525583267212,0.6374741196632385
1630415969067,0.6559070944786072,0.2780013680458069,0.3274692893028259,0.6374741196632385
1630415969176,0.6559070944786072,0.2972664833068847,0.3223856687545776,0.6374741196632385
1630415969260,0.6559070944786072,0.3018343150615692,0.3178005516529083,0.6374741196632385
1630415969385,0.6559070944786072,0.2981151938438415,0.3159716427326202,0.6374741196632385
1630415969479,0.6559070944786072,0.2908219695091247,0.3189907371997833,0.6422443389892578
1630415969572,0.6559070944786072,0.2789868712425232,0.3269954025745392,0.6400229334831238
1630415969650,0.6559070944786072,0.2582107782363891,0.3338716626167297,0.6293339133262634
1630415969760,0.6559070944786072,0.222205564379692,0.3301516771316528,0.6293339133262634
1630415969869,0.6559070944786072,0.1661501079797744,0.3099748790264129,0.6293339133262634
1630415970057,0.6559070944786072,0.0918134823441505,0.2764825224876404,0.6293339133262634
1630415970088,0.6559070944786072,0.1188194453716278,0.2408582717180252,0.6293339133262634
1630415970182,0.6559070944786072,0.1492507457733154,0.215133935213089,0.6293339133262634
1630415970260,0.6559070944786072,0.1750567704439163,0.2051277160644531,0.6293339133262634
1630415970338,0.6559070944786072,0.1914740055799484,0.2113998830318451,0.6293339133262634
1630415970526,0.6559070944786072,0.1994564235210418,0.229654312133789,0.6293339133262634
1630415970572,0.6559070944786072,0.1906422078609466,0.2535771131515503,0.6293339133262634
1630415970728,0.6559070944786072,0.191430389881134,0.2773731350898742,0.6293339133262634
1630415970806,0.8343231081962585,0.199777752161026,0.2980375289916992,0.6293339133262634
1630415970869,0.7802428007125854,0.2093153893947601,0.3146185576915741,0.6293339133262634
1630415970947,0.7349061965942383,0.2164045721292495,0.3248200118541717,0.6293339133262634
1630415971088,0.7024735808372498,0.2217484414577484,0.3226718306541443,0.6293339133262634
1630415971291,0.6802741885185242,0.2270544022321701,0.3031160235404968,0.7068831920623779
1630415971373,0.6660952568054199,0.2335433214902877,0.2693418264389038,0.689333438873291
1630415971419,0.6592338681221008,0.2409962713718414,0.2348741888999939,0.6788254976272583
1630415971513,0.6600756049156189,0.2512864172458648,0.2143985480070114,0.6768999099731445
1630415971669,0.6657922863960266,0.2663978338241577,0.2135566920042038,0.6841936111450195
1630415971732,0.6702004671096802,0.2848018407821655,0.2268900573253631,0.6950640678405762
1630415971841,0.668424665927887,0.3009789586067199,0.2454618364572525,0.7026901245117188
1630415971872,0.6607619524002075,0.3100460171699524,0.2600440979003906,0.705534040927887
1630415972044,0.622746467590332,0.3106978833675384,0.2656337320804596,0.708801805973053
1630415972076,0.5873923301696777,0.30573171377182,0.2633724808692932,0.7165490984916687
1630415972169,0.5647964477539062,0.3004170358181,0.2590983211994171,0.7276368141174316
1630415972341,0.557040274143219,0.2992029786109924,0.2571587860584259,0.7372975945472717
1630415972404,0.556603729724884,0.3033783435821533,0.2590619623661041,0.7347391247749329
1630415972513,0.5558047294616699,0.3097889721393585,0.2654512226581573,0.7401962280273438
1630415972607,0.5518596172332764,0.3137717843055725,0.2762786448001861,0.7482360601425171
1630415972700,0.5486735701560974,0.3130726516246795,0.2909450531005859,0.7567574381828308
1630415972888,0.5491003394126892,0.3075095117092132,0.3080512583255768,0.763330340385437
1630415972966,0.549850583076477,0.2972646057605743,0.3262073099613189,0.7677931189537048
1630415973060,0.5426347851753235,0.2808620929718017,0.3458122909069061,0.7708543539047241
1630415973122,0.5238493084907532,0.257283866405487,0.3662286698818207,0.7743894457817078
1630415973200,0.501483678817749,0.2298885881900787,0.3840867280960083,0.7803435325622559
1630415973325,0.4892613887786865,0.2074866145849228,0.396040141582489,0.7894062399864197
1630415973372,0.491771787405014,0.1969176232814788,0.4017993211746216,0.7989765405654907
1630415973563,0.4997478425502777,0.1965208053588867,0.4040822386741638,0.8026948571205139
1630415973656,0.5012739896774292,0.1975474953651428,0.4064764678478241,0.7956159710884094
1630415973750,0.4920429289340973,0.1933704316616058,0.4104959368705749,0.7777609825134277
1630415973828,0.4760944247245788,0.1841410994529724,0.4160577952861786,0.7557374835014343
1630415973906,0.4616560935974121,0.1751789003610611,0.4215401411056518,0.7383502125740051
1630415974063,0.4544091522693634,0.1722974628210067,0.4240443706512451,0.7290425300598145
1630415974156,0.4538505375385284,0.1785100549459457,0.4228267967700958,0.7241074442863464
1630415974266,0.4524878859519958,0.1940873712301254,0.4200968742370605,0.7189266681671143
1630415974359,0.4419409334659576,0.2184986919164657,0.4183139204978943,0.7116920351982117
1630415974406,0.4210464060306549,0.2481977790594101,0.4175407886505127,0.7025835514068604
1630415974503,0.3977649807929992,0.2755728960037231,0.4153788983821869,0.6912949085235596
1630415974612,0.3816088140010834,0.2940938472747803,0.4097234010696411,0.6772589683532715
1630415974768,0.3731397986412048,0.3018671572208404,0.4004204273223877,0.6648379564285278
1630415974878,0.3686076998710632,0.3021284341812134,0.3890340030193329,0.662094235420227
1630415974987,0.3662312924861908,0.3002778589725494,0.3775666654109955,0.6722611784934998
1630415975034,0.3675122857093811,0.3007568418979645,0.367720752954483,0.6916947960853577
1630415975174,0.3731417953968048,0.3063134551048279,0.3601348400115967,0.7144268155097961
1630415975206,0.3811438381671905,0.3157438933849334,0.3537341356277466,0.7363316416740417
1630415975378,0.3902804255485534,0.3246667087078094,0.34633469581604,0.7551474571228027
1630415975506,0.3991014957427978,0.3286101520061493,0.3372076749801636,0.7679839134216309
1630415975568,0.4052252471446991,0.3262850344181061,0.3288318216800689,0.7745146155357361
1630415975678,0.4074743390083313,0.318895548582077,0.3264460563659668,0.7780486345291138
1630415975771,0.4068821668624878,0.3070513308048248,0.3346416354179382,0.7818460464477539
1630415975834,0.4068821668624878,0.290052205324173,0.3516052663326263,0.7869588732719421
1630415975943,0.4114791750907898,0.268800288438797,0.3700379133224487,0.7926669716835022
1630415976037,0.4217255413532257,0.2483142614364624,0.3825365602970123,0.7986180186271667
1630415976162,0.4348522424697876,0.2331529408693313,0.3866850137710571,0.8047886490821838
1630415976287,0.4464516639709472,0.2224611043930053,0.3862042129039764,0.8088769912719727
1630415976365,0.4496324062347412,0.2106207013130188,0.3857004046440124,0.8062780499458313
1630415976505,0.4412464797496795,0.1941305696964264,0.3867584466934204,0.7950975894927979
1630415976584,0.4238548576831817,0.1752537190914154,0.3878384530544281,0.7771736979484558
1630415976693,0.4054434299468994,0.1580527871847152,0.386832982301712,0.7564524412155151
1630415976755,0.3943738043308258,0.1457671970129013,0.3835958540439605,0.735906183719635
1630415976896,0.3938385248184204,0.1409239023923874,0.3802248537540436,0.7162025570869446
1630415976958,0.4046436548233032,0.1438795328140258,0.3779544234275818,0.6988440155982971
1630415977068,0.4280165135860443,0.1512793004512787,0.3764047026634216,0.6864942312240601
1630415977224,0.4620312750339508,0.1590525358915329,0.3725226521492004,0.6807934641838074
1630415977287,0.5003107190132141,0.1664853394031524,0.3629454970359802,0.6831871867179871
1630415977396,0.5371586084365845,0.1746463626623153,0.3489933907985687,0.6945719122886658
1630415977521,0.5680639147758484,0.1830733865499496,0.3384797871112823,0.7114171981811523
1630415977630,0.5894864797592163,0.1889849603176117,0.3411754071712494,0.7264910936355591
1630415977677,0.5997084975242615,0.1908184885978698,0.3604085445404053,0.7323021292686462
1630415977833,0.599827766418457,0.1902172863483429,0.3876447975635528,0.7257442474365234
1630415977958,0.595169723033905,0.1905648410320282,0.4105980098247528,0.70981764793396
1630415978021,0.5899250507354736,0.1934614330530166,0.4234572649002075,0.6917615532875061
1630415978083,0.5865780711174011,0.197950541973114,0.4292644262313843,0.6803117394447327
1630415978208,0.587852418422699,0.2029316872358322,0.4368114769458771,0.6808528304100037
1630415978302,0.5961446762084961,0.2075476795434951,0.4535710215568542,0.6928941011428833
1630415978442,0.6090013980865479,0.210061565041542,0.4799698293209076,0.7133182287216187
1630415978536,0.6172993183135986,0.2086483985185623,0.5112661719322205,0.7387152910232544
1630415978708,0.6123147010803223,0.2026624530553817,0.5404548048973083,0.7648018598556519
1630415978739,0.5907961130142212,0.1934047788381576,0.561816930770874,0.7859269976615906
1630415978786,0.5566602945327759,0.1813204288482666,0.5724580883979797,0.7971405982971191
1630415978880,0.5168963074684143,0.1659475564956665,0.5731920003890991,0.7975731492042542
1630415979083,0.4795633554458618,0.1488583832979202,0.5669670701026917,0.7922874689102173
1630415979130,0.4528116881847381,0.1353136152029037,0.5566747784614563,0.7882686853408813
1630415979239,0.4403453469276428,0.1307733207941055,0.5428947806358337,0.7905207276344299
1630415979333,0.4395380616188049,0.1341353803873062,0.5270777344703674,0.8007951974868774
1630415979411,0.4428656101226806,0.1392354518175125,0.5134830474853516,0.817478597164154
1630415979521,0.4475767314434051,0.1451592296361923,0.5063905715942383,0.8364394903182983
1630415979648,0.4532806575298309,0.1574221402406692,0.5055643320083618,0.8516204953193665
1630415979742,0.4562350213527679,0.1780658215284347,0.5078702569007874,0.858609676361084
1630415979820,0.4507347047328949,0.200724259018898,0.5103346705436707,0.8567612767219543
1630415979929,0.4358175694942474,0.2186569720506668,0.5109471082687378,0.846533477306366
1630415980038,0.4190346002578735,0.2324077188968658,0.5070649981498718,0.8293456435203552
1630415980132,0.410069078207016,0.247181698679924,0.4976094961166382,0.8074690103530884
1630415980272,0.4128412902355194,0.2642060816287994,0.485010027885437,0.7854344844818115
1630415980398,0.4207557439804077,0.2806921303272247,0.4731833338737488,0.7684919834136963
1630415980445,0.4257257580757141,0.2954907715320587,0.4639871120452881,0.7585355043411255
1630415980576,0.422204315662384,0.3085000813007355,0.4550263583660126,0.7523302435874939
1630415980623,0.4098706245422363,0.3169306516647339,0.4430351555347442,0.74676513671875
1630415980748,0.3947555422782898,0.3176186680793762,0.4262068569660187,0.7410327196121216
1630415980857,0.3872314989566803,0.3132336139678955,0.4059161841869354,0.7333097457885742
1630415980919,0.3834708034992218,0.3110942244529724,0.3857150971889496,0.7204360365867615
1630415981076,0.3829673230648041,0.3133535981178283,0.3678469359874725,0.7012892961502075
1630415981169,0.3824284076690674,0.3133239448070526,0.3504370450973511,0.6796877980232239
1630415981279,0.3794992864131927,0.3042460680007934,0.3257403373718261,0.662075936794281
1630415981326,0.3746407628059387,0.2876847088336944,0.2860147655010223,0.6515368223190308
1630415981466,0.3690857291221618,0.2705957591533661,0.2308405637741089,0.6487922072410583
1630415981578,0.3577805161476135,0.2571949064731598,0.1741390228271484,0.6523596048355103
1630415981641,0.3278007507324219,0.2461673468351364,0.1391948014497757,0.659178614616394
1630415981766,0.2751018404960632,0.235164999961853,0.138542890548706,0.6652722358703613
1630415981875,0.2143087685108184,0.2227133959531784,0.1653619259595871,0.6673796772956848
1630415981969,0.1636382341384887,0.2069184333086013,0.2054500430822372,0.664229691028595
1630415982094,0.1349181830883026,0.1894551962614059,0.2491243481636047,0.6574379205703735
1630415982188,0.1164558678865432,0.1787996739149093,0.2890998423099518,0.6475465297698975
1630415982266,0.0851382762193679,0.1827451586723327,0.3209781646728515,0.6342997550964355
1630415982375,0.077460765838623,0.1970011740922927,0.3432812094688415,0.6201081871986389
1630415982446,0.0771729797124862,0.2084789723157882,0.3593124151229858,0.6103042364120483
1630415982553,0.0894681885838508,0.2089055627584457,0.3745811879634857,0.606888473033905
1630415982663,0.1113363876938819,0.2009982913732528,0.392330914735794,0.6082838773727417
1630415982834,0.137024238705635,0.1921475976705551,0.4120417237281799,0.6130663156509399
1630415982883,0.1613436341285705,0.1852302849292755,0.4300296604633331,0.620792031288147
1630415982974,0.1826828420162201,0.1775022745132446,0.4420839548110962,0.629591703414917
1630415983116,0.1935531198978424,0.1665887087583542,0.4440671503543854,0.6342660784721375
1630415983194,0.2246464788913726,0.1527984142303466,0.4332479536533355,0.6295633316040039
1630415983288,0.2784320414066314,0.1403364092111587,0.4107021987438202,0.6148776412010193
1630415983400,0.3416807651519775,0.1360639482736587,0.3807235658168793,0.5955835580825806
1630415983493,0.4007178843021393,0.1452327519655227,0.3475832343101501,0.5788978934288025
1630415983603,0.4546923637390136,0.1645605117082595,0.3132587075233459,0.5669867992401123
1630415983680,0.509587287902832,0.1853758841753006,0.280312031507492,0.5669867992401123
1630415983760,0.5648261904716492,0.201575681567192,0.252774029970169,0.5669867992401123
1630415983887,0.6109203696250916,0.2153137624263763,0.2316855788230896,0.5669867992401123
1630415983996,0.6420014500617981,0.2329729348421096,0.2118863016366958,0.5669867992401123
1630415984076,0.6598578095436096,0.2567861080169678,0.1890040189027786,0.6140878796577454
1630415984201,0.67214035987854,0.2814459800720215,0.1651258021593094,0.6638206839561462
1630415984276,0.6851613521575928,0.3007068634033203,0.1451261639595031,0.7188180088996887
1630415984388,0.7021260857582092,0.313726395368576,0.1322974413633346,0.7679908871650696
1630415984544,0.7226910591125488,0.3251650333404541,0.127314031124115,0.8037893176078796
1630415984589,0.7419312000274658,0.3385390937328338,0.1306523084640503,0.8239507675170898
1630415984731,0.7531271576881409,0.3535283207893371,0.1420759111642837,0.833275318145752
1630415984795,0.7525655031204224,0.3665277361869812,0.1587333679199218,0.839972198009491
1630415984935,0.7423940300941467,0.3752766251564026,0.1749305427074432,0.8507925271987915
1630415984984,0.726861298084259,0.3795299530029297,0.1862632632255554,0.8638041019439697
1630415985171,0.7221740484237671,0.3797717094421386,0.1921006739139557,0.8728379607200623
1630415985233,0.7115060687065125,0.3750331401824951,0.1922488510608673,0.8735522031784058
1630415985295,0.6935667395591736,0.3644236028194427,0.1879405677318573,0.8899738192558289
1630415985437,0.6751702427864075,0.3477616608142853,0.1821626871824264,0.9070767164230348
1630415985483,0.6659238338470459,0.3254638314247131,0.1790877431631088,0.9241631031036376
1630415985576,0.6649985313415527,0.2988090217113495,0.1803909987211227,0.9393397569656372
1630415985764,0.6647449135780334,0.2707877159118652,0.1849665194749832,0.9496505856513976
1630415985826,0.6664055585861206,0.2458036690950393,0.1906844526529312,0.9526681900024414
1630415985919,0.6577561497688293,0.228546068072319,0.1948996633291244,0.948663294315338
1630415986012,0.634476900100708,0.2191959768533706,0.1951063573360443,0.9415884017944336
1630415986184,0.6390019059181213,0.2133532911539077,0.1905077546834945,0.9387195110321044
1630415986261,0.6366921067237854,0.2070483863353729,0.1837271749973297,0.9443806409835817
1630415986354,0.6347045302391052,0.2025994658470153,0.1776794195175171,0.9544021487236024
1630415986418,0.6368159651756287,0.1996885240077972,0.17289799451828,0.9544021487236024
1630415986496,0.6615710258483887,0.1952848136425018,0.1701404601335525,0.9544021487236024
1630415986604,0.6615710258483887,0.1858991831541061,0.1704395115375518,0.9544021487236024
1630415986714,0.6615710258483887,0.1715709120035171,0.1757019758224487,0.9544021487236024
1630415986809,0.6615710258483887,0.1538599729537964,0.1870422065258026,0.9544021487236024
1630415986938,0.6615710258483887,0.1336039155721664,0.2046911269426345,0.9544021487236024
1630415987046,0.6615710258483887,0.1138213202357292,0.2263240218162536,0.9544021487236024
1630415987093,0.6682103276252747,0.1025613248348236,0.2457076609134674,0.9544021487236024
1630415987249,0.684872567653656,0.1092652082443237,0.2540731728076935,0.9544021487236024
1630415987407,0.684872567653656,0.1362274438142776,0.2454606145620346,0.9544021487236024
1630415987415,0.684872567653656,0.1362274438142776,0.2454606145620346,0.9544021487236024
1630415987544,0.684872567653656,0.1362274438142776,0.2454606145620346,0.9544021487236024
1630415987638,0.684872567653656,0.1362274438142776,0.2454606145620346,0.9544021487236024
1630415987749,0.684872567653656,0.1362274438142776,0.2454606145620346,0.9544021487236024
1630415987856,0.684872567653656,0.1362274438142776,0.2454606145620346,0.9544021487236024
1630415987951,0.684872567653656,0.1362274438142776,0.2454606145620346,0.9544021487236024
1630415988075,0.684872567653656,0.1362274438142776,0.2454606145620346,0.9544021487236024
1630415988171,0.684872567653656,0.1362274438142776,0.2454606145620346,0.9544021487236024
1630415988249,0.684872567653656,0.1362274438142776,0.2454606145620346,0.9544021487236024
1630415988360,0.684872567653656,0.1362274438142776,0.2454606145620346,0.9544021487236024
1630415988489,0.684872567653656,0.1362274438142776,0.2454606145620346,0.9544021487236024
1630415988516,0.684872567653656,0.1362274438142776,0.2454606145620346,0.9544021487236024
1630415988655,0.684872567653656,0.1362274438142776,0.2454606145620346,0.9544021487236024
1630415988797,0.684872567653656,0.1362274438142776,0.2454606145620346,0.9544021487236024
1630415988879,0.684872567653656,0.1362274438142776,0.2454606145620346,0.9544021487236024
1630415988953,0.684872567653656,0.1362274438142776,0.2454606145620346,0.9544021487236024
1630415989092,0.684872567653656,0.1362274438142776,0.2454606145620346,0.9544021487236024
1630415989201,0.684872567653656,0.1362274438142776,0.2454606145620346,0.9544021487236024
1630415989264,0.684872567653656,0.1362274438142776,0.7453410029411316,0.9544021487236024
1630415989357,0.684872567653656,0.9748353362083436,0.7453410029411316,0.9544021487236024
1630415989501,0.684872567653656,0.9748353362083436,0.7453410029411316,0.9544021487236024
1630415989560,0.684872567653656,0.9748353362083436,0.7453410029411316,0.9544021487236024
1630415989637,0.684872567653656,0.9748353362083436,0.7453410029411316,0.9544021487236024
1630415989778,0.684872567653656,0.9748353362083436,0.7453410029411316,0.9544021487236024
1630415989857,0.684872567653656,0.9748353362083436,0.7453410029411316,0.9544021487236024
1630415990000,0.684872567653656,0.9748353362083436,0.7453410029411316,0.9544021487236024
1630415990109,0.684872567653656,0.9748353362083436,0.7453410029411316,0.9544021487236024
1630415990202,0.684872567653656,0.9748353362083436,0.7453410029411316,0.9544021487236024
1630415990294,0.684872567653656,0.9748353362083436,0.7453410029411316,0.9544021487236024
1630415990371,0.684872567653656,0.9748353362083436,0.7453410029411316,0.9544021487236024
1630415990462,0.684872567653656,0.9748353362083436,0.7453410029411316,0.9544021487236024
1630415990605,0.684872567653656,0.9748353362083436,0.7453410029411316,0.9544021487236024
1630415990684,0.684872567653656,0.9748353362083436,0.7453410029411316,0.9544021487236024
1630415990811,0.684872567653656,0.9748353362083436,0.7453410029411316,0.9544021487236024
1630415990855,0.684872567653656,0.9748353362083436,0.7453410029411316,0.9544021487236024
1630415991042,0.7672469615936279,0.9748353362083436,0.7453410029411316,0.9544021487236024
1630415991118,0.7250751852989197,0.9748353362083436,0.7453410029411316,0.9544021487236024
1630415991245,0.6892072558403015,0.9748353362083436,0.7453410029411316,0.9544021487236024
1630415991338,0.6607677340507507,0.9748353362083436,0.0077938684262335,0.9544021487236024
1630415991402,0.637913167476654,0.9748353362083436,-0.0228301919996738,0.9544021487236024
1630415991494,0.637913167476654,0.9748353362083436,-0.0330240279436111,0.9544021487236024
1630415991589,0.637913167476654,0.9748353362083436,-0.0267138108611106,0.9544021487236024
1630415991683,0.637913167476654,0.9748353362083436,-0.0110483337193727,0.9544021487236024
1630415991810,0.637913167476654,0.9748353362083436,0.0094163976609706,0.9544021487236024
1630415991917,0.637913167476654,0.9748353362083436,0.0094163976609706,0.9544021487236024
1630415991995,0.637913167476654,0.1056851223111152,0.0094163976609706,0.9544021487236024
1630415992107,0.637913167476654,0.0878932997584343,0.0094163976609706,0.9544021487236024
1630415992218,0.592728853225708,0.069165289402008,0.0094163976609706,0.9544021487236024
1630415992329,0.5383830666542053,0.0558411665260791,0.0094163976609706,0.9544021487236024
1630415992404,0.4876474440097809,0.0540327131748199,0.0094163976609706,0.986334264278412
1630415992495,0.4528960287570953,0.0607257783412933,-0.0251950863748788,0.986334264278412
1630415992604,0.4528960287570953,0.0655689388513565,-0.0342980362474918,0.986334264278412
1630415992698,0.4528960287570953,0.064019426703453,-0.0184677504003047,0.986334264278412
1630415992792,0.4528960287570953,0.0594281628727912,0.0107100699096918,0.986334264278412
1630415992917,0.4528960287570953,0.0577657520771026,0.0466241613030433,0.9497286081314088
1630415993028,0.4528960287570953,0.0612386390566825,0.0466241613030433,0.9163379073143004
1630415993137,0.4528960287570953,0.066832460463047,0.0466241613030433,0.9163379073143004
1630415993198,0.4528960287570953,0.0635134279727935,0.0466241613030433,0.9163379073143004
1630415993337,0.4528960287570953,0.0618749186396598,0.0466241613030433,0.9163379073143004
1630415993509,0.4528960287570953,0.0625621154904365,0.0466241613030433,0.8881465792655945
1630415993556,0.4528960287570953,0.0668938755989074,0.0466241613030433,0.8881465792655945
1630415993650,0.5826989412307739,0.0757022425532341,0.0466241613030433,0.8793961405754089
1630415993752,0.6146292686462402,0.08555418998003,0.0466241613030433,0.8471428751945496
1630415993886,0.6418116092681885,0.0916690081357956,0.0466241613030433,0.7889276146888733
1630415993931,0.6590189337730408,0.0913802534341812,0.2065044492483139,0.7889276146888733
1630415994009,0.6666354537010193,0.0882030725479126,0.1998133361339569,0.7442202568054199
1630415994120,0.6688534617424011,0.0893759205937385,0.1884172707796096,0.766289472579956
1630415994277,0.6910042762756348,0.0969040840864181,0.1750186830759048,0.7773854732513428
1630415994357,0.6827747225761414,0.1064040809869766,0.1591072976589203,0.7808376550674438
1630415994449,0.6713207960128784,0.1129307076334953,0.1409582048654556,0.7873799204826355
1630415994559,0.661895751953125,0.1173206716775894,0.1253185123205185,0.8128122687339783
1630415994668,0.6593821048736572,0.1249300464987754,0.1173222959041595,0.8326118588447571
1630415994731,0.6623859405517578,0.1389168202877044,0.1183319613337516,0.8488810062408447
1630415994904,0.6654638051986694,0.1557664275169372,0.1249622032046318,0.8533017635345459
1630415994982,0.6692887544631958,0.1694636791944503,0.133341759443283,0.8612634539604187
1630415995077,0.6682150363922119,0.1773036420345306,0.1411173641681671,0.8478739261627197
1630415995152,0.6612831950187683,0.1812555789947509,0.1448990702629089,0.835077166557312
1630415995231,0.6460357308387756,0.1861488670110702,0.1430971324443817,0.8244912624359131
1630415995340,0.6223301291465759,0.1940905898809433,0.1331735700368881,0.81605064868927
1630415995483,0.5943872928619385,0.2023429721593856,0.1161963269114494,0.8092064261436462
1630415995544,0.5680156350135803,0.2060738354921341,0.0957831740379333,0.8011370897293091
1630415995668,0.5472985506057739,0.2043408304452896,0.0757764652371406,0.7936158776283264
1630415995745,0.5369752049446106,0.2012360543012619,0.0598295181989669,0.7923556566238403
1630415995837,0.541374146938324,0.2007823586463928,0.0502206236124038,0.8003451824188232
1630415995948,0.5581658482551575,0.2024721503257751,0.0469703152775764,0.8119926452636719
1630415996136,0.5750904083251953,0.2016263306140899,0.0462107956409454,0.8178419470787048
1630415996215,0.5800988078117371,0.1939723789691925,0.0461553670465946,0.8158092498779297
1630415996242,0.5707958936691284,0.1810845583677292,0.0499236695468425,0.814412534236908
1630415996355,0.5556986927986145,0.1706824004650116,0.0609536580741405,0.824902355670929
1630415996496,0.5467216372489929,0.1699885725975036,0.0774348303675651,0.8486372828483582
1630415996548,0.5495279431343079,0.1769643872976303,0.0947251543402671,0.876448929309845
1630415996719,0.5628150701522827,0.1849167793989181,0.1121112927794456,0.8988710045814514
1630415996792,0.5838602781295776,0.1907337456941604,0.1336340904235839,0.9120789170265198
1630415996872,0.6090628504753113,0.1973496377468109,0.1608888059854507,0.9173892736434937
1630415996981,0.6328770518302917,0.2080083787441253,0.1890667676925659,0.918114423751831
1630415997114,0.6498157978057861,0.2213057577610016,0.2112094461917877,0.9170551300048828
1630415997171,0.6573331952095032,0.2338167577981948,0.2239869982004165,0.914219617843628
1630415997299,0.6550509333610535,0.2431310415267944,0.2298767566680908,0.9073827266693116
1630415997378,0.6440558433532715,0.2486768066883087,0.235808253288269,0.8956620693206787
1630415997502,0.6274393796920776,0.2505381405353546,0.2474036365747451,0.8811851143836975
1630415997628,0.6112273931503296,0.2492941915988922,0.2653874456882477,0.8671151399612427
1630415997722,0.6001078486442566,0.247113898396492,0.2837135195732116,0.8541156053543091
1630415997769,0.5941680669784546,0.2448011934757232,0.2939406335353851,0.839409351348877
1630415997879,0.5885087251663208,0.2400486767292022,0.2925290465354919,0.818233072757721
1630415998022,0.5765275359153748,0.2301739603281021,0.2827182710170746,0.7883414626121521
1630415998098,0.5552396774291992,0.2182726562023162,0.2708645462989807,0.7532181143760681
1630415998177,0.5262337923049927,0.2095990478992462,0.2599704265594482,0.7214689254760742
1630415998330,0.4937626719474792,0.2044966965913772,0.2487832456827163,0.7003337740898132
1630415998377,0.4651910364627838,0.1980425864458084,0.236302375793457,0.6894221901893616
1630415998532,0.4491367638111114,0.1877031028270721,0.2248991280794143,0.6837696433067322
1630415998610,0.4478062391281128,0.1777696162462234,0.21774522960186,0.6791415214538574
1630415998721,0.4554298520088196,0.1741231381893158,0.216399073600769,0.6736305356025696
1630415998800,0.4645037651062011,0.1781587451696396,0.2192463278770446,0.6664832830429077
1630415998925,0.4715202748775482,0.1870854794979095,0.2208114117383957,0.6585094332695007
1630415999038,0.4760608971118927,0.1989649534225464,0.2156482338905334,0.6519172787666321
1630415999175,0.4789090752601623,0.212842047214508,0.2016933411359787,0.6472545862197876
1630415999237,0.4854675531387329,0.2250547111034393,0.1833081394433975,0.6408421993255615
1630415999316,0.5022630095481873,0.2319007813930511,0.1674891412258148,0.6286196708679199
1630415999445,0.5298251509666443,0.2335328906774521,0.1573103368282318,0.610909640789032
1630415999552,0.5607069730758667,0.2344339042901992,0.1511672586202621,0.5917162299156189
1630415999599,0.5856183171272278,0.2374846041202545,0.1471499800682068,0.5744147300720215
1630415999726,0.5997370481491089,0.2439584881067276,0.1453023254871368,0.5596806406974792
1630415999838,0.6036893129348755,0.2574389576911926,0.1452343314886093,0.5473857522010803
1630415999897,0.6003285646438599,0.2809080481529236,0.1462999433279037,0.5373764038085938
1630416000054,0.5929367542266846,0.3096675872802734,0.1502220183610916,0.5281510949134827
1630416000133,0.5847594738006592,0.332420289516449,0.162084087729454,0.5185062885284424
1630416000227,0.5772125124931335,0.3415192663669586,0.1839029937982559,0.5105668902397156
1630416000370,0.5703211426734924,0.338164746761322,0.2096776068210601,0.5073208212852478
1630416000414,0.5630803108215332,0.3304111659526825,0.2311542630195617,0.5079245567321777
1630416000539,0.5544232130050659,0.3261021971702575,0.2446144521236419,0.5100963115692139
1630416000664,0.542926013469696,0.3282458186149597,0.2519227862358093,0.5141651034355164
1630416000743,0.5243645310401917,0.3351448774337768,0.2565900981426239,0.5222813487052917
1630416000839,0.4934923648834228,0.3432876467704773,0.2611482143402099,0.5328088998794556
1630416001025,0.4489859342575073,0.3490405976772308,0.2659201323986053,0.5411300659179688
1630416001070,0.3967527151107788,0.3495219051837921,0.2696243822574615,0.5469272136688232
1630416001149,0.3489373028278351,0.3446591198444366,0.2708719968795776,0.5545142889022827
1630416001227,0.3167060017585754,0.3356780111789703,0.2690527141094208,0.5659797787666321
1630416001321,0.2998327910900116,0.3212121129035949,0.2645403146743774,0.5787712931632996
1630416001446,0.2878071367740631,0.2982152998447418,0.2579499781131744,0.5907886028289795
1630416001589,0.2715344727039337,0.2673234939575195,0.2495828717947006,0.6061816215515137
1630416001685,0.2557196319103241,0.2369332462549209,0.2383722066879272,0.6329023838043213
1630416001765,0.2603994309902191,0.217582419514656,0.2220826745033264,0.6708871722221375
1630416001857,0.3001185655593872,0.2148214131593704,0.2017994821071624,0.7088801264762878
1630416001953,0.3651653826236725,0.225603699684143,0.1856036931276321,0.7354500889778137
1630416002031,0.4322158396244049,0.2412931323051452,0.1824792474508285,0.747075080871582
1630416002154,0.4876201748847961,0.2513964772224426,0.192291110754013,0.7504609823226929
1630416002280,0.5376108884811401,0.2509556114673614,0.2053471058607101,0.7628161311149597
1630416002405,0.595329999923706,0.2424201965332031,0.2129518389701843,0.7984974384307861
1630416002452,0.6604257822036743,0.2330869436264038,0.214258387684822,0.8529641032218933
1630416002561,0.7215088605880737,0.2289698719978332,0.2138324379920959,0.907310962677002
1630416002654,0.7707870006561279,0.2308613806962967,0.216440349817276,0.9474884271621704
1630416002812,0.8107365965843201,0.2376593500375747,0.2252129018306732,0.9737563133239746
1630416002923,0.846247136592865,0.2490008026361465,0.2413002997636795,0.9947810769081116
1630416002952,0.8799518942832947,0.2641643285751343,0.2642268240451813,1.0166866779327393
1630416003078,0.9113321900367736,0.283345490694046,0.2911839783191681,1.0378128290176392
1630416003155,0.9390233755111694,0.3073166310787201,0.3179851472377777,1.0521328449249268
1630416003236,0.9610472321510316,0.3362070620059967,0.3435903489589691,1.056443452835083
1630416003405,0.974873185157776,0.3676692843437195,0.3697301149368286,1.0536682605743408
1630416003515,0.980249285697937,0.3980128765106201,0.3950463831424713,1.0502551794052124
1630416003594,0.9797753095626832,0.4239771962165832,0.4145460724830627,1.050180196762085
1630416003704,0.9762015342712402,0.4448316991329193,0.4253498613834381,1.0512162446975708
1630416003781,0.9687823057174684,0.4614574611186981,0.432354062795639,1.0476226806640625
1630416003874,0.9544079303741456,0.4750990569591522,0.4427727162837982,1.0353323221206665
1630416003985,0.932984471321106,0.4862257838249206,0.4577869176864624,1.0144699811935425
1630416004109,0.9080411195755004,0.4942780435085296,0.4716385304927826,0.9896198511123656
1630416004204,0.883867621421814,0.4999392330646515,0.4797648191452026,0.9660288095474244
1630416004282,0.861433207988739,0.5044028759002686,0.4823760986328125,0.9456949234008788
1630416004392,0.8400917053222656,0.5072373151779175,0.4827928841114044,0.9261736869812012
1630416004487,0.8206658959388733,0.50668865442276,0.483153760433197,0.905019760131836
1630416004580,0.8062466979026794,0.5005929470062256,0.4832281470298767,0.8825123310089111
1630416004724,0.7965105772018433,0.4878435134887695,0.4817167818546295,0.8605268001556396
1630416004817,0.7864540815353394,0.467225432395935,0.4763875603675842,0.8401486873626709
1630416004927,0.7711961269378662,0.4366471469402313,0.4645606875419616,0.8220555782318115
1630416005005,0.75035560131073,0.3948758542537689,0.4455388188362121,0.8073467016220093
1630416005117,0.7287523150444031,0.3462537825107574,0.4225610792636871,0.7977206110954285
1630416005224,0.7124593257904053,0.3016470968723297,0.4008039832115173,0.7949502468109131
1630416005302,0.7027844190597534,0.2710099220275879,0.3812069594860077,0.7959061861038208
1630416005411,0.6976132988929749,0.2538527548313141,0.360982596874237,0.7941078543663025
1630416005489,0.698149561882019,0.2426181882619857,0.3398658037185669,0.788429856300354
1630416005664,0.7103832364082336,0.2336815297603607,0.3232700526714325,0.784870982170105
1630416005709,0.7333951592445374,0.2265576720237732,0.3166149258613586,0.789867103099823
1630416005821,0.7560172080993652,0.2173702716827392,0.3126513361930847,0.7997528910636902
1630416005960,0.7680801749229431,0.2035604566335678,0.3045179843902588,0.804553747177124
1630416006092,0.7658735513687134,0.1868496835231781,0.2872363924980163,0.7989600300788879
1630416006133,0.7509608864784241,0.1745043992996215,0.2605436444282532,0.7873696684837341
1630416006245,0.726805567741394,0.1711066961288452,0.2370475828647613,0.778962254524231
1630416006287,0.6990747451782227,0.1769081503152847,0.2194952666759491,0.7804667949676514
1630416006534,0.6764878630638123,0.190334290266037,0.2149262577295303,0.7898655533790588
1630416006553,0.6641664505004883,0.2147874534130096,0.2258010655641555,0.7993777990341187
1630416006662,0.6598746180534363,0.241383746266365,0.2483407109975814,0.8085920810699463
1630416006725,0.6591886878013611,0.2672280073165893,0.2748680412769317,0.8138373494148254
1630416006789,0.6604576706886292,0.2886107563972473,0.2967793047428131,0.8144339919090271
1630416006932,0.6623650193214417,0.308289885520935,0.308730274438858,0.8112948536872864
1630416007024,0.6587919592857361,0.332242488861084,0.3109159469604492,0.8047624826431274
1630416007153,0.6404120922088623,0.360638678073883,0.3111668229103088,0.7928407788276672
1630416007265,0.6045690178871155,0.3875020444393158,0.3175938427448272,0.7606043815612793
1630416007369,0.560737133026123,0.4093098640441894,0.3367122411727905,0.7237348556518555
1630416007494,0.5248513221740723,0.4089159369468689,0.3601581752300262,0.6979485750198364
1630416007554,0.506885826587677,0.4051486253738403,0.3783677816390991,0.6941055655479431
1630416007645,0.5033485889434814,0.3979157507419586,0.3859271109104156,0.7045711278915405
1630416007772,0.5078564882278442,0.3876646757125854,0.3872429132461548,0.7148399353027344
1630416007897,0.5171260237693787,0.3761535286903381,0.3807336986064911,0.7147167325019836
1630416007944,0.527901828289032,0.365405797958374,0.3684572279453277,0.7036156058311462
1630416008022,0.5359750986099243,0.3626918196678161,0.3526784181594848,0.6868432760238647
1630416008114,0.5396896600723267,0.3588233888149261,0.3355487585067749,0.6742146015167236
1630416008304,0.5418445467948914,0.3514188528060913,0.3198522329330444,0.6590889096260071
1630416008366,0.5474374890327454,0.339639812707901,0.3090151250362396,0.6444246172904968
1630416008509,0.5569520592689514,0.3228717744350433,0.3049094676971435,0.6329942345619202
1630416008599,0.565669059753418,0.3006375730037689,0.3052175045013428,0.6299557089805603
1630416008663,0.5749179124832153,0.2743033766746521,0.3038209974765777,0.6432028412818909
1630416008838,0.5928107500076294,0.2493984401226043,0.2948834002017975,0.6748161911964417
1630416008885,0.6227021813392639,0.2310544550418853,0.2754034101963043,0.7194258570671082
1630416009026,0.6568688750267029,0.2184193283319473,0.2460944056510925,0.7601827383041382
1630416009088,0.6840343475341797,0.206762745976448,0.2119125723838806,0.7891153693199158
1630416009182,0.6987677812576294,0.1950198411941528,0.1835650503635406,0.8081920146942139
1630416009244,0.702904462814331,0.1864870637655258,0.1723634153604507,0.8214534521102905
1630416009356,0.7014139294624329,0.1829377263784408,0.182918831706047,0.8303444385528564
1630416009482,0.6992132067680359,0.1810324639081955,0.2108839303255081,0.8359440565109253
1630416009622,0.699716329574585,0.1760521978139877,0.2485441118478775,0.8406749963760376
1630416009685,0.7028226852416992,0.1665548086166381,0.2880476415157318,0.8472973704338074
1630416009793,0.7051528096199036,0.1561950445175171,0.3217154443264007,0.8555453419685364
1630416009903,0.7028042674064636,0.1520495116710662,0.3442148566246032,0.874285101890564
1630416009997,0.696155309677124,0.158641904592514,0.3550002574920654,0.8941959738731384
1630416010169,0.6905421018600464,0.1736249029636383,0.3583212196826935,0.9121147394180298
1630416010278,0.689956784248352,0.1903603076934814,0.3582374453544616,0.9213022589683532
1630416010343,0.6928054094314575,0.2019769251346588,0.3555477857589721,0.894749104976654
1630416010390,0.6959133148193359,0.2069423198699951,0.3500361442565918,0.8569422960281372
1630416010484,0.698900580406189,0.2098841369152069,0.3437763452529907,0.8218933939933777
1630416010628,0.7029306292533875,0.2171491086483001,0.3391867876052856,0.8028767108917236
1630416010737,0.7111316323280334,0.2310310006141662,0.3364165127277374,0.8002696633338928
1630416010815,0.7259497046470642,0.2497411966323852,0.3329203128814697,0.8043884634971619
1630416010910,0.7450048327445984,0.2708568871021271,0.3254464566707611,0.8099716901779175
1630416010988,0.7609691619873047,0.2934694290161133,0.3133670091629028,0.8147433400154114
1630416011129,0.7675738334655762,0.3164255917072296,0.2985994219779968,0.8160876631736755
1630416011176,0.7647578120231628,0.3370803892612457,0.2845522761344909,0.8115744590759277
1630416011316,0.7572618722915649,0.3536137044429779,0.2752041220664978,0.8038063645362854
1630416011410,0.7496874928474426,0.3649193346500397,0.2732074558734894,0.7878124117851257
1630416011488,0.7430474162101746,0.3714017271995544,0.2782200872898102,0.7766450643539429
1630416011645,0.7363288402557373,0.374985933303833,0.2862205505371094,0.7711606025695801
1630416011738,0.727507472038269,0.3791604936122894,0.2923048734664917,0.7693880200386047
1630416011848,0.7156333327293396,0.3862980306148529,0.2941415905952453,0.7763983011245728
1630416011973,0.7016206979751587,0.3957442343235016,0.2930751740932464,0.7758780717849731
1630416012004,0.6876332759857178,0.4042859673500061,0.2909916937351227,0.76264888048172
1630416012129,0.6776151061058044,0.4092708230018616,0.2910701334476471,0.7352710962295532
1630416012285,0.6715773940086365,0.4096056520938873,0.2968417704105377,0.69776850938797
1630416012426,0.6641199588775635,0.4049511849880218,0.308488667011261,0.6586838960647583
1630416012442,0.6519176959991455,0.3955033719539642,0.3211781680583954,0.6254662871360779
1630416012557,0.6382770538330078,0.3815245032310486,0.3276229798793793,0.6025250554084778
1630416012682,0.6290582418441772,0.363578051328659,0.3227299749851227,0.5919780731201172
1630416012744,0.6255666017532349,0.342522919178009,0.3072489798069,0.5951418280601501
1630416012807,0.6235589981079102,0.3192395865917206,0.2856840193271637,0.6088264584541321
1630416012947,0.6207544803619385,0.2957913875579834,0.262832760810852,0.6263407468795776
1630416013088,0.6187262535095215,0.2741397321224212,0.2426353096961975,0.6388311386108398
1630416013166,0.6201428771018982,0.2545922696590423,0.2287100404500961,0.6417772769927979
1630416013228,0.6258323192596436,0.2344946712255478,0.2240325361490249,0.6378807425498962
1630416013323,0.6326997876167297,0.2115901708602905,0.2272852212190628,0.6353583335876465
1630416013525,0.6347988247871399,0.1877171546220779,0.2325461059808731,0.6404813528060913
1630416013610,0.6278442144393921,0.1663617491722107,0.2356294989585876,0.6525321006774902
1630416013625,0.611636221408844,0.1497518420219421,0.2345967590808868,0.6654431819915771
1630416013766,0.592391848564148,0.1359802931547165,0.2283460050821304,0.6738772392272949
1630416013922,0.5813667178153992,0.1213445588946342,0.2186536192893982,0.6781553030014038
1630416013969,0.5846956968307495,0.1045770868659019,0.2100581675767898,0.6826198697090149
1630416014032,0.5976696014404297,0.0914386957883834,0.2067766040563583,0.6891171932220459
1630416014157,0.6099116206169128,0.0918816700577735,0.2077753245830536,0.6939628720283508
1630416014219,0.6157261729240417,0.1138071417808532,0.2081145793199539,0.6906168460845947
1630416014360,0.618666410446167,0.1550659239292144,0.2052016258239746,0.6769909858703613
1630416014441,0.6237591505050659,0.2031344473361969,0.2013120800256729,0.6560187935829163
1630416014629,0.6327429413795471,0.2451968342065811,0.1984723657369613,0.6343426704406738
1630416014660,0.642776370048523,0.274638682603836,0.1953462213277816,0.6188903450965881
1630416014738,0.6478851437568665,0.2916415631771087,0.1877291053533554,0.6130256056785583
1630416014847,0.6431645154953003,0.3004941046237945,0.1749551147222519,0.6157616376876831
1630416015035,0.6290444135665894,0.3047686815261841,0.1620007306337356,0.6219304800033569
1630416015066,0.6115546226501465,0.305934876203537,0.1543472111225128,0.6261172890663147
1630416015144,0.5970639586448669,0.3042427599430084,0.1534492969512939,0.626304030418396
1630416015300,0.5843731164932251,0.3015990257263183,0.1544229537248611,0.6232091784477234
1630416015332,0.5674365758895874,0.3011302351951599,0.1514424979686737,0.6171628832817078
1630416015472,0.5433859825134277,0.3041267991065979,0.1449185013771057,0.6059972047805786
1630416015582,0.5188368558883667,0.3084187805652618,0.1386649459600448,0.5901380181312561
1630416015738,0.5074728727340698,0.3101333081722259,0.1361789256334304,0.5747576355934143
1630416015832,0.5181242227554321,0.3048374652862549,0.1384580135345459,0.5683807134628296
1630416015863,0.5435853004455566,0.2894148528575897,0.1438819020986557,0.5759795904159546
1630416015972,0.5673027634620667,0.2640894651412964,0.1488153487443924,0.5958755016326904
1630416016066,0.5767765641212463,0.2336383610963821,0.1503725796937942,0.6207871437072754
1630416016222,0.5694167613983154,0.2047857195138931,0.1491246223449707,0.6423535943031311
1630416016285,0.5537817478179932,0.1812879890203476,0.1496315896511078,0.6542981266975403
1630416016378,0.5428046584129333,0.1626814603805542,0.1556649655103683,0.6537225842475891
1630416016503,0.5424332618713379,0.1487729549407959,0.1649776101112365,0.6427501440048218
1630416016581,0.5479267835617065,0.1420332789421081,0.1713939905166626,0.6281312704086304
1630416016753,0.5514535307884216,0.1445625573396682,0.1723712980747223,0.6179124116897583
1630416016785,0.5505952835083008,0.1526280492544174,0.1725320816040039,0.6160511374473572
1630416016925,0.5442096590995789,0.1593962907791137,0.1778644025325775,0.6248802542686462
1630416016988,0.5337493419647217,0.161288633942604,0.1869083195924759,0.6364250779151917
1630416017081,0.5217400193214417,0.1591939628124237,0.194638580083847,0.6498265862464905
1630416017222,0.5108449459075928,0.1573385298252105,0.2040664106607437,0.6639256477355957
1630416017238,0.4902500808238983,0.1609736382961273,0.2233876287937164,0.6755650043487549
1630416017378,0.4577513039112091,0.1719811111688614,0.2517323791980743,0.6799758672714233
1630416017523,0.4181511104106903,0.1869530230760574,0.2772629559040069,0.6729696393013
1630416017585,0.3847291469573974,0.2003344446420669,0.2901162207126617,0.6536162495613098
1630416017726,0.3692013323307037,0.2103241086006164,0.2906122207641601,0.6236945390701294
1630416017804,0.3657844662666321,0.2217762321233749,0.286012589931488,0.5859224796295166
1630416017913,0.357667475938797,0.2409362494945526,0.2825194895267486,0.5484083294868469
1630416018007,0.3355413377285003,0.2669320702552795,0.2814965546131134,0.543537437915802
1630416018116,0.3497821986675262,0.2915804386138916,0.281978964805603,0.5787914395332336
1630416018194,0.3759498000144958,0.3065869212150574,0.2816893756389618,0.6315340995788574
1630416018351,0.3930189311504364,0.3110374808311462,0.2770243883132934,0.6581222414970398
1630416018382,0.4272969961166382,0.3106412887573242,0.2648700475692749,0.6581222414970398
1630416018491,0.4272969961166382,0.3105975985527038,0.2456844896078109,0.6581222414970398
1630416018635,0.4272969961166382,0.3107713162899017,0.223640963435173,0.6581222414970398
1630416018729,0.6530460119247437,0.3075144290924072,0.1990190893411636,0.6581222414970398
1630416018807,0.6835914254188538,0.2988628149032593,0.1657533347606659,0.6581222414970398
1630416018916,0.6894658207893372,0.2863560616970062,0.120629571378231,0.6581222414970398
1630416019026,0.6772129535675049,0.2743563055992126,0.0734195411205291,0.6581222414970398
1630416019197,0.6555705070495605,0.2668521106243133,0.0428903326392173,0.6248393058776855
1630416019244,0.6555705070495605,0.2644563615322113,0.0381194725632667,0.5976679921150208
1630416019338,0.6555705070495605,0.2615565955638885,0.0500488318502903,0.581059455871582
1630416019463,0.6555705070495605,0.2488966435194015,0.065732903778553,0.5833868384361267
1630416019541,0.6555705070495605,0.2210234999656677,0.0787490233778953,0.5765336751937866
1630416019619,0.6719399094581604,0.1824718415737152,0.0874415040016174,0.5426831841468811
1630416019697,0.6946130990982056,0.1467823237180709,0.0910592451691627,0.5426831841468811
1630416019838,0.6946130990982056,0.1247836053371429,0.0890967696905136,0.5426831841468811
1630416019932,0.6946130990982056,0.1154089123010635,0.0835905596613884,0.5426831841468811
1630416020057,0.6946130990982056,0.1138126924633979,0.0774441137909889,0.5426831841468811
1630416020135,0.6883412003517151,0.1198678985238075,0.0717126652598381,0.5426831841468811
1630416020213,0.6580804586410522,0.1323632001876831,0.0655041113495826,0.5426831841468811
1630416020322,0.6580804586410522,0.1433092504739761,0.0581863261759281,0.5426831841468811
1630416020432,0.6580804586410522,0.1453770399093628,0.0524959601461887,0.518093466758728
1630416020578,0.6580804586410522,0.1392538696527481,0.052367128431797,0.5388625860214233
1630416020688,0.6580804586410522,0.1324730217456817,0.0611202232539653,0.5453431010246277
1630416020750,0.6580804586410522,0.1309962272644043,0.074623204767704,0.5702500343322754
1630416020860,0.6580804586410522,0.1349719017744064,0.084885835647583,0.5702500343322754
1630416020969,0.6580804586410522,0.1416842192411422,0.0857498347759246,0.5702500343322754
1630416021094,0.6580804586410522,0.1500498205423355,0.080572560429573,0.5702500343322754
1630416021156,0.6580804586410522,0.1596009135246276,0.0782656595110893,0.5702500343322754
1630416021250,0.6580804586410522,0.167985200881958,0.0856570154428482,0.5702500343322754
1630416021359,0.6580804586410522,0.1720513999462127,0.1024558991193771,0.5702500343322754
1630416021422,0.6580804586410522,0.1706013679504394,0.1224694103002548,0.5702500343322754
1630416021550,0.6580804586410522,0.1656606197357177,0.1425991356372833,0.5702500343322754
1630416021675,0.6580804586410522,0.1618517935276031,0.1629742383956909,0.5702500343322754
1630416021769,0.6580804586410522,0.1630081832408905,0.182347223162651,0.5702500343322754
1630416021925,0.6580804586410522,0.1685783863067627,0.1995281726121902,0.5702500343322754
1630416021956,0.6580804586410522,0.1734554767608642,0.2126168757677078,0.5702500343322754
1630416022081,0.6580804586410522,0.1727049797773361,0.2193245887756347,0.5702500343322754
1630416022144,0.6580804586410522,0.1661637276411056,0.2171369642019271,0.5702500343322754
1630416022304,0.6580804586410522,0.1592224389314651,0.20713672041893,0.5702500343322754
1630416022382,0.5234431028366089,0.1600146144628524,0.19267338514328,0.5702500343322754
1630416022494,0.5314918756484985,0.1761430501937866,0.1780900508165359,0.5702500343322754
1630416022650,0.549214780330658,0.208228200674057,0.1648043096065521,0.5702500343322754
1630416022697,0.5905154943466187,0.2487136870622635,0.1538152247667312,0.5702500343322754
1630416022759,0.6451630592346191,0.287241131067276,0.1492360830307006,0.5702500343322754
1630416022900,0.6902248859405518,0.3177627623081207,0.1555306613445282,0.5702500343322754
1630416023025,0.7105527520179749,0.3392890989780426,0.1711904108524322,0.5702500343322754
1630416023119,0.7086204886436462,0.3518238663673401,0.1876865476369857,0.5702500343322754
1630416023181,0.693860650062561,0.3538509607315063,0.2002248167991638,0.5702500343322754
1630416023322,0.6769304275512695,0.3466139733791351,0.2127025425434112,0.5702500343322754
1630416023400,0.6769304275512695,0.3363282084465027,0.2282990366220474,0.5702500343322754
1630416023494,0.6769304275512695,0.3394629955291748,0.246400237083435,0.5702500343322754
1630416023587,0.6922549605369568,0.3507640659809112,0.251084566116333,0.5702500343322754
1630416023743,0.7055990695953369,0.36911341547966,0.2585774958133697,0.5702500343322754
1630416023775,0.7174094915390015,0.3888855874538421,0.2687719464302063,0.5702500343322754
1630416023884,0.7308989763259888,0.4041774570941925,0.2819961607456207,0.5702500343322754
1630416024025,0.7480248808860779,0.4091086387634277,0.2990483045578003,0.5702500343322754
1630416024118,0.7627143263816833,0.3980426490306854,0.3205572962760925,0.5702500343322754
1630416024212,0.7598966360092163,0.3671709299087524,0.3443309366703033,0.5702500343322754
1630416024321,0.7233699560165405,0.3184792697429657,0.3642134666442871,0.5702500343322754
1630416024446,0.6454408168792725,0.2609941661357879,0.3743037283420563,0.5702500343322754
1630416024525,0.6454408168792725,0.2070769816637039,0.3747427463531494,0.5702500343322754
1630416024575,0.6454408168792725,0.2070769816637039,0.3753178417682647,0.5702500343322754
1630416024747,0.6454408168792725,0.2070769816637039,0.3753178417682647,0.5702500343322754
1630416024841,0.6454408168792725,0.2070769816637039,0.3753178417682647,0.5702500343322754
1630416024919,0.6454408168792725,0.2070769816637039,0.3753178417682647,0.5702500343322754
1630416025028,0.6454408168792725,0.2070769816637039,0.3753178417682647,0.5702500343322754
1630416025122,0.6454408168792725,0.2070769816637039,0.3753178417682647,0.5702500343322754
1630416025200,0.6454408168792725,0.2070769816637039,0.3753178417682647,0.5702500343322754
1630416025325,0.6454408168792725,0.2070769816637039,0.3753178417682647,0.5702500343322754
1630416025450,0.6454408168792725,0.2070769816637039,0.3753178417682647,0.5702500343322754
1630416025530,0.6454408168792725,0.2070769816637039,0.3753178417682647,0.5702500343322754
1630416025640,0.6454408168792725,0.2070769816637039,0.3753178417682647,0.5702500343322754
1630416025733,0.6454408168792725,0.2070769816637039,0.3753178417682647,0.5702500343322754
1630416025780,0.6454408168792725,0.2070769816637039,0.3753178417682647,0.5702500343322754
1630416025952,0.6454408168792725,0.2070769816637039,0.3753178417682647,0.5702500343322754
1630416026046,0.6454408168792725,0.2070769816637039,0.3753178417682647,0.5702500343322754
1630416026155,0.6454408168792725,0.2070769816637039,0.0838952362537384,0.5702500343322754
1630416026218,0.6454408168792725,0.2070769816637039,0.0830806344747543,0.5702500343322754
1630416026343,0.6454408168792725,0.2070769816637039,0.0829928740859031,0.5702500343322754
1630416026452,0.6454408168792725,0.086989551782608,0.0816425755620002,0.5702500343322754
1630416026549,0.6454408168792725,0.0976252034306526,0.0773726999759674,0.5702500343322754
1630416026689,0.6454408168792725,0.1144075393676757,0.0731563344597816,0.5702500343322754
1630416026767,0.6454408168792725,0.1282525360584259,0.0736530348658561,0.5702500343322754
1630416026877,0.6454408168792725,0.1335792541503906,0.0801546424627304,0.5702500343322754
1630416026970,0.426276296377182,0.1318259835243225,0.088726706802845,0.7285510897636414
1630416027049,0.4659001529216766,0.1266917735338211,0.0940411761403083,0.738753616809845
1630416027205,0.4968756437301636,0.1208792403340339,0.093231588602066,0.742249071598053
1630416027252,0.5178684592247009,0.1150143891572952,0.0873576998710632,0.7355155944824219
1630416027348,0.5327569246292114,0.1097676083445549,0.0820662528276443,0.7221401333808899
1630416027442,0.5459865927696228,0.1063466072082519,0.0730606317520141,0.7127365469932556
1630416027551,0.5591771006584167,0.1060893386602401,0.0661316961050033,0.717315137386322
1630416027645,0.5591771006584167,0.1106742247939109,0.065030887722969,0.7349251508712769
1630416027785,0.5591771006584167,0.1160535514354705,0.068324439227581,0.7567744851112366
1630416027895,0.5591771006584167,0.121534489095211,0.0719625353813171,0.7749768495559692
1630416028020,0.5591771006584167,0.1260084956884384,0.0743321254849433,0.7853565812110901
1630416028098,0.5591771006584167,0.1276192963123321,0.076620377600193,0.7853565812110901
1630416028160,0.5747354626655579,0.1254708766937255,0.0806873738765716,0.7943264245986938
1630416028285,0.5943553447723389,0.1218131631612777,0.087373599410057,0.7995220422744751
1630416028395,0.6148202419281006,0.1218048632144928,0.0956198871135711,0.8030622601509094
1630416028488,0.6294919848442078,0.1286570578813552,0.1035612896084785,0.8061496615409851
1630416028567,0.6359192728996277,0.1403975784778595,0.1093803271651268,0.809237539768219
1630416028645,0.6385246515274048,0.1527989655733108,0.1127432435750961,0.8150927424430847
1630416028785,0.6385246515274048,0.164180502295494,0.1154059842228889,0.8300619721412659
1630416028863,0.6385246515274048,0.1753324568271637,0.1199264377355575,0.8574656844139099
1630416029004,0.6385246515274048,0.1866219490766525,0.1260492801666259,0.891603946685791
1630416029113,0.6385246515274048,0.1961493194103241,0.1302209347486496,0.8754187226295471
1630416029176,0.6385246515274048,0.2021021842956543,0.1287413090467453,0.8373532295227051
1630416029316,0.6385246515274048,0.2052032649517059,0.1222515180706977,0.7763441205024719
1630416029410,0.5519981980323792,0.2078452706336975,0.1148426681756973,0.6939560770988464
1630416029488,0.5668031573295593,0.2104694992303848,0.1091101020574569,0.5965739488601685
1630416029629,0.5771241784095764,0.2110793590545654,0.1044027879834175,0.5754209756851196
1630416029738,0.5830506682395935,0.2074294686317443,0.0979122668504715,0.5677943825721741
1630416029816,0.582480251789093,0.1990908980369568,0.0869765132665634,0.5677943825721741
1630416029879,0.5744734406471252,0.1868164986371994,0.0713966935873031,0.5677943825721741
1630416030004,0.5635606646537781,0.1714327484369278,0.0556164607405662,0.5677943825721741
1630416030097,0.5560990571975708,0.1543320417404174,0.0481113977730274,0.5677943825721741
1630416030222,0.5566473007202148,0.1367699354887008,0.0548280142247676,0.5954535603523254
1630416030316,0.5611757636070251,0.1192905306816101,0.0722717344760894,0.6182194948196411
1630416030425,0.5640650987625122,0.1019081249833107,0.0900174304842948,0.6361150145530701
1630416030520,0.5640650987625122,0.0858016163110733,0.1000547036528587,0.6361150145530701
1630416030664,0.5690034031867981,0.072281889617443,0.1009593680500984,0.6365982890129089
1630416030758,0.5724446177482605,0.061462502926588,0.0967509821057319,0.6352258324623108
1630416030851,0.5894434452056885,0.0532304272055625,0.0933307334780693,0.628006100654602
1630416030914,0.6090722680091858,0.0470730736851692,0.0966443791985511,0.621741533279419
1630416031008,0.6242668628692627,0.0432941727340221,0.108469620347023,0.6306688189506531
1630416031148,0.6315227746963501,0.0443127006292343,0.1242566034197807,0.6560778021812439
1630416031226,0.6351633071899414,0.0572442673146724,0.136822372674942,0.6893298625946045
1630416031320,0.6409828066825867,0.08745888620615,0.141774907708168,0.7108392715454102
1630416031414,0.6498443484306335,0.1304858773946762,0.1390798985958099,0.7295811772346497
1630416031570,0.657011866569519,0.1747699379920959,0.1303878277540207,0.7429372668266296
1630416031679,0.6572369337081909,0.2116145342588424,0.1168299987912178,0.7490884065628052
1630416031757,0.6481902003288269,0.2397872358560562,0.1021067723631858,0.7482565641403198
1630416031836,0.6326073408126831,0.2609248459339142,0.0914423614740371,0.7421556711196899
1630416031914,0.6149063110351562,0.2762537896633148,0.0878347977995872,0.7379236221313477
1630416032054,0.6149063110351562,0.2866916358470917,0.0901012644171714,0.7443780899047852
1630416032210,0.6149063110351562,0.2936758399009704,0.0942184925079345,0.7443780899047852
1630416032257,0.6149063110351562,0.2984949648380279,0.0975106135010719,0.7443780899047852
1630416032367,0.6012328267097473,0.3009514808654785,0.0976040139794349,0.7561600208282471
1630416032460,0.5764643549919128,0.3002361357212066,0.0922547504305839,0.7728794813156128
1630416032493,0.5480648875236511,0.2965874969959259,0.0830367505550384,0.7888685464859009
1630416032650,0.5237436890602112,0.2915765941143036,0.0755183473229408,0.7987009882926941
1630416032728,0.5002239346504211,0.2843117117881775,0.0739521980285644,0.7968645095825195
1630416032868,0.4688409864902496,0.2721012234687805,0.0776975005865097,0.7893403768539429
1630416032978,0.42757648229599,0.2535658478736877,0.0833374261856079,0.7765780687332153
1630416033056,0.3833122551441192,0.2308987528085708,0.0885679200291633,0.7614244818687439
1630416033118,0.3833122551441192,0.2080784291028976,0.0925379917025566,0.7506639361381531
1630416033259,0.3833122551441192,0.1875642985105514,0.0933041498064994,0.7529651522636414
1630416033415,0.3833122551441192,0.1716148406267166,0.0886451229453086,0.7529651522636414
1630416033493,0.3833122551441192,0.1621043086051941,0.0791175961494445,0.7529651522636414
1630416033524,0.3833122551441192,0.156824380159378,0.0694286748766899,0.7529651522636414
1630416033681,0.3833122551441192,0.1512339562177658,0.0661341249942779,0.7529651522636414
1630416033728,0.4838347136974334,0.1437676399946212,0.070806860923767,0.7529651522636414
1630416033868,0.4469085335731506,0.1371434777975082,0.079657606780529,0.7529651522636414
1630416033977,0.4176402390003204,0.1342576295137405,0.0861248821020126,0.7529651522636414
1630416034102,0.3944021165370941,0.1364542543888092,0.0847167819738388,0.7529651522636414
1630416034118,0.3944021165370941,0.142539769411087,0.0741773471236229,0.7529651522636414
1630416034259,0.3944021165370941,0.150288850069046,0.058743055909872,0.7529651522636414
1630416034337,0.3944021165370941,0.1571266949176788,0.0454278476536273,0.7529651522636414
1630416034477,0.3944021165370941,0.1623144447803497,0.0393441617488861,0.7529651522636414
1630416034587,0.3944021165370941,0.1682495772838592,0.0402400828897953,0.7529651522636414
1630416034680,0.3944021165370941,0.178609237074852,0.0449025407433509,0.7529651522636414
1630416034774,0.3944021165370941,0.1929972469806671,0.0486574992537498,0.7529651522636414
1630416034837,0.3944021165370941,0.206522062420845,0.0479229725897312,0.7529651522636414
1630416034962,0.3594387173652649,0.2141891568899154,0.0419995039701461,0.7529651522636414
1630416035133,0.3121812641620636,0.2149044871330261,0.0319403335452079,0.7529651522636414
1630416035276,0.2842034697532654,0.2123331874608993,0.0207115821540355,0.7529651522636414
1630416035325,0.3150334358215332,0.2112742960453033,0.012992980889976,0.7529651522636414
1630416035372,0.37173593044281,0.2130412310361862,0.0135744474828243,0.7529651522636414
1630416035481,0.420049637556076,0.215455561876297,0.0237637776881456,0.7693540453910828
1630416035575,0.4535850882530212,0.2142853885889053,0.0387074947357177,0.7373147010803223
1630416035731,0.4428334534168243,0.2069103568792343,0.0515968464314937,0.7017180919647217
1630416035840,0.4322297275066376,0.1949432045221328,0.0584845840930938,0.6651909351348877
1630416035934,0.4237518310546875,0.1820439547300338,0.0594949983060359,0.6325596570968628
1630416036012,0.4224218726158142,0.1700672656297683,0.0573760457336902,0.6120463609695435
1630416036122,0.4224218726158142,0.1574476361274719,0.0613738670945167,0.6083138585090637
1630416036200,0.4224218726158142,0.1421210169792175,0.0840838029980659,0.6083138585090637
1630416036309,0.4224218726158142,0.1254549771547317,0.1283556967973709,0.6083138585090637
1630416036387,0.4224218726158142,0.1129846423864364,0.1809481680393219,0.6083138585090637
1630416036512,0.4549310803413391,0.1115317791700363,0.225221961736679,0.6083138585090637
1630416036606,0.4870396256446838,0.1265303641557693,0.2542959749698639,0.6083138585090637
1630416036684,0.5291979908943176,0.1557104289531707,0.2710608839988708,0.5836378931999207
1630416036778,0.5583842396736145,0.1892904937267303,0.2807905673980713,0.5435569286346436
1630416036918,0.5742484331130981,0.2190495133399963,0.2852357029914856,0.4963209927082062
1630416037028,0.5810121893882751,0.2439565062522888,0.2842324078083038,0.4538642466068268
1630416037121,0.5837380886077881,0.2673644423484802,0.2811631560325622,0.4715391099452972
1630416037215,0.5875910520553589,0.2901520133018493,0.2824171781539917,0.4993369281291961
1630416037309,0.5971356630325317,0.308612197637558,0.2918598055839538,0.5422101020812988
1630416037387,0.6134406328201294,0.3188870847225189,0.3063499331474304,0.591213047504425
1630416037580,0.6297609210014343,0.3209224343299866,0.3188111782073974,0.6210520267486572
1630416037658,0.6285617351531982,0.318732351064682,0.3211754560470581,0.6160194873809814
1630416037751,0.6238898634910583,0.3180812895298004,0.306958794593811,0.5999721884727478
1630416037798,0.6181140542030334,0.3246452510356903,0.2764624953269958,0.5942829251289368
1630416037892,0.6138924360275269,0.3391880095005035,0.2413079291582107,0.6004041433334351
1630416038033,0.6064083576202393,0.3560798466205597,0.2190751433372497,0.606952965259552
1630416038126,0.5936423540115356,0.3662196695804596,0.2170581817626953,0.6056591868400574
1630416038204,0.5729280114173889,0.3641590178012848,0.2252337634563446,0.6056591868400574
1630416038347,0.5580607652664185,0.3509964346885681,0.23036889731884,0.6056591868400574
1630416038441,0.5476676225662231,0.3318705558776855,0.2297011464834213,0.6056591868400574
1630416038582,0.5455340147018433,0.3224744796752929,0.2332098186016082,0.6056591868400574
1630416038675,0.5514529943466187,0.3130085170269012,0.2383749932050705,0.6006303429603577
1630416038769,0.5606185793876648,0.30418860912323,0.2423680871725082,0.5997761487960815
1630416038879,0.5657128691673279,0.2995775938034057,0.2416519224643707,0.5973533987998962
1630416038925,0.5616733431816101,0.304179310798645,0.2373156100511551,0.589634358882904
1630416039051,0.5502045154571533,0.3200907409191131,0.2363466173410415,0.5842580199241638
1630416039160,0.5383697152137756,0.3441547453403473,0.2470860183238983,0.5928914546966553
1630416039269,0.5331607460975647,0.3687633574008941,0.272301584482193,0.6154356598854065
1630416039363,0.5326821804046631,0.383055567741394,0.3035235702991485,0.6154356598854065
1630416039441,0.5326821804046631,0.3770345747470855,0.3246424198150635,0.6154356598854065
1630416039568,0.5326821804046631,0.3450599312782287,0.321570336818695,0.6154356598854065
1630416039631,0.5326821804046631,0.3450599312782287,0.321570336818695,0.6154356598854065
1630416039693,0.5326821804046631,0.3450599312782287,0.321570336818695,0.6154356598854065
1630416039896,0.5326821804046631,0.3450599312782287,0.321570336818695,0.6154356598854065
1630416039990,0.5326821804046631,0.3450599312782287,0.321570336818695,0.6154356598854065
1630416040068,0.5326821804046631,0.3450599312782287,0.321570336818695,0.6154356598854065
1630416040162,0.5326821804046631,0.3450599312782287,0.321570336818695,0.6154356598854065
1630416040240,0.5326821804046631,0.3450599312782287,0.321570336818695,0.6154356598854065
1630416040349,0.5326821804046631,0.3450599312782287,0.321570336818695,0.6154356598854065
1630416040474,0.5326821804046631,0.3450599312782287,0.321570336818695,0.6154356598854065
1630416040571,0.5326821804046631,0.3450599312782287,0.321570336818695,0.6154356598854065
1630416040664,0.5326821804046631,0.3450599312782287,0.321570336818695,0.6154356598854065
1630416040789,0.5326821804046631,0.3450599312782287,0.321570336818695,0.6154356598854065
1630416040852,0.5326821804046631,0.3450599312782287,0.321570336818695,0.6154356598854065
1630416040961,0.5326821804046631,0.3450599312782287,0.321570336818695,0.6154356598854065
1630416041102,0.5326821804046631,0.3450599312782287,0.321570336818695,0.6154356598854065
1630416041180,0.5326821804046631,0.3450599312782287,0.321570336818695,0.6154356598854065
1630416041258,0.5326821804046631,0.3450599312782287,0.321570336818695,0.6154356598854065
1630416041373,0.5326821804046631,0.3450599312782287,0.321570336818695,0.6154356598854065
1630416041483,0.5326821804046631,0.3450599312782287,0.321570336818695,0.6154356598854065
1630416041595,0.5326821804046631,0.3450599312782287,0.321570336818695,0.6154356598854065
1630416041673,0.5326821804046631,0.3450599312782287,0.321570336818695,0.6154356598854065
1630416041829,0.5326821804046631,0.3450599312782287,0.321570336818695,0.6154356598854065
1630416041908,0.5326821804046631,0.3450599312782287,0.321570336818695,0.6154356598854065
1630416041970,0.5326821804046631,0.3450599312782287,0.321570336818695,0.6154356598854065
1630416042142,0.5326821804046631,0.3450599312782287,0.321570336818695,0.6154356598854065
1630416042220,0.5326821804046631,0.3450599312782287,0.321570336818695,0.6154356598854065
1630416042283,0.5326821804046631,0.3450599312782287,0.321570336818695,0.6154356598854065
1630416042379,0.5326821804046631,0.3450599312782287,0.321570336818695,0.6154356598854065
1630416042576,0.5326821804046631,0.3450599312782287,0.321570336818695,0.6154356598854065
1630416042618,0.5326821804046631,0.3450599312782287,-0.0787437111139297,0.6154356598854065
1630416042729,0.5326821804046631,0.3450599312782287,-0.0458449497818946,0.6154356598854065
1630416042840,0.5326821804046631,0.3450599312782287,-0.0032550417818129,0.6154356598854065
1630416042901,0.5326821804046631,0.3450599312782287,0.0391023196280002,0.6747708320617676
1630416043026,0.5326821804046631,0.3450599312782287,0.0727980807423591,0.6747708320617676
1630416043138,0.5326821804046631,0.3450599312782287,0.0933394208550453,0.6747708320617676
1630416043230,0.5326821804046631,0.1157294362783432,0.1010323911905288,0.6747708320617676
1630416043277,0.5326821804046631,0.1482394486665725,0.0988003239035606,0.6747708320617676
1630416043388,0.5326821804046631,0.1793060898780822,0.0902692377567291,0.6747708320617676
1630416043481,0.5326821804046631,0.1999359875917434,0.0799454301595687,0.6747708320617676
1630416043637,0.5326821804046631,0.2058568596839904,0.0728791877627372,0.6747708320617676
1630416043715,0.5326821804046631,0.1996670812368393,0.0749037787318229,0.6747708320617676
1630416043857,0.5326821804046631,0.1903069019317627,0.0962473303079605,0.6747708320617676
1630416043903,0.5539499521255493,0.1854879558086395,0.123354323208332,0.6747708320617676
1630416043982,0.5131248831748962,0.1858866512775421,0.1480111926794052,0.6747708320617676
1630416044089,0.4655257165431976,0.1888116002082824,0.1648197770118713,0.6747708320617676
1630416044265,0.4655257165431976,0.1922423392534256,0.1729027330875396,0.6747708320617676
1630416044340,0.4655257165431976,0.1966007798910141,0.1732208132743835,0.6747708320617676
1630416044416,0.4655257165431976,0.2108442634344101,0.167484626173973,0.6747708320617676
1630416044540,0.4655257165431976,0.2365802228450775,0.1603442281484604,0.6747708320617676
1630416044620,0.4655257165431976,0.2721728384494781,0.1580529808998108,0.6747708320617676
1630416044746,0.4655257165431976,0.3063191473484039,0.1629533320665359,0.6747708320617676
1630416044840,0.4655257165431976,0.3270744085311889,0.1713228225708007,0.6747708320617676
1630416044948,0.4655257165431976,0.3311555683612823,0.1787905693054199,0.6747708320617676
1630416045034,0.4655257165431976,0.3254535794258117,0.1834192872047424,0.6747708320617676
1630416045090,0.439239889383316,0.3213095366954803,0.1850506514310836,0.6747708320617676
1630416045248,0.3892673850059509,0.3263671696186065,0.1821215748786926,0.6747708320617676
1630416045343,0.3892673850059509,0.340877890586853,0.1738787442445755,0.6747708320617676
1630416045501,0.3892673850059509,0.3591049015522003,0.163094475865364,0.6747708320617676
1630416045562,0.3892673850059509,0.3743584752082824,0.1544197648763656,0.6747708320617676
1630416045626,0.3892673850059509,0.3823723793029785,0.1490288376808166,0.6747708320617676
1630416045767,0.4050999581813812,0.3827346861362457,0.1441238969564438,0.8585440516471863
1630416045828,0.4093086123466491,0.3773923516273498,0.1378490775823593,0.8360719084739685
1630416045924,0.4104952216148376,0.3670192360877991,0.132030189037323,0.8207114338874817
1630416046080,0.4098177552223205,0.3485622406005859,0.1285257041454315,0.8207114338874817
1630416046159,0.4131890535354614,0.3193891942501068,0.1254700571298599,0.8207114338874817
1630416046268,0.4269863367080688,0.2837212979793548,0.1197468042373657,0.8207114338874817
1630416046359,0.4471526443958282,0.2524294257164001,0.1119289770722389,0.8207114338874817
1630416046452,0.4644338190555572,0.2350492775440216,0.1054601967334747,0.8207114338874817
1630416046577,0.4748591184616089,0.2354201972484588,0.1037399023771286,0.7849005460739136
1630416046639,0.4852156937122345,0.2504892945289612,0.107507549226284,0.766571581363678
1630416046796,0.5030200481414795,0.2702896893024444,0.1137723103165626,0.7681534886360168
1630416046874,0.5263071656227112,0.2813466787338257,0.1183504089713096,0.7818312048912048
1630416046952,0.556380569934845,0.2762057483196258,0.1176485121250152,0.7752904891967773
1630416047047,0.5779246091842651,0.258881539106369,0.1096027791500091,0.7714104652404785
1630416047155,0.5890671610832214,0.2414983958005905,0.0959316864609718,0.7677175998687744
1630416047264,0.5918628573417664,0.2336942553520202,0.0822930559515953,0.771040141582489
1630416047437,0.5887292623519897,0.2364114373922348,0.0735972225666046,0.7762945294380188
1630416047498,0.5820149779319763,0.2449401915073394,0.0688801482319831,0.7828822135925293
1630416047575,0.5922430753707886,0.2537044286727905,0.0632902607321739,0.7828822135925293
1630416047652,0.6022174954414368,0.2598449885845184,0.0563991665840148,0.7828822135925293
1630416047768,0.6081450581550598,0.2643555402755737,0.0551051385700702,0.7828822135925293
1630416047888,0.6092444062232971,0.2702096104621887,0.06613340228796,0.7828822135925293
