timestamp,TP9,AF7,AF8,TP10
1630415912010,-0.0789351612329483,-0.1530362963676452,0.2941510379314422,0.6990841031074524
1630415912136,-0.0789351612329483,-0.1460685282945633,0.2868242561817169,0.6990841031074524
1630415912245,-0.0789351612329483,-0.1495725363492965,0.2840419113636017,0.6990841031074524
1630415912292,-0.0789351612329483,-0.1613188534975052,0.2829483449459076,0.6990841031074524
1630415912432,-0.0789351612329483,-0.1771397441625595,0.2808503210544586,0.6990841031074524
1630415912495,-0.0789351612329483,-0.1929743885993957,0.2742930650711059,0.6990841031074524
1630415912592,-0.0789351612329483,-0.2078080624341964,0.2565311193466186,0.6990841031074524
1630415912686,-0.0789351612329483,-0.2227594554424286,0.2160270661115646,0.6990841031074524
1630415912842,-0.0789351612329483,-0.2381909340620041,0.1404725313186645,0.6990841031074524
1630415912889,0.3463249802589416,-0.251471996307373,0.0246675852686166,0.6990841031074524
1630415912983,0.3376365900039673,-0.2581431567668915,-0.120841309428215,0.6990841031074524
1630415913123,0.3210170567035675,-0.2567546963691711,-0.2622371912002563,0.6990841031074524
1630415913233,0.2964287996292114,-0.2531995475292206,-0.3577651977539062,0.6990841031074524
1630415913295,0.2673805356025696,-0.2555510997772217,-0.3994941711425781,0.6990841031074524
1630415913420,0.239084392786026,-0.2659032046794891,-0.4102016985416412,0.6990841031074524
1630415913561,0.2169073075056076,-0.2789173424243927,-0.4093646705150604,0.6990841031074524
1630415913623,0.2169073075056076,-0.2859546542167663,-0.4052340090274811,0.6990841031074524
1630415913686,0.2169073075056076,-0.2818265557289123,-0.3957310318946838,0.6990841031074524
1630415913842,0.2169073075056076,-0.2669074833393097,-0.3771078586578369,0.6990841031074524
1630415913967,0.2169073075056076,-0.2441939711570739,-0.3521896004676819,0.6990841031074524
1630415914014,0.2169073075056076,-0.218858316540718,-0.3277276158332824,0.6990841031074524
1630415914076,0.18650783598423,-0.1973914057016372,-0.3069070875644684,0.6990841031074524
1630415914217,0.1450332850217819,-0.182398721575737,-0.2871816456317901,0.6990841031074524
1630415914310,0.0935121476650238,-0.1742742955684662,-0.2661841213703155,0.6990841031074524
1630415914498,0.0338136591017246,-0.1697797924280166,-0.2443466484546661,0.6990841031074524
1630415914564,-0.029221337288618,-0.1649155914783477,-0.2239460051059723,0.6990841031074524
1630415914673,-0.0860040187835693,-0.1584974974393844,-0.2062128186225891,0.6990841031074524
1630415914767,-0.1234650090336799,-0.1525830179452896,-0.1918213665485382,0.6990841031074524
1630415914798,-0.1375016719102859,-0.1495157480239868,-0.1787858307361602,0.6990841031074524
1630415914907,-0.1339326202869415,-0.1483996957540512,-0.1614401936531067,0.6990841031074524
1630415915079,-0.1277991682291031,-0.1457832604646682,-0.1342243701219558,0.3914736807346344
1630415915141,-0.1145375221967697,-0.1379969120025634,-0.0991009324789047,0.3894307315349579
1630415915220,-0.1059231534600257,-0.126842513680458,-0.0661486908793449,0.3731461465358734
1630415915345,-0.1009745523333549,-0.1155143454670906,-0.044103555381298,0.3579652309417724
1630415915423,-0.0973615273833274,-0.1069783717393875,-0.0342932268977165,0.3556931912899017
1630415915565,-0.0940750762820243,-0.0994842574000358,-0.0326124690473079,0.3713249862194061
1630415915659,-0.0985836163163185,-0.0885090753436088,-0.0311372112482786,0.3972753286361694
1630415915753,-0.103053018450737,-0.0715527087450027,-0.0304330736398696,0.4237374663352966
1630415915846,-0.1026294454932212,-0.0500924512743949,-0.0308710634708404,0.4439693093299866
1630415915925,-0.0918399840593338,-0.0285004861652851,-0.0311567410826683,0.4548711478710174
1630415916050,-0.0816211253404617,-0.0129255736246705,-0.0269266441464424,0.4569278359413147
1630415916143,-0.0701320245862007,-0.0065703089348971,-0.0136207258328795,0.4529942274093628
1630415916315,-0.0599782317876815,-0.008476473391056,0.0110980756580829,0.4635611772537231
1630415916346,-0.0529778860509395,-0.0143055338412523,0.0439423173666,0.4695653319358825
1630415916440,-0.051758624613285,-0.0196235887706279,0.0746542736887931,0.4714635908603668
1630415916549,-0.0565512403845787,-0.0228264573961496,0.0902789235115051,0.4733676314353943
1630415916690,-0.0641174167394638,-0.0250878669321537,0.0816319063305854,0.4815967082977295
1630415916784,-0.0706458464264869,-0.0271251332014799,0.0816319063305854,0.4990847408771515
1630415916893,-0.074962131679058,-0.0310328491032123,0.0816319063305854,0.5219075679779053
1630415917002,-0.0795041248202323,-0.038277793675661,0.0816319063305854,0.5426853895187378
1630415917127,-0.0870683938264846,-0.050085075199604,0.0816319063305854,0.5523780584335327
1630415917174,-0.0870683938264846,-0.0645718723535537,-0.1938674002885818,0.5467018485069275
1630415917284,-0.0870683938264846,-0.0783359110355377,-0.1404581367969513,0.5245649814605713
1630415917362,-0.0870683938264846,-0.0886797755956649,-0.1033630818128585,0.5245649814605713
1630415917487,-0.0870683938264846,-0.0968902856111526,-0.0883283540606498,0.5245649814605713
1630415917581,-0.0870683938264846,-0.1029335036873817,-0.0887195318937301,0.5245649814605713
1630415917721,-0.0870683938264846,-0.1035339534282684,-0.096979483962059,0.5245649814605713
1630415917784,-0.0870683938264846,-0.0950583070516586,-0.1087573021650314,0.5245649814605713
1630415917846,-0.0870683938264846,-0.0777956172823906,-0.1181475892663002,0.5245649814605713
1630415918049,-0.0870683938264846,-0.0559045597910881,-0.1172636225819587,0.5245649814605713
1630415918127,-0.0870683938264846,-0.0321317166090011,-0.1047834083437919,0.5245649814605713
1630415918221,-0.0870683938264846,-0.006047009024769,-0.0878073722124099,0.5245649814605713
1630415918283,-0.0870683938264846,0.0246755275875329,-0.0736278370022773,0.5245649814605713
1630415918408,-0.0870683938264846,0.0588679984211921,-0.056677833199501,0.5245649814605713
1630415918486,-0.0870683938264846,0.0912477150559425,-0.0413117110729217,0.5245649814605713
1630415918596,-0.0870683938264846,0.1153486520051956,-0.031699001789093,0.5245649814605713
1630415918706,-0.0870683938264846,0.1275210827589035,-0.0329423770308494,0.5245649814605713
1630415918830,-0.0870683938264846,0.1290917843580246,-0.0441168807446956,0.5245649814605713
1630415918893,-0.0870683938264846,0.1239495277404785,-0.0582184195518493,0.5245649814605713
1630415918971,-0.0870683938264846,0.1159742847084999,-0.0692856907844543,0.5245649814605713
1630415919127,-0.0870683938264846,0.1073734760284423,-0.0769455432891845,0.5245649814605713
1630415919158,-0.0870683938264846,0.0978313907980918,-0.0832770094275474,0.5245649814605713
1630415919330,-0.0870683938264846,0.0865469947457313,-0.0882118195295333,0.5245649814605713
1630415919424,-0.0870683938264846,0.0740404725074768,-0.0924567654728889,0.6244239211082458
1630415919502,-0.0870683938264846,0.0616239942610263,-0.0994862392544746,0.5991865396499634
1630415919583,-0.0870683938264846,0.0496643334627151,-0.1089618429541587,0.5876832008361816
1630415919645,-0.0870683938264846,0.0371221974492073,-0.1136032566428184,0.5876832008361816
1630415919755,-0.0870683938264846,0.0174787566065788,-0.1322859525680542,0.5876832008361816
1630415919942,-0.0870683938264846,-0.0156053705140948,-0.1499795466661453,0.5876832008361816
1630415920004,-0.0870683938264846,-0.0585013106465339,-0.1655608266592025,0.5876832008361816
1630415920067,-0.0870683938264846,-0.1000297218561172,-0.1778600513935089,0.5876832008361816
1630415920208,-0.0870683938264846,-0.1283421814441681,-0.1857049167156219,0.5876832008361816
1630415920333,-0.0870683938264846,-0.1421203017234802,-0.1896726042032241,0.5876832008361816
1630415920426,-0.0870683938264846,-0.1474447101354599,-0.1923497319221496,0.5876832008361816
1630415920538,-0.0870683938264846,-0.1469394266605377,-0.1933469623327255,0.5876832008361816
1630415920632,-0.0870683938264846,-0.139431893825531,-0.1872685998678207,0.5662491917610168
1630415920772,-0.0870683938264846,-0.1240826174616813,-0.1670814007520675,0.5399797558784485
1630415920804,-0.0870683938264846,-0.1021883636713028,-0.1311722248792648,0.5399797558784485
1630415920897,-0.0870683938264846,-0.1021883636713028,-0.1311722248792648,0.5399797558784485
1630415921038,-0.0870683938264846,-0.1021883636713028,-0.1311722248792648,0.5399797558784485
1630415921210,-0.0870683938264846,-0.1021883636713028,-0.1311722248792648,0.5399797558784485
1630415921225,-0.0870683938264846,-0.1021883636713028,-0.1311722248792648,0.5399797558784485
1630415921382,-0.0870683938264846,-0.1021883636713028,-0.1311722248792648,0.5399797558784485
1630415921428,-0.0870683938264846,-0.1021883636713028,-0.0315355472266674,0.5399797558784485
1630415921522,-0.0870683938264846,-0.1021883636713028,-0.027709798887372,0.5399797558784485
1630415921603,-0.0870683938264846,-0.1021883636713028,-0.0439680516719818,0.5399797558784485
1630415921744,-0.0870683938264846,-0.1021883636713028,-0.0746106952428817,0.5399797558784485
1630415921853,-0.0870683938264846,-0.0833670198917388,-0.1122933998703956,0.5399797558784485
1630415921931,-0.0870683938264846,-0.1232789307832717,-0.1483296453952789,0.5399797558784485
1630415922072,-0.0870683938264846,-0.1648853719234466,-0.1770563572645187,0.5399797558784485
1630415922150,-0.0870683938264846,-0.2018065899610519,-0.1979160010814666,0.5399797558784485
1630415922228,-0.0870683938264846,-0.2316869348287582,-0.2117989212274551,0.5399797558784485
1630415922401,-0.0870683938264846,-0.2564985156059265,-0.2195206731557846,0.5399797558784485
1630415922476,-0.0870683938264846,-0.2791410684585571,-0.2225536406040191,0.5399797558784485
1630415922539,-0.0870683938264846,-0.2999569475650787,-0.2227213233709335,0.5399797558784485
1630415922665,-0.0870683938264846,-0.3157334923744201,-0.2256968319416046,0.5399797558784485
1630415922727,-0.0870683938264846,-0.3226178884506225,-0.2353634387254715,0.5399797558784485
1630415922885,-0.0870683938264846,-0.3211643099784851,-0.2545265853404999,0.5399797558784485
1630415922977,-0.0870683938264846,-0.3147895932197571,-0.2797766029834747,0.5399797558784485
1630415923071,-0.0870683938264846,-0.3299162089824676,-0.3050151169300079,0.5399797558784485
1630415923149,-0.0870683938264846,-0.3466063737869262,-0.3233242630958557,0.5399797558784485
1630415923273,-0.0870683938264846,-0.3568457365036011,-0.3298573791980743,0.5399797558784485
1630415923382,0.1268022805452346,-0.3516509532928467,-0.3220920264720917,0.5399797558784485
1630415923475,0.0962094590067863,-0.3288699686527252,-0.3041631877422333,0.5399797558784485
1630415923555,0.0599570870399475,-0.2946619987487793,-0.2843691110610962,0.5399797558784485
1630415923709,0.0270105004310607,-0.2588215172290802,-0.2704960107803345,0.5664339065551758
1630415923803,0.0270105004310607,-0.2290023118257522,-0.2672959864139557,0.5219180583953857
1630415923851,0.0270105004310607,-0.2069846242666244,-0.2755134105682373,0.4959363043308258
1630415923930,0.0270105004310607,-0.1901611983776092,-0.2933566868305206,0.4872770011425018
1630415924024,0.0270105004310607,-0.1754896193742752,-0.3176904320716858,0.4906887710094452
1630415924166,0.0270105004310607,-0.162576824426651,-0.3459227383136749,0.5004839897155762
1630415924259,0.0065146256238222,-0.1517714411020279,-0.3751843869686126,0.4789256453514099
1630415924398,-0.0312057491391897,-0.1414488106966018,-0.4014905989170074,0.5233948826789856
1630415924538,-0.0879577025771141,-0.1302164644002914,-0.4213128685951233,0.5791569352149963
1630415924569,-0.0879577025771141,-0.1195433065295219,-0.4345744252204895,0.6322548389434814
1630415924661,-0.0545574948191642,-0.1139110550284385,-0.4450331628322601,0.6693985462188721
1630415924817,-0.0590368770062923,-0.1167070940136909,-0.4569647014141083,0.6864698529243469
1630415924958,-0.0958907455205917,-0.1276988983154297,-0.4765495359897613,0.6899012327194214
1630415925005,-0.0995347425341606,-0.1417232155799865,-0.5076320767402649,0.6956076622009277
1630415925084,-0.0725085586309433,-0.1515739560127258,-0.548699676990509,0.7089359164237976
1630415925208,-0.0380943268537521,-0.1541117280721664,-0.5910873413085938,0.7283466458320618
1630415925254,-0.0380943268537521,-0.152935191988945,-0.622968316078186,0.7511436939239502
1630415925380,-0.0380943268537521,-0.1534580588340759,-0.6317945122718811,0.7747941017150879
1630415925489,-0.0380943268537521,-0.1570954769849777,-0.6015980243682861,0.7979034781455994
1630415925643,-0.0380943268537521,-0.1611427068710327,-0.5295846462249756,0.8204724788665771
1630415925706,-0.0380943268537521,-0.164448082447052,-0.440066933631897,0.843517005443573
1630415925769,-0.0380943268537521,-0.1626235395669937,-0.3654591739177704,0.8641290664672852
1630415925880,-0.0380943268537521,-0.1657834202051162,-0.319905549287796,0.8744276165962219
1630415926068,-0.0380943268537521,-0.1910558193922042,-0.3125637471675873,0.8641268610954285
1630415926098,-0.0380943268537521,-0.2223685085773468,-0.3036366999149322,0.826906144618988
1630415926192,-0.0601771958172321,-0.2505444884300232,-0.2879149317741394,0.826906144618988
1630415926284,-0.0548524260520935,-0.2655839920043945,-0.2733878493309021,0.826906144618988
1630415926377,-0.0548524260520935,-0.2632510364055633,-0.2631091177463531,0.826906144618988
1630415926470,-0.0548524260520935,-0.2528200149536133,-0.2559967935085296,0.826906144618988
1630415926675,-0.0548524260520935,-0.249030202627182,-0.2482131719589233,0.826906144618988
1630415926767,-0.0548524260520935,-0.2566612064838409,-0.238248273730278,0.826906144618988
1630415926815,-0.0548524260520935,-0.2656753957271576,-0.2282876521348953,0.826906144618988
1630415926877,-0.0548524260520935,-0.2622232735157013,-0.2229908108711242,0.826906144618988
1630415927067,-0.0548524260520935,-0.2456043511629104,-0.2304140627384185,0.826906144618988
1630415927128,-0.0548524260520935,-0.2279836684465408,-0.2589136362075805,0.826906144618988
1630415927190,-0.0548524260520935,-0.2167723923921585,-0.3089240491390228,0.826906144618988
1630415927300,0.599757194519043,-0.2148602753877639,-0.3674601316452026,0.826906144618988
1630415927426,0.5791346430778503,-0.2144446372985839,-0.4143804311752319,0.826906144618988
1630415927517,0.5423773527145386,-0.2038638442754745,-0.4105688035488128,0.826906144618988
1630415927627,0.5007396340370178,-0.1946334689855575,-0.4085519313812256,0.826906144618988
1630415927705,0.5007396340370178,-0.1885066479444503,-0.4157724976539612,0.826906144618988
1630415927880,0.5007396340370178,-0.1854919642210006,-0.4067284762859344,0.826906144618988
1630415927910,0.5007396340370178,-0.1866597831249237,-0.3678633272647857,0.826906144618988
1630415928004,0.5007396340370178,-0.1939110606908798,-0.3022827804088592,0.826906144618988
1630415928151,0.5007396340370178,-0.2087624818086624,-0.2306713759899139,0.826906144618988
1630415928241,0.5007396340370178,-0.2308773547410965,-0.1720701903104782,0.826906144618988
1630415928411,0.5007396340370178,-0.2593825757503509,-0.13315349817276,0.826906144618988
1630415928468,0.5007396340370178,-0.289864182472229,-0.109695054590702,0.826906144618988
1630415928553,0.4889535903930664,-0.309454083442688,-0.0927693247795105,0.826906144618988
1630415928630,0.4618615806102752,-0.3308361172676086,-0.0750695839524269,0.826906144618988
1630415928756,0.407393604516983,-0.3502310812473297,-0.0570738092064857,0.826906144618988
1630415928818,0.407393604516983,-0.3681139945983886,-0.0381121151149272,0.826906144618988
1630415928955,0.407393604516983,-0.3878196775913238,-0.0166434962302446,0.826906144618988
1630415929087,0.407393604516983,-0.4097720980644226,0.0091366851702332,0.826906144618988
1630415929132,0.407393604516983,-0.4295841157436371,0.0401909537613391,0.826906144618988
1630415929228,0.407393604516983,-0.4434175789356231,0.0761043429374694,0.826906144618988
1630415929412,0.407393604516983,-0.4574526250362396,0.11233402043581,0.826906144618988
1630415929456,0.407393604516983,-0.4862878918647766,0.1384226679801941,0.826906144618988
1630415929519,0.407393604516983,-0.5399169921875,0.1412541717290878,0.826906144618988
1630415929708,0.407393604516983,-0.5399169921875,0.1412541717290878,0.826906144618988
1630415929754,0.407393604516983,-0.5399169921875,0.1412541717290878,0.826906144618988
1630415929863,0.407393604516983,-0.5399169921875,0.1412541717290878,0.826906144618988
1630415929944,0.407393604516983,-0.5399169921875,0.1412541717290878,0.826906144618988
1630415930087,0.407393604516983,-0.5399169921875,0.1412541717290878,0.826906144618988
1630415930149,0.407393604516983,-0.5399169921875,0.1412541717290878,0.826906144618988
1630415930258,0.407393604516983,-0.5399169921875,0.1412541717290878,0.826906144618988
1630415930352,0.407393604516983,-0.5399169921875,0.1412541717290878,0.826906144618988
1630415930478,0.407393604516983,-0.5399169921875,0.1412541717290878,0.826906144618988
1630415930525,0.407393604516983,-0.5399169921875,0.1412541717290878,0.826906144618988
1630415930670,0.407393604516983,-0.5399169921875,0.1412541717290878,0.826906144618988
1630415930721,0.407393604516983,-0.5399169921875,0.1412541717290878,0.826906144618988
1630415930952,0.407393604516983,-0.5399169921875,0.1412541717290878,0.826906144618988
1630415931015,0.407393604516983,-0.5399169921875,0.1412541717290878,0.826906144618988
1630415931093,0.407393604516983,-0.5399169921875,0.1412541717290878,0.826906144618988
1630415931186,0.407393604516983,-0.5399169921875,0.1412541717290878,0.826906144618988
1630415931233,0.407393604516983,-0.5399169921875,0.1412541717290878,0.826906144618988
1630415931327,0.407393604516983,-0.5399169921875,0.1412541717290878,0.826906144618988
1630415931499,0.407393604516983,-0.5399169921875,0.1412541717290878,0.826906144618988
1630415931605,0.407393604516983,-0.5399169921875,0.1412541717290878,0.826906144618988
1630415931715,0.407393604516983,-0.5399169921875,0.1412541717290878,0.826906144618988
1630415931746,0.407393604516983,-0.5399169921875,0.1412541717290878,0.826906144618988
1630415931902,0.407393604516983,-0.5399169921875,0.1412541717290878,0.826906144618988
1630415932027,0.407393604516983,-0.5399169921875,0.1412541717290878,0.826906144618988
1630415932123,0.407393604516983,-0.5399169921875,0.1412541717290878,0.826906144618988
1630415932201,0.407393604516983,-0.5399169921875,0.1412541717290878,0.826906144618988
1630415932279,0.407393604516983,-0.5399169921875,0.1412541717290878,0.826906144618988
1630415932420,0.407393604516983,-0.5399169921875,0.1412541717290878,0.826906144618988
1630415932492,0.407393604516983,-0.5399169921875,0.1412541717290878,0.826906144618988
1630415932560,0.407393604516983,-0.5399169921875,0.1412541717290878,0.826906144618988
1630415932717,0.407393604516983,-0.5399169921875,0.1412541717290878,0.826906144618988
1630415932810,0.407393604516983,-0.5399169921875,0.1412541717290878,0.826906144618988
1630415932982,0.407393604516983,-0.5399169921875,0.1412541717290878,0.826906144618988
1630415933029,0.407393604516983,-0.5399169921875,0.1412541717290878,0.826906144618988
1630415933076,0.407393604516983,-0.5399169921875,-0.7679944634437561,0.826906144618988
1630415933217,0.407393604516983,-0.5399169921875,-0.7045227289199829,0.826906144618988
1630415933329,0.407393604516983,-0.202554315328598,-0.6525987982749939,0.826906144618988
1630415933495,0.407393604516983,-0.2010772079229354,-0.6231603622436523,0.826906144618988
1630415933542,0.407393604516983,-0.1800629943609237,-0.614652156829834,0.826906144618988
1630415933635,0.407393604516983,-0.1529697924852371,-0.6196003556251526,0.826906144618988
1630415933698,0.407393604516983,-0.1347098350524902,-0.632114589214325,0.826906144618988
1630415933776,0.407393604516983,-0.1298310160636901,-0.6487581133842468,0.826906144618988
1630415933963,0.407393604516983,-0.1329912692308426,-0.6647837162017822,0.826906144618988
1630415934073,0.407393604516983,-0.1364844441413879,-0.6721453666687012,0.826906144618988
1630415934120,0.407393604516983,-0.1381958872079849,-0.6678740978240967,0.826906144618988
1630415934229,0.407393604516983,-0.1416810303926468,-0.6571043133735657,0.826906144618988
1630415934293,0.407393604516983,-0.148020789027214,-0.6356569528579712,0.826906144618988
1630415934389,0.407393604516983,-0.1549109369516372,-0.6180568337440491,0.826906144618988
1630415934561,0.407393604516983,-0.1570431143045425,-0.6014619469642639,0.826906144618988
1630415934654,-0.0576907284557819,-0.1567939817905426,-0.5855420231819153,0.826906144618988
1630415934748,-0.0689413845539093,-0.1531095802783966,-0.5734416246414185,0.826906144618988
1630415934826,-0.0775235518813133,-0.1466127187013626,-0.5654834508895874,0.826906144618988
1630415934935,-0.0775235518813133,-0.1427974849939346,-0.5560369491577148,0.826906144618988
1630415935060,-0.0775235518813133,-0.1665337532758712,-0.5366227030754089,0.826906144618988
1630415935139,-0.0775235518813133,-0.2032461762428283,-0.4996978938579559,0.826906144618988
1630415935264,-0.0775235518813133,-0.2447655797004699,-0.446732223033905,0.826906144618988
1630415935326,-0.0935230553150177,-0.2808318734169006,-0.3896132111549377,0.826906144618988
1630415935451,-0.0990716218948364,-0.3077336549758911,-0.3419933915138244,0.826906144618988
1630415935590,-0.0990443676710128,-0.3311757743358612,-0.3111296594142914,0.826906144618988
1630415935683,-0.0992755815386772,-0.3564622104167938,-0.292917400598526,0.3270191550254822
1630415935746,-0.0992755815386772,-0.3813390433788299,-0.2794663310050964,0.3199483156204223
1630415935871,-0.1075288653373718,-0.4037590324878692,-0.2666820585727691,0.3199483156204223
1630415935965,-0.1345272958278656,-0.4284040033817291,-0.2551527023315429,0.2870631814002991
1630415936074,-0.1624869108200073,-0.4623297154903412,-0.2472126334905624,0.2870631814002991
1630415936121,-0.1716373264789581,-0.4975935518741607,-0.2419419139623642,0.2870631814002991
1630415936230,-0.1800179481506347,-0.4676967263221741,-0.2337118983268737,0.2706148624420166
1630415936356,-0.1902587562799453,-0.4172374606132507,-0.2133870273828506,0.2571700811386108
1630415936437,-0.1902587562799453,-0.365863174200058,-0.1783611923456192,0.2546266615390777
1630415936562,-0.1902587562799453,-0.3225058615207672,-0.1376338899135589,0.265197217464447
1630415936658,-0.1902587562799453,-0.290362685918808,-0.1044794097542762,0.2806622982025146
1630415936767,-0.1902587562799453,-0.2644565403461456,-0.0855433270335197,0.2922687232494354
1630415936876,-0.1875016689300537,-0.239624336361885,-0.0774014517664909,0.2922687232494354
1630415937064,-0.2002262622117996,-0.2151192128658294,-0.0726550668478012,0.2922687232494354
1630415937095,-0.2002262622117996,-0.1934575885534286,-0.0663931518793106,0.2942163944244385
1630415937189,-0.2002262622117996,-0.1766491681337356,-0.0595253556966781,0.2970158457756042
1630415937314,-0.2002262622117996,-0.1642324030399322,-0.0536082722246646,0.2980998456478119
1630415937362,-0.2002262622117996,-0.1555273532867431,-0.0477033592760562,0.2980998456478119
1630415937411,-0.2002262622117996,-0.1374045014381408,-0.0412287898361682,0.2980998456478119
1630415937629,-0.2002262622117996,-0.1167074739933013,-0.0263596996665,0.2980998456478119
1630415937692,-0.2002262622117996,-0.097937524318695,-0.010022098198533,0.2980998456478119
1630415937848,-0.2002262622117996,-0.0888552591204643,0.0044693015515804,0.3088465631008148
1630415937879,-0.2002262622117996,-0.0949322134256362,0.0110142929479479,0.3324942290782928
1630415937958,-0.2002262622117996,-0.1133089140057563,0.0039019612595438,0.3324942290782928
1630415938082,-0.2002262622117996,-0.1324014514684677,-0.0174385271966457,0.3324942290782928
1630415938192,-0.2002262622117996,-0.1695387214422226,-0.0473269671201705,0.3324942290782928
1630415938332,-0.2002262622117996,-0.2006320655345916,-0.0771349295973777,0.3324942290782928
1630415938400,-0.2212925851345062,-0.2342503070831298,-0.1026279106736183,0.3324942290782928
1630415938509,-0.2253161668777465,-0.2735397517681122,-0.1233657449483871,0.3324942290782928
1630415938572,-0.1841465383768081,-0.3139149248600006,-0.1677418798208236,0.3324942290782928
1630415938712,-0.1109923496842384,-0.3471285402774811,-0.2190118879079818,0.3324942290782928
1630415938822,-0.0333725102245807,-0.3683024644851684,-0.2820790708065033,0.3324942290782928
1630415938931,0.0489370860159397,-0.3756404221057892,-0.3597441017627716,0.3324942290782928
1630415938978,0.1047317460179328,-0.3686267733573913,-0.4496628940105438,0.3324942290782928
1630415939087,0.1038696393370628,-0.3620745837688446,-0.4566028714179992,0.3324942290782928
1630415939181,0.0911396369338035,-0.3572545647621155,-0.4571622610092163,0.3324942290782928
1630415939275,0.0753484517335891,-0.3547966480255127,-0.448062390089035,0.3324942290782928
1630415939431,0.0626711174845695,-0.3532806038856506,-0.4280422031879425,0.3324942290782928
1630415939525,0.053145594894886,-0.3528218865394592,-0.3994193375110626,0.3324942290782928
1630415939650,0.0479204170405864,-0.3543709814548492,-0.3693372905254364,0.3324942290782928
1630415939712,0.0511583387851715,-0.3532063066959381,-0.3434468507766723,0.3324942290782928
1630415939775,0.0711312517523765,-0.3509449958801269,-0.3218157291412353,0.3324942290782928
1630415939900,0.1017614752054214,-0.3446444869041443,-0.2994344532489776,0.3324942290782928
1630415940009,0.1304161697626114,-0.3359191119670868,-0.2733999788761139,0.3324942290782928
1630415940118,0.1467599421739578,-0.3271142244338989,-0.2445499002933502,0.3324942290782928
1630415940243,0.1480723619461059,-0.3158214688301086,-0.2171169966459274,0.3324942290782928
1630415940353,0.1358723044395446,-0.296025663614273,-0.198716253042221,0.3324942290782928
1630415940415,0.1190081089735031,-0.2652298212051391,-0.1900882571935653,0.3324942290782928
1630415940493,0.1090680584311485,-0.2301515787839889,-0.185810849070549,0.3324942290782928
1630415940649,0.1093774065375328,-0.2001093477010727,-0.1794649958610534,0.4909363090991974
1630415940727,0.1134794205427169,-0.1795413494110107,-0.1685406863689422,0.4548971652984619
1630415940837,0.1166854873299598,-0.1663203090429306,-0.1542570888996124,0.4328058958053589
1630415940946,0.1145253181457519,-0.1565058380365371,-0.1379329860210418,0.4227993786334991
1630415941040,0.1095944866538047,-0.1481811106204986,-0.1183678209781646,0.4239416718482971
1630415941180,0.1036155298352241,-0.1418964862823486,-0.0929929241538047,0.4323257207870483
1630415941243,0.0932814851403236,-0.138315200805664,-0.0627181380987167,0.4417194426059723
1630415941337,0.0778901353478431,-0.1383481472730636,-0.034375175833702,0.4504376053810119
1630415941449,0.0569200180470943,-0.1422420740127563,-0.0177658330649137,0.4555047750473022
1630415941527,0.0342865251004695,-0.1473856121301651,-0.0180176235735416,0.4525068998336792
1630415941652,0.0151894623413681,-0.1486237496137619,-0.0315460935235023,0.4403645694255829
1630415941730,0.0006407652981579,-0.1432447284460067,-0.0480673946440219,0.4207723140716553
1630415941871,-0.0096676629036664,-0.1350497603416443,-0.0564407892525196,0.3829959332942962
1630415941965,-0.0171152651309967,-0.1316661238670349,-0.0511994250118732,0.3494297564029693
1630415942047,-0.0241969972848892,-0.1372428238391876,-0.0343462973833084,0.3272278606891632
1630415942139,-0.0270646810531616,-0.149720698595047,-0.0192122533917427,0.3185482919216156
1630415942295,-0.0214028619229793,-0.1611357927322387,-0.0068997452035546,0.3214054703712463
1630415942342,-0.0106142666190862,-0.1617075055837631,0.0016884057549759,0.3271909654140472
1630415942459,0.004856429528445,-0.1457669883966446,0.0053458479233086,0.3327027261257171
1630415942552,0.0209568738937377,-0.1138082072138786,0.0002448478189762,0.3347150683403015
1630415942646,0.0364282540977001,-0.0727678015828132,-0.0194774065166711,0.3361011743545532
1630415942787,0.0447134971618652,-0.032133512198925,-0.0586807951331138,0.3196335136890411
1630415942849,0.0550729744136333,0.0003006494953297,-0.1160289719700813,0.2984088957309723
1630415942974,0.0589108429849147,0.0214559212327003,-0.1772861331701278,0.2754075825214386
1630415943068,0.0588469877839088,0.031698428094387,-0.2174613028764724,0.260200172662735
1630415943208,0.0575639270246028,0.0320520773530006,-0.2160344719886779,0.2621053457260132
1630415943255,0.0588745698332786,0.0248165987432003,-0.2160344719886779,0.2851264178752899
1630415943349,0.0669819265604019,0.0120845548808574,-0.2160344719886779,0.3211236298084259
1630415943525,0.0794643983244896,-0.0018897482659667,-0.2160344719886779,0.3575054407119751
1630415943572,0.0947074368596077,-0.0124159473925828,-0.2160344719886779,0.3929545879364013
1630415943712,0.0966721028089523,-0.0160368736833333,-0.2160344719886779,0.423386812210083
1630415943759,0.0960336476564407,-0.0144237978383898,-0.2160344719886779,0.4465478956699371
1630415943884,0.0958752110600471,-0.0152923725545406,-0.2160344719886779,0.4465478956699371
1630415943978,0.0970829203724861,-0.0270529184490442,-0.2160344719886779,0.4465478956699371
1630415944056,0.0997225865721702,-0.0527755618095397,-0.2160344719886779,0.4465478956699371
1630415944134,0.1001644507050514,-0.087741382420063,-0.2160344719886779,0.4465478956699371
1630415944321,0.1036319360136985,-0.1231171339750289,-0.2160344719886779,0.4465478956699371
1630415944415,0.1086163073778152,-0.1527096182107925,-0.2160344719886779,0.4465478956699371
1630415944497,0.1228564530611038,-0.1758253872394561,-0.2160344719886779,0.4465478956699371
1630415944560,0.1428721100091934,-0.194495290517807,-0.2160344719886779,0.4465478956699371
1630415944685,0.1611103266477584,-0.2098881602287292,-0.2160344719886779,0.4465478956699371
1630415944747,0.1705197989940643,-0.2248767912387848,-0.3416071534156799,0.4465478956699371
1630415944903,0.164397194981575,-0.2401637583971023,-0.3319932520389557,0.4465478956699371
1630415944997,0.142757847905159,-0.2564940452575683,-0.3441202640533447,0.4465478956699371
1630415945122,0.1094050705432891,-0.271626204252243,-0.3647435307502746,0.4465478956699371
1630415945185,0.0900329574942588,-0.2842892110347748,-0.3796677589416504,0.4465478956699371
1630415945310,0.0900329574942588,-0.2958729863166809,-0.3836444914340973,0.4465478956699371
1630415945388,0.0900329574942588,-0.3088480830192566,-0.3791966140270233,0.4465478956699371
1630415945544,0.0900329574942588,-0.3232753276824951,-0.3715731203556061,0.4465478956699371
1630415945622,0.0900329574942588,-0.3362185657024383,-0.3646014034748077,0.4465478956699371
1630415945747,0.0900329574942588,-0.34540656208992,-0.3599452674388885,0.4465478956699371
1630415945825,0.085304819047451,-0.3499853312969208,-0.3569638431072235,0.4465478956699371
1630415945903,0.0752037167549133,-0.3481311202049255,-0.3548044264316559,0.4465478956699371
1630415946013,0.057962279766798,-0.3355332016944885,-0.3496231734752655,0.4465478956699371
1630415946169,0.0307766180485487,-0.3126366734504699,-0.3451393246650696,0.4465478956699371
1630415946216,-0.0067604193463921,-0.2852430939674377,-0.3456415235996246,0.4465478956699371
1630415946294,-0.0528021976351738,-0.2616873979568481,-0.3511326611042022,0.4465478956699371
1630415946403,-0.0528021976351738,-0.2465541958808899,-0.3548759222030639,0.4465478956699371
1630415946499,-0.0528021976351738,-0.2372680008411407,-0.348343014717102,0.4465478956699371
1630415946608,-0.0528021976351738,-0.2298317551612854,-0.3300253748893738,0.6392446160316467
1630415946780,-0.0528021976351738,-0.2235778421163559,-0.3071422278881073,0.6243281364440918
1630415946842,-0.0528021976351738,-0.2209443300962448,-0.2892557680606842,0.6072181463241577
1630415946936,-0.1257378607988357,-0.2226820737123489,-0.2804504036903381,0.5883656144142151
1630415947030,-0.1257378607988357,-0.2268447577953338,-0.2771489918231964,0.5701431632041931
1630415947108,-0.1257378607988357,-0.2325843572616577,-0.2729716897010803,0.5461095571517944
1630415947202,-0.1257378607988357,-0.2418190687894821,-0.2654638588428497,0.5227346420288086
1630415947389,-0.1257378607988357,-0.2560831904411316,-0.2569746673107147,0.5083585381507874
1630415947467,-0.1257378607988357,-0.2739137709140777,-0.2473050951957702,0.5083585381507874
1630415947498,-0.1257378607988357,-0.2945844233036041,-0.2346769869327545,0.5083585381507874
1630415947639,-0.1257378607988357,-0.3185557126998901,-0.2209083586931228,0.5083585381507874
1630415947780,-0.1257378607988357,-0.3460229933261871,-0.2115411609411239,0.5177047848701477
1630415947826,-0.1257378607988357,-0.373369961977005,-0.2100283205509185,0.5188686847686768
1630415947983,-0.146091878414154,-0.3953938782215118,-0.2157626897096634,0.5152367949485779
1630415948030,-0.1629477143287658,-0.4125133752822876,-0.2271296828985214,0.5141675472259521
1630415948155,-0.2367923706769943,-0.4303816556930542,-0.2438813745975494,0.5145032405853271
1630415948233,-0.2715399861335754,-0.4523986876010895,-0.2642408013343811,0.5102285146713257
1630415948389,-0.2773864269256592,-0.4740725457668304,-0.2836242616176605,0.510270357131958
1630415948467,-0.26524418592453,-0.4873756766319275,-0.2987054586410522,0.5161004066467285
1630415948611,-0.2415058463811874,-0.489289253950119,-0.311816543340683,0.5299896001815796
1630415948704,-0.2015187293291092,-0.4851830303668976,-0.3280679583549499,0.5396819710731506
1630415948783,-0.1636689901351928,-0.4804691672325134,-0.3488847315311432,0.5435518026351929
1630415948861,-0.1439476162195205,-0.4745131134986877,-0.3711435198783874,0.5387760400772095
1630415948970,-0.1404052376747131,-0.4650323688983917,-0.3951963484287262,0.5387760400772095
1630415949048,-0.1449597924947738,-0.4522538781166076,-0.422873318195343,0.5387760400772095
1630415949174,-0.1466342061758041,-0.4394344687461853,-0.4499984085559845,0.5387760400772095
1630415949251,-0.1422669142484665,-0.4270447790622711,-0.4635427594184875,0.5286796689033508
1630415949439,-0.136652871966362,-0.4130840897560119,-0.4526882171630859,0.5285480618476868
1630415949487,-0.1280660927295684,-0.3953490555286407,-0.4183670282363891,0.5285480618476868
1630415949512,-0.1219807341694831,-0.3736134469509125,-0.3720827102661133,0.5285480618476868
1630415949637,-0.117910660803318,-0.3507742285728454,-0.360160082578659,0.5285480618476868
1630415949840,-0.1135867312550544,-0.3296862840652466,-0.3500588238239288,0.5285480618476868
1630415949887,-0.110080100595951,-0.3123578727245331,-0.3413108587265014,0.5285480618476868
1630415949965,-0.1117391735315322,-0.3002634346485138,-0.3320218622684479,0.5285480618476868
1630415950090,-0.1195250526070594,-0.2937633693218231,-0.319989264011383,0.5285480618476868
1630415950200,-0.1359452754259109,-0.2926792800426483,-0.273867666721344,0.5285480618476868
1630415950278,-0.1594318151473999,-0.2959789633750915,-0.2328327149152755,0.5285480618476868
1630415950403,-0.1765273809432983,-0.3036048412322998,-0.2049776315689087,0.5285480618476868
1630415950481,-0.1827452629804611,-0.314221441745758,-0.1887821555137634,0.5285480618476868
1630415950606,-0.1756415218114853,-0.3244134783744812,-0.1750151067972183,0.5285480618476868
1630415950731,-0.1635294109582901,-0.3285169005393982,-0.1584407091140747,0.5285480618476868
1630415950778,-0.1587635278701782,-0.3249208629131317,-0.1444398909807205,0.5285480618476868
1630415950919,-0.1624207645654678,-0.3157786130905151,-0.1422453820705413,0.5285480618476868
1630415951075,-0.1676116436719894,-0.3062511086463928,-0.1567126959562301,0.5285480618476868
1630415951122,-0.1669144332408905,-0.2995451092720032,-0.1845929622650146,0.5467590689659119
1630415951168,-0.1553431749343872,-0.2923502326011657,-0.1949138641357422,0.5467590689659119
1630415951293,-0.1362465620040893,-0.2810536026954651,-0.2011409848928451,0.5467590689659119
1630415951418,-0.1143768802285194,-0.2669681906700134,-0.205014169216156,0.5467590689659119
1630415951496,-0.0933757200837135,-0.2534306943416595,-0.2069361358880996,0.5467590689659119
1630415951590,-0.0760240033268928,-0.2413412183523178,-0.2079343497753143,0.5467590689659119
1630415951731,-0.0650352090597152,-0.2282351404428482,-0.2214092165231704,0.5467590689659119
1630415951840,-0.0575191043317317,-0.2146954387426376,-0.2367836982011795,0.5467590689659119
1630415951918,-0.0510970465838909,-0.2035632878541946,-0.2474210113286972,0.5467590689659119
1630415951996,-0.0436385720968246,-0.197696641087532,-0.250565618276596,0.5467590689659119
1630415952090,-0.0377736985683441,-0.1966320425271988,-0.2506596446037292,0.506581723690033
1630415952262,-0.0373944379389286,-0.2005547434091568,-0.2521401941776275,0.4879722595214844
1630415952308,-0.0382719226181507,-0.2099770754575729,-0.2513163983821869,0.4465455114841461
1630415952427,-0.0340414866805076,-0.2253430783748626,-0.2411577701568603,0.4087008535861969
1630415952555,-0.0238263253122568,-0.2452684342861175,-0.2226166725158691,0.4194713830947876
1630415952649,-0.0110901221632957,-0.2673572599887848,-0.2046248018741607,0.4405095279216766
1630415952696,-0.0033445919398218,-0.2910552322864532,-0.1932615041732788,0.4417314529418945
1630415952821,-0.0046245283447206,-0.3168259859085083,-0.1848551779985427,0.4372815787792206
1630415952992,-0.0112126348540186,-0.3409235179424286,-0.1712937951087951,0.4286539256572723
1630415953039,-0.0146491006016731,-0.3561996221542358,-0.1519787013530731,0.4154207110404968
1630415953133,-0.0108653726056218,-0.3597425818443298,-0.1327293664216995,0.4055284857749939
1630415953211,0.0002567546325735,-0.3575739860534668,-0.1178403571248054,0.4101027250289917
1630415953305,0.0135638015344738,-0.3537851572036743,-0.1088098883628845,0.4274128079414367
1630415953430,0.0240312740206718,-0.3471222817897796,-0.1055860593914985,0.4464010894298553
1630415953570,0.0315435267984867,-0.3349163234233856,-0.1083857417106628,0.4585072696208954
1630415953633,0.03706606477499,-0.3209705650806427,-0.1161713376641273,0.4731926321983337
1630415953742,0.0439490191638469,-0.3085461258888244,-0.1252957880496978,0.4822049140930176
1630415953867,0.0508880019187927,-0.2944688498973846,-0.1349417567253112,0.4879146218299866
1630415953914,0.0530625507235527,-0.2757120728492737,-0.1481648683547973,0.4950230121612549
1630415954101,0.0484844557940959,-0.2557363212108612,-0.1652764230966568,0.5000454783439636
1630415954180,0.0353497490286827,-0.242629662156105,-0.1798802763223648,0.5039293766021729
1630415954242,0.019087765365839,-0.2419448494911193,-0.1842195838689804,0.5071135759353638
1630415954336,0.0078056096099317,-0.2516635954380035,-0.1810478270053863,0.5112703442573547
1630415954414,0.0022769682109355,-0.2656243443489074,-0.1821301877498626,0.5201548933982849
1630415954554,-0.0015880033606663,-0.2799601256847381,-0.1925301700830459,0.5336002111434937
1630415954648,-0.0076226643286645,-0.2933757901191711,-0.2061289101839065,0.5481833219528198
1630415954773,-0.0171228926628828,-0.3046129047870636,-0.2129207104444503,0.5457276105880737
1630415954867,-0.0264954939484596,-0.313853919506073,-0.2069676369428634,0.5352437496185303
1630415954961,-0.0331444591283798,-0.3237315714359283,-0.1873940676450729,0.5272582769393921
1630415955039,-0.0357924662530422,-0.3356391787528991,-0.1568592488765716,0.5298909544944763
1630415955148,-0.0374483056366443,-0.3451288938522339,-0.1224669143557548,0.5402657389640808
1630415955289,-0.0483745709061622,-0.3470198810100555,-0.0949994102120399,0.5481805205345154
1630415955351,-0.0586882308125495,-0.3448760509490967,-0.0798215344548225,0.5476333498954773
1630415955476,-0.0636688917875289,-0.3468438982963562,-0.0737818256020546,0.540203869342804
1630415955586,-0.0619358159601688,-0.3544337451457977,-0.0694770738482475,0.5357326865196228
1630415955617,-0.0511036850512027,-0.361834853887558,-0.0625584572553634,0.5351681113243103
1630415955726,-0.035394798964262,-0.3628560900688171,-0.0538795925676822,0.5389888286590576
1630415955898,-0.0186890885233879,-0.3567586839199066,-0.0457592569291591,0.5456488728523254
1630415955929,-0.0044128904119133,-0.3487340211868286,-0.0392043702304363,0.5456488728523254
1630415956070,0.0037431311793625,-0.3444429636001587,-0.0351309143006801,0.5456488728523254
1630415956242,0.0075521715916693,-0.3475542664527893,-0.0331402644515037,0.5456488728523254
1630415956288,0.0119109600782394,-0.3577723503112793,-0.0278762243688106,0.5720182061195374
1630415956413,0.0119109600782394,-0.3701969683170318,-0.0132439583539962,0.5965514779090881
1630415956492,0.0119109600782394,-0.3763285875320434,0.0086401756852865,0.6116320490837097
1630415956570,0.0119109600782394,-0.3682129979133606,0.0272481385618448,0.6095231175422668
1630415956679,0.0119109600782394,-0.3459539115428924,0.0334878973662853,0.5921704769134521
1630415956820,-0.0097926706075668,-0.3169830739498138,0.0279626864939928,0.5676565170288086
1630415956851,-0.0204060729593038,-0.290296345949173,0.0179936978965997,0.5415365099906921
1630415956991,-0.0241085924208164,-0.2686838209629059,0.0101580303162336,0.5226998925209045
1630415957116,-0.0192769076675176,-0.2510558068752289,0.0055215968750417,0.5083561539649963
1630415957194,-0.0140776308253407,-0.2345566600561142,0.0020383154042065,0.5083561539649963
1630415957304,-0.0103539433330297,-0.2160306423902511,-0.0027155235875397,0.5083561539649963
1630415957398,-0.0085971867665648,-0.1954724937677383,-0.0083198696374893,0.5083561539649963
1630415957460,-0.0050478768534958,-0.176831915974617,-0.0108071221038699,0.5083561539649963
1630415957572,0.0026560151018202,-0.164480984210968,-0.0066650127992033,0.5083561539649963
1630415957697,0.0108730988577008,-0.1594049483537674,0.0013368291547521,0.5083561539649963
1630415957807,0.017669279128313,-0.158725768327713,0.0022226499859243,0.488778680562973
1630415957931,0.0225025881081819,-0.1589437425136566,-0.0147394044324755,0.4580452740192413
1630415957994,0.0213223993778228,-0.1602469831705093,-0.0501939691603183,0.4122055470943451
1630415958056,0.0201350189745426,-0.1661483198404312,-0.091830775141716,0.3621958792209625
1630415958228,0.0164984855800867,-0.1781545132398605,-0.1224425062537193,0.3250539302825928
1630415958353,0.0103238867595791,-0.1909758299589157,-0.1326488256454467,0.3250539302825928
1630415958416,0.0051420833915472,-0.1961773633956909,-0.1262218356132507,0.3250539302825928
1630415958494,0.0006765792495571,-0.1926859617233276,-0.1128177195787429,0.3250539302825928
1630415958650,-0.0061318133957684,-0.187541201710701,-0.1019762307405471,0.3250539302825928
1630415958697,-0.0149112083017826,-0.1882704347372055,-0.1002483740448951,0.3250539302825928
1630415958759,-0.0256282687187194,-0.19771409034729,-0.1084095239639282,0.3250539302825928
1630415958947,-0.0349970832467079,-0.214911550283432,-0.1231702864170074,0.3250539302825928
1630415958994,-0.0397073738276958,-0.2332801073789596,-0.1413494199514389,0.3250539302825928
1630415959087,-0.0355486646294593,-0.2404751777648925,-0.1589033454656601,0.3250539302825928
1630415959244,-0.0152436345815658,-0.2263969033956527,-0.1659883558750152,0.3250539302825928
1630415959290,0.0227340068668127,-0.1962493062019348,-0.1529738306999206,0.3250539302825928
1630415959415,0.0661499053239822,-0.1653783768415451,-0.1224574074149131,0.8399479985237122
1630415959543,0.1048802882432937,-0.1447206437587738,-0.0897010266780853,0.8319478631019592
1630415959606,0.1339375078678131,-0.136814534664154,-0.0670575052499771,0.8159397840499878
1630415959762,0.1538143157958984,-0.1392247676849365,-0.0559808127582073,0.8003339767456055
1630415959809,0.1671615242958068,-0.1509283781051635,-0.0529271103441715,0.7819461822509766
1630415959887,0.1739434748888015,-0.1699093729257583,-0.0558842830359935,0.7570365071296692
1630415959996,0.1730546802282333,-0.1899307072162628,-0.063575342297554,0.728184163570404
1630415960168,0.1673307716846466,-0.2028427124023437,-0.0713793933391571,0.7005658745765686
1630415960230,0.1611168831586837,-0.2034623920917511,-0.0743160843849182,0.6772292852401733
1630415960308,0.1570394337177276,-0.1933336108922958,-0.0714463219046592,0.6578183770179749
1630415960418,0.152893990278244,-0.1771507710218429,-0.0675567463040351,0.6410108208656311
1630415960546,0.1437748372554779,-0.1612336337566375,-0.0654120147228241,0.6252844333648682
1630415960608,0.1245189383625984,-0.1528016030788421,-0.0651935711503028,0.6048312187194824
1630415960755,0.0893105044960975,-0.1571992039680481,-0.0688455700874328,0.5658074617385864
1630415960833,0.0337596423923969,-0.1718336790800094,-0.0800854712724685,0.5121556520462036
1630415960942,-0.0390793159604072,-0.1870278716087341,-0.0980159714818,0.4569036662578583
1630415961083,-0.1223638579249382,-0.1931362450122833,-0.1142322793602943,0.4068670868873596
1630415961130,-0.2022279053926468,-0.1861413568258285,-0.1203387454152107,0.3605512976646423
1630415961222,-0.2635835111141205,-0.1697127372026443,-0.1153027191758155,0.3190222382545471
1630415961374,-0.3006980717182159,-0.1500408947467804,-0.1040065735578537,0.2917850017547607
1630415961468,-0.3137055039405823,-0.1339765340089798,-0.0900937616825103,0.2883068025112152
1630415961561,-0.2998141050338745,-0.1273608803749084,-0.0759374648332595,0.2980963885784149
1630415961609,-0.2672076821327209,-0.1311796605587005,-0.0639099478721618,0.3048456013202667
1630415961722,-0.2263226211071014,-0.1416606158018112,-0.0536126755177974,0.3048326373100281
1630415961847,-0.1855957359075546,-0.1541289538145065,-0.0418759137392044,0.3050702512264251
1630415961957,-0.14821857213974,-0.1646865010261535,-0.0251150522381067,0.3140293061733246
1630415962035,-0.1164814755320549,-0.1698257029056549,-0.0054183918982744,0.3342606127262115
1630415962144,-0.0911943838000297,-0.1653859466314315,0.0116029791533946,0.3597353398799896
1630415962253,-0.0710403323173523,-0.1524218022823333,0.020685251802206,0.3786839246749878
1630415962394,-0.0514789037406444,-0.1396857947111129,0.0214757453650236,0.3911256194114685
1630415962441,-0.0271102301776409,-0.1364771276712417,0.0166720766574144,0.4049845933914184
1630415962546,0.0002002293913392,-0.1448956727981567,0.0096055110916495,0.4300733208656311
1630415962687,0.0218946188688278,-0.1602039784193039,0.0022571859881281,0.4645617604255676
1630415962828,0.0328844040632247,-0.1754305064678192,-0.0064021302387118,0.4937517344951629
1630415962859,0.0366116240620613,-0.1871271729469299,-0.0187021344900131,0.5088939666748047
1630415962953,0.0377521067857742,-0.1941412836313247,-0.0354211367666721,0.5097640156745911
1630415963093,0.0355936288833618,-0.1947897672653198,-0.0538201108574867,0.5053674578666687
1630415963171,0.0285193379968404,-0.1888300627470016,-0.0708906278014183,0.5033337473869324
1630415963296,0.0167092233896255,-0.1794568449258804,-0.0713029578328132,0.5048728585243225
1630415963421,0.0019040877232328,-0.1705587655305862,-0.0756295397877693,0.5075599551200867
1630415963515,-0.0125725483521819,-0.1653434038162231,-0.0873225480318069,0.5077740550041199
1630415963577,-0.0263353791087865,-0.165903091430664,-0.1072596162557601,0.504249095916748
1630415963640,-0.037272784858942,-0.1741558313369751,-0.1341701596975326,0.5000495314598083
1630415963843,-0.0405646935105323,-0.1880523860454559,-0.1637424528598785,0.4996905922889709
1630415963874,-0.0408952459692955,-0.2004287093877792,-0.196830078959465,0.5032040476799011
1630415964015,-0.0418569035828113,-0.2050990015268325,-0.2171209901571273,0.5048626065254211
1630415964062,-0.0435107834637165,-0.2029521316289901,-0.2279903143644333,0.4951070249080658
1630415964187,-0.0431140586733818,-0.2012947350740432,-0.2343977838754654,0.4783689379692077
1630415964281,-0.0385859422385692,-0.2060852646827697,-0.2382640540599823,0.4576598107814789
1630415964421,-0.0355212204158306,-0.2168885320425033,-0.2411548793315887,0.4434260725975036
1630415964514,-0.0377648882567882,-0.2292605936527252,-0.2419132590293884,0.441959947347641
1630415964626,-0.0434007942676544,-0.2375359982252121,-0.2415657192468643,0.4505001902580261
1630415964673,-0.0511130988597869,-0.2372227162122726,-0.2418050169944763,0.4648967981338501
1630415964814,-0.0620026737451553,-0.2264866530895233,-0.2552972137928009,0.4809753000736236
1630415964876,-0.0756684467196464,-0.2078044712543487,-0.2605484426021576,0.494279533624649
1630415965017,-0.0908513814210891,-0.1870752871036529,-0.2575649917125702,0.5019816756248474
1630415965142,-0.1012296304106712,-0.1704480648040771,-0.2490689754486084,0.5033943057060242
1630415965225,-0.1056452915072441,-0.1615662276744842,-0.2390084862709045,0.4972265064716339
1630415965334,-0.1123100668191909,-0.1613054722547531,-0.2280505299568176,0.4972265064716339
1630415965428,-0.121561050415039,-0.1673766374588012,-0.2128951847553253,0.4972265064716339
1630415965475,-0.135642796754837,-0.1752528399229049,-0.1956992745399475,0.4972265064716339
1630415965647,-0.1526486426591873,-0.1809036135673523,-0.1793150603771209,0.4972265064716339
1630415965725,-0.1653513461351394,-0.1832272708415985,-0.1663718223571777,0.4972265064716339
1630415965834,-0.1751589030027389,-0.1842455416917801,-0.155067890882492,0.4171076714992523
1630415965928,-0.1798057705163955,-0.1861163228750229,-0.1412143260240554,0.4229822158813476
1630415966037,-0.1779162883758545,-0.1903663873672485,-0.1260262131690979,0.4306109547615051
1630415966115,-0.1706617176532745,-0.1985936313867569,-0.1147579625248909,0.4323557913303375
1630415966209,-0.1588627994060516,-0.2122794538736343,-0.1100078299641609,0.4247587919235229
1630415966355,-0.1462947577238083,-0.2325227558612823,-0.1105062216520309,0.4116922318935394
1630415966418,-0.1347511261701584,-0.2591284215450287,-0.1144602671265602,0.4042052626609802
1630415966528,-0.12395840883255,-0.2882939279079437,-0.1223058775067329,0.406119555234909
1630415966640,-0.1154266223311424,-0.3122262358665466,-0.1348995417356491,0.406119555234909
1630415966749,-0.1100757718086242,-0.3246879875659942,-0.1513924449682235,0.406119555234909
1630415966859,-0.1045139208436012,-0.3258096873760223,-0.1713208258152008,0.406119555234909
1630415966937,-0.0999774187803268,-0.3207598328590393,-0.1960308700799942,0.406119555234909
1630415967031,-0.0976593121886253,-0.3107654452323913,-0.2273650020360946,0.4055491983890533
1630415967187,-0.0971869826316833,-0.29356449842453,-0.2648079693317413,0.4019415080547333
1630415967249,-0.100048154592514,-0.2694791555404663,-0.3060715794563293,0.400765061378479
1630415967359,-0.1003913730382919,-0.2440740764141082,-0.3491542935371399,0.3997134864330292
1630415967499,-0.0991274639964103,-0.222165822982788,-0.3919189572334289,0.3915492296218872
1630415967596,-0.1015274003148078,-0.204459398984909,-0.4292638897895813,0.3747814297676086
1630415967658,-0.1096978485584259,-0.1904577761888504,-0.4539732038974762,0.3560078740119934
1630415967736,-0.1096978485584259,-0.182206317782402,-0.4657318890094757,0.3560078740119934
1630415967814,-0.1096978485584259,-0.1821465939283371,-0.4690908193588257,0.3560078740119934
1630415967970,-0.1096978485584259,-0.1878660023212433,-0.4579362869262695,0.3560078740119934
1630415968033,-0.1096978485584259,-0.1911774426698684,-0.4071976244449615,0.3560078740119934
1630415968189,-0.1096978485584259,-0.1803436279296875,-0.3093473315238952,0.3560078740119934
1630415968236,-0.1096978485584259,-0.14884614944458,-0.1955852657556533,0.3423255681991577
1630415968395,-0.1096978485584259,-0.1043990701436996,-0.0994383692741394,0.3176326155662536
1630415968442,-0.1096978485584259,-0.0613910071551799,-0.0335639491677284,0.296463131904602
1630415968535,-0.1096978485584259,-0.0543045289814472,0.0061249709688127,0.2810918688774109
1630415968660,-0.1096978485584259,-0.0497886724770069,0.0302373394370079,0.2810918688774109
1630415968754,-0.1096978485584259,-0.0484609492123127,0.0476112812757492,0.2810918688774109
1630415968832,-0.1096978485584259,-0.0469281747937202,0.0616489388048648,0.2810918688774109
1630415968942,-0.1096978485584259,-0.0416120365262031,0.0725503489375114,0.2810918688774109
1630415969067,-0.1096978485584259,-0.0292659178376197,0.0804828330874443,0.2810918688774109
1630415969176,-0.1096978485584259,-0.0258415378630161,0.0873175635933876,0.2810918688774109
1630415969260,-0.1096978485584259,-0.0305995810776948,0.0957511812448501,0.2810918688774109
1630415969385,-0.1096978485584259,-0.0361980386078357,0.1051797121763229,0.2810918688774109
1630415969479,-0.1096978485584259,-0.0388171635568141,0.1112567707896232,0.2534351050853729
1630415969588,-0.1096978485584259,-0.0453527644276618,0.1054128631949424,0.2261746376752853
1630415969650,-0.1096978485584259,-0.0688328072428703,0.0807109996676445,0.2000176459550857
1630415969760,-0.1096978485584259,-0.1227984800934791,0.0392684936523437,0.2000176459550857
1630415969869,-0.1096978485584259,-0.2138932794332504,-0.0069144750013947,0.2000176459550857
1630415970041,-0.1096978485584259,-0.3404654264450073,-0.0433306917548179,0.2000176459550857
1630415970072,-0.1096978485584259,-0.3572431206703186,-0.0649833381175994,0.2000176459550857
1630415970182,-0.1096978485584259,-0.3715910911560058,-0.0780877023935318,0.2000176459550857
1630415970275,-0.1096978485584259,-0.3769063055515289,-0.0884568616747856,0.2000176459550857
1630415970338,-0.1096978485584259,-0.371970385313034,-0.0956801101565361,0.2000176459550857
1630415970526,-0.1096978485584259,-0.3595272302627563,-0.0983203202486038,0.2000176459550857
1630415970572,-0.1096978485584259,-0.3782888948917389,-0.0980640053749084,0.2000176459550857
1630415970728,-0.1096978485584259,-0.3736820816993713,-0.098990574479103,0.2000176459550857
1630415970791,-0.1060733422636985,-0.34468474984169,-0.1047782450914383,0.2000176459550857
1630415970869,-0.0933042541146278,-0.3062111437320709,-0.1151580885052681,0.2000176459550857
1630415970931,-0.0849640294909477,-0.2742222845554352,-0.1272308081388473,0.2000176459550857
1630415971088,-0.0667827129364013,-0.2532101273536682,-0.1363993883132934,0.2000176459550857
1630415971291,-0.0393959395587444,-0.2405485212802887,-0.140246957540512,0.3973508477210998
1630415971373,-0.0181690137833356,-0.2278658896684646,-0.1431979686021804,0.4083454012870788
1630415971435,-0.0101259900256991,-0.2048820555210113,-0.1509934961795807,0.4335200786590576
1630415971513,-0.0149367628619074,-0.1672943979501724,-0.1626983880996704,0.4612687826156616
1630415971669,-0.0272749681025743,-0.1216080486774444,-0.1688290387392044,0.4810539782047272
1630415971732,-0.0420942679047584,-0.0806526765227317,-0.1623412668704986,0.4877171814441681
1630415971826,-0.0575059242546558,-0.0530977323651313,-0.1473098844289779,0.48310387134552
1630415971857,-0.0710364654660224,-0.0382645800709724,-0.1334504783153534,0.4702052474021911
1630415972044,-0.0766020715236663,-0.0290589109063148,-0.1226855441927909,0.4526151120662689
1630415972076,-0.0829661861062049,-0.0179451778531074,-0.1088834851980209,0.4346721470355987
1630415972185,-0.0912030264735221,-0.0038867222610861,-0.0855724960565567,0.4204394221305847
1630415972341,-0.1006562113761901,0.0076724709942936,-0.0536749884486198,0.4147100150585174
1630415972419,-0.1089790686964988,0.0112347938120365,-0.0195828378200531,0.4163175821304321
1630415972513,-0.1167074218392372,0.007091041188687,0.0104847569018602,0.4242957532405853
1630415972607,-0.1306176930665969,0.0007382906042039,0.0318517573177814,0.4391376972198486
1630415972700,-0.1537308394908905,-0.0023721244651824,0.041482787579298,0.4576801061630249
1630415972872,-0.1771691739559173,-0.0024559088051319,0.0405348539352417,0.4759696125984192
1630415972966,-0.1898816227912902,-0.0053983340039849,0.0347322411835193,0.4899067878723144
1630415973060,-0.1891773492097854,-0.0180106535553932,0.0319356098771095,0.498997688293457
1630415973122,-0.1777011752128601,-0.0424912571907043,0.0354636684060096,0.5085894465446472
1630415973200,-0.159391239285469,-0.0736604630947113,0.042979821562767,0.5228456854820251
1630415973325,-0.1343552470207214,-0.1015204489231109,0.0512206591665744,0.5399342775344849
1630415973372,-0.1043338030576706,-0.1197660937905311,0.0605011135339736,0.5568956136703491
1630415973563,-0.0745607018470764,-0.1330586969852447,0.0719917193055152,0.5702148675918579
1630415973641,-0.0481968484818935,-0.1514844894409179,0.0837355479598045,0.5793931484222412
1630415973766,-0.0295133870095014,-0.1754439920186996,0.0903402119874954,0.5832203030586243
1630415973828,-0.0190869960933923,-0.1866627633571624,0.0887728706002235,0.5799359679222107
1630415973906,-0.0165579374879598,-0.1658378541469574,0.0815524831414222,0.5713868737220764
1630415974063,-0.0207619816064834,-0.1189864054322242,0.0746556892991066,0.5597838163375854
1630415974156,-0.0283065065741539,-0.0706815049052238,0.0727233737707138,0.545245349407196
1630415974266,-0.0370744355022907,-0.0370978638529777,0.0783313065767288,0.5269104242324829
1630415974344,-0.0445288904011249,-0.0190635845065116,0.0914719849824905,0.504028856754303
1630415974406,-0.0483126938343048,-0.0090690981596708,0.109717346727848,0.4782410860061645
1630415974503,-0.0460632182657718,0.0007357347640208,0.1268216222524643,0.4490269422531128
1630415974628,-0.0371601581573486,0.0137321501970291,0.1359304934740066,0.4124140441417694
1630415974768,-0.0271773114800453,0.0285134520381689,0.1339490264654159,0.3677184581756592
1630415974878,-0.020247608423233,0.0421280674636364,0.1229438036680221,0.3212946653366089
1630415975003,-0.0210914425551891,0.0537131391465663,0.1091878935694694,0.2813083827495575
1630415975034,-0.0274977684020996,0.0654985308647155,0.0988514646887779,0.2559004127979278
1630415975159,-0.0389173626899719,0.078839510679245,0.0953391268849372,0.2420152425765991
1630415975206,-0.0530434288084507,0.0899167284369468,0.0998871475458145,0.2350988537073135
1630415975362,-0.06390231102705,0.090691827237606,0.111713521182537,0.2326141893863678
1630415975506,-0.0689085870981216,0.0775916650891304,0.1271225661039352,0.2331815510988235
1630415975584,-0.0651639103889465,0.0559000112116336,0.1417838484048843,0.2404792606830597
1630415975662,-0.0567814745008945,0.0364465489983558,0.1534118056297302,0.2536775469779968
1630415975771,-0.0458564609289169,0.0240287631750106,0.1608756184577942,0.2663657963275909
1630415975849,-0.0366493202745914,0.0153570268303155,0.1639087200164795,0.2747921347618103
1630415975959,-0.0301671922206878,0.004309348296374,0.1621005535125732,0.2809940278530121
1630415976052,-0.0262527093291282,-0.0114276586100459,0.1561982482671737,0.2905065417289734
1630415976162,-0.0261817947030067,-0.0299430470913648,0.1497337073087692,0.3046336472034454
1630415976287,-0.0275889672338962,-0.0474078506231308,0.1468649208545684,0.3194299638271332
1630415976381,-0.0325189009308815,-0.059988547116518,0.1493105292320251,0.3300719559192657
1630415976490,-0.0426733270287513,-0.0659539997577667,0.1550462543964386,0.3360247313976288
1630415976584,-0.0591697432100772,-0.0684235468506813,0.161274567246437,0.3381088674068451
1630415976693,-0.0784851759672164,-0.0730429887771606,0.1666529476642608,0.3379139900207519
1630415976771,-0.0926881581544876,-0.0834259837865829,0.169766828417778,0.3378322422504425
1630415976880,-0.0984598323702812,-0.0976472869515419,0.1674293726682663,0.3397784531116485
1630415976958,-0.0922708436846733,-0.1116228699684143,0.1577129513025283,0.3438577950000763
1630415977068,-0.0777571946382522,-0.1235061511397361,0.1425718069076538,0.3461132347583771
1630415977224,-0.0548359714448452,-0.1338852643966674,0.1289600878953933,0.3423933088779449
1630415977287,-0.0321570634841918,-0.1408879905939102,0.1269087791442871,0.3358242213726043
1630415977396,-0.0135652422904968,-0.1403074413537979,0.1404732018709182,0.3307891190052032
1630415977521,-0.0021743539255112,-0.1299894601106643,0.1639454960823059,0.3270188868045807
1630415977630,0.0009062220924533,-0.1120212748646736,0.1889632642269134,0.3236114084720611
1630415977677,-0.0037824094761162,-0.091433934867382,0.2114247679710388,0.3177374005317688
1630415977849,-0.0129627836868166,-0.072407566010952,0.2332673817873001,0.3124341964721679
1630415977974,-0.0232517253607511,-0.055799338966608,0.2560823261737823,0.3131258189678192
1630415978021,-0.0281343311071395,-0.0417585745453834,0.2765773832798004,0.3211891055107116
1630415978083,-0.0248078554868698,-0.030662216246128,0.2885145843029022,0.3369375169277191
1630415978193,-0.0167779568582773,-0.0236982032656669,0.2889327704906463,0.3593001365661621
1630415978302,-0.0073175569996237,-0.0187405627220869,0.2806516587734222,0.384015828371048
1630415978442,-0.0023520793765783,-0.0124510833993554,0.2712159752845764,0.4037011563777923
1630415978552,-0.0070890435017645,-0.002697060117498,0.2670579552650451,0.4148330986499786
1630415978692,-0.0204547587782144,0.0081716747954487,0.2690722942352295,0.4183788299560547
1630415978739,-0.0454819649457931,0.0156825426965951,0.2718257009983063,0.41767418384552
1630415978786,-0.0773552432656288,0.0172214526683092,0.2675630748271942,0.4150620102882385
1630415978880,-0.1110904589295387,0.0119957905262708,0.2521954476833343,0.4116727709770202
1630415979083,-0.1459903866052627,0.0018317649373784,0.2274456471204757,0.4113008081912994
1630415979114,-0.1712261736392974,-0.0110603850334882,0.1983113288879394,0.4212711453437805
1630415979239,-0.1738161593675613,-0.0248684342950582,0.1684817820787429,0.4453914165496826
1630415979333,-0.1474324762821197,-0.0388236753642559,0.1369099169969558,0.4740074574947357
1630415979411,-0.1004580780863761,-0.0549393892288208,0.102546639740467,0.4936871230602264
1630415979505,-0.0564233064651489,-0.0749430209398269,0.0685689151287078,0.49777552485466
1630415979648,-0.0255143754184246,-0.0975645035505294,0.0436189286410808,0.4864875376224518
1630415979742,-0.0067674606107175,-0.1180625781416893,0.0351385064423084,0.4662260711193084
1630415979835,0.0071610258892178,-0.1357130408287048,0.0425658822059631,0.4464181065559387
1630415979929,0.0243240315467119,-0.155066430568695,0.0570611134171485,0.4358771443367004
1630415980038,0.0426685698330402,-0.1824446320533752,0.0707051828503608,0.4337628185749054
1630415980132,0.0583385936915874,-0.2168600708246231,0.0792631581425666,0.4314416646957397
1630415980272,0.0708727240562439,-0.248981162905693,0.081737995147705,0.42485111951828
1630415980398,0.0802434831857681,-0.2688076198101043,0.078078880906105,0.4177725315093994
1630415980445,0.0868342593312263,-0.2754247784614563,0.0688828825950622,0.4180244207382202
1630415980576,0.091947354376316,-0.2769152820110321,0.0569105334579944,0.4242741763591766
1630415980638,0.0903020054101944,-0.2804592251777649,0.0458933785557746,0.422517716884613
1630415980748,0.0777660086750984,-0.287108838558197,0.0390848964452743,0.4054416418075561
1630415980857,0.0684443712234497,-0.2925093173980713,0.0388247445225715,0.3761923909187317
1630415980919,0.0432527884840965,-0.2901078462600708,0.042715311050415,0.3469984233379364
1630415981076,0.0120916366577148,-0.2772347629070282,0.044692538678646,0.3303661346435547
1630415981169,-0.0141482632607221,-0.259184718132019,0.037852969020605,0.3261782228946686
1630415981279,-0.0290405005216598,-0.243481159210205,0.0185891278088092,0.3260031938552856
1630415981326,-0.0408252775669097,-0.2334867268800735,-0.0104360654950141,0.3202333450317383
1630415981482,-0.0632542595267295,-0.2275355458259582,-0.0410549901425838,0.3024283945560455
1630415981578,-0.1022119596600532,-0.2231654673814773,-0.0662423893809318,0.2795550227165222
1630415981625,-0.1435452103614807,-0.2209470868110656,-0.0793981030583381,0.2669335007667541
1630415981766,-0.1838686019182205,-0.223096415400505,-0.0700039491057396,0.2724513113498688
1630415981875,-0.216360256075859,-0.2296478450298309,-0.0322544649243354,0.2870529890060425
1630415981969,-0.2443392127752304,-0.238508403301239,0.0225291773676872,0.2924481928348541
1630415982078,-0.2572349905967712,-0.2462022453546524,0.0727222114801406,0.2812717854976654
1630415982203,-0.2419675886631012,-0.2484122514724731,0.1048358678817749,0.2615837156772613
1630415982266,-0.2085373252630233,-0.2418889701366424,0.1180839762091636,0.2409859001636505
1630415982375,-0.1861268877983093,-0.2266215980052948,0.120637759566307,0.2273241877555847
1630415982447,-0.1735251098871231,-0.209024503827095,0.1236858591437339,0.2241592854261398
1630415982553,-0.1716870069503784,-0.197406530380249,0.1339603811502456,0.2259492725133896
1630415982677,-0.1701340526342392,-0.1956837177276611,0.1498025506734848,0.2315365523099899
1630415982849,-0.1650957614183426,-0.201074331998825,0.1641649603843689,0.240409716963768
1630415982896,-0.1539679914712906,-0.2074685543775558,0.1718489676713943,0.2522663474082947
1630415982974,-0.1393289864063263,-0.210228219628334,0.1734595000743866,0.2686307430267334
1630415983116,-0.1273441761732101,-0.2100608348846435,0.1721671968698501,0.2825775146484375
1630415983204,-0.1182134598493576,-0.2096525132656097,0.166724294424057,0.2880690693855285
1630415983305,-0.1140084713697433,-0.2101323306560516,0.1497803479433059,0.2820686101913452
1630415983400,-0.1152434200048446,-0.2094831466674804,0.1147656738758087,0.2637396156787872
1630415983494,-0.1149051040410995,-0.2028035670518875,0.064726173877716,0.2397756427526474
1630415983603,-0.1151610612869262,-0.1881920248270034,0.0156933665275573,0.2165654748678207
1630415983680,-0.1147195324301719,-0.1701760590076446,-0.0132123678922653,0.2165654748678207
1630415983760,-0.112478569149971,-0.1560827046632766,-0.0177066717296838,0.2165654748678207
1630415983887,-0.1096398308873176,-0.1517453044652938,-0.0129049783572554,0.2165654748678207
1630415983996,-0.0964269489049911,-0.1583157628774643,-0.0165733303874731,0.2165654748678207
1630415984076,-0.0655194148421287,-0.1738940924406051,-0.0349026843905448,0.2663255333900451
1630415984201,-0.0227607507258653,-0.1918036043643951,-0.061467595398426,0.2782213389873504
1630415984276,0.0165175125002861,-0.204379916191101,-0.0847243070602417,0.2849510610103607
1630415984389,0.0380205661058425,-0.2074963748455047,-0.0983862727880477,0.2859358191490173
1630415984544,0.0401569306850433,-0.2037292122840881,-0.1062980815768241,0.283043771982193
1630415984589,0.0322580374777317,-0.1976663768291473,-0.1143034696578979,0.2751927673816681
1630415984732,0.0227114986628294,-0.1920648664236068,-0.1229531913995742,0.2678599953651428
1630415984793,0.0188641417771577,-0.1868268400430679,-0.1262497752904892,0.2604747712612152
1630415984936,0.0248157996684312,-0.1826173961162567,-0.1164399236440658,0.2547600269317627
1630415984982,0.0350326560437679,-0.1828215569257736,-0.0950811654329299,0.2517802119255066
1630415985172,0.0512446574866771,-0.1913762688636779,-0.0748699754476547,0.2513955533504486
1630415985233,0.0645020306110382,-0.2088702768087387,-0.0673495233058929,0.2518820762634277
1630415985295,0.0736952200531959,-0.2295227199792862,-0.073667824268341,0.258137047290802
1630415985437,0.0801598876714706,-0.2434223592281341,-0.0858077630400657,0.2576318681240082
1630415985483,0.0801413431763649,-0.244670107960701,-0.0929241403937339,0.2520592808723449
1630415985576,0.0454120449721813,-0.235579028725624,-0.0912230908870697,0.2465084791183471
1630415985764,-0.0085401274263858,-0.2247624993324279,-0.0834711045026779,0.2380881160497665
1630415985825,-0.0689089000225067,-0.2196956872940063,-0.0736845135688781,0.2283487766981125
1630415985919,-0.1281056255102157,-0.2231261283159256,-0.066394418478012,0.2197239249944687
1630415986027,-0.1626437157392501,-0.2337350845336914,-0.0653918981552124,0.2132953703403473
1630415986183,-0.1366220265626907,-0.2474606484174728,-0.0710907205939292,0.2143876850605011
1630415986261,-0.0941008552908897,-0.2576881051063537,-0.0779438540339469,0.2180466204881668
1630415986354,-0.025947893038392,-0.2551777064800262,-0.0760806426405906,0.2273360192775726
1630415986435,0.0600509755313396,-0.2533402144908905,-0.0792382732033729,0.2273360192775726
1630415986496,0.0780093222856521,-0.2527494430541992,-0.0915490314364433,0.2273360192775726
1630415986604,0.0780093222856521,-0.2512506544589996,-0.109363779425621,0.2273360192775726
1630415986729,0.0780093222856521,-0.245705708861351,-0.1215778067708015,0.2273360192775726
1630415986809,0.0780093222856521,-0.2377565652132034,-0.1206727027893066,0.2273360192775726
1630415986938,0.0780093222856521,-0.2365831881761551,-0.1110928505659103,0.2273360192775726
1630415987046,0.0780093222856521,-0.2535654008388519,-0.1072322130203247,0.2273360192775726
1630415987093,0.1150683090090751,-0.295114666223526,-0.118687979876995,0.2273360192775726
1630415987249,0.1596273183822631,-0.3592122495174408,-0.1470972746610641,0.2273360192775726
1630415987406,0.1596273183822631,-0.4326585531234741,-0.1895574629306793,0.2273360192775726
1630415987414,0.1596273183822631,-0.4326585531234741,-0.1895574629306793,0.2273360192775726
1630415987544,0.1596273183822631,-0.4326585531234741,-0.1895574629306793,0.2273360192775726
1630415987639,0.1596273183822631,-0.4326585531234741,-0.1895574629306793,0.2273360192775726
1630415987749,0.1596273183822631,-0.4326585531234741,-0.1895574629306793,0.2273360192775726
1630415987871,0.1596273183822631,-0.4326585531234741,-0.1895574629306793,0.2273360192775726
1630415987950,0.1596273183822631,-0.4326585531234741,-0.1895574629306793,0.2273360192775726
1630415988075,0.1596273183822631,-0.4326585531234741,-0.1895574629306793,0.2273360192775726
1630415988171,0.1596273183822631,-0.4326585531234741,-0.1895574629306793,0.2273360192775726
1630415988249,0.1596273183822631,-0.4326585531234741,-0.1895574629306793,0.2273360192775726
1630415988360,0.1596273183822631,-0.4326585531234741,-0.1895574629306793,0.2273360192775726
1630415988492,0.1596273183822631,-0.4326585531234741,-0.1895574629306793,0.2273360192775726
1630415988516,0.1596273183822631,-0.4326585531234741,-0.1895574629306793,0.2273360192775726
1630415988655,0.1596273183822631,-0.4326585531234741,-0.1895574629306793,0.2273360192775726
1630415988797,0.1596273183822631,-0.4326585531234741,-0.1895574629306793,0.2273360192775726
1630415988878,0.1596273183822631,-0.4326585531234741,-0.1895574629306793,0.2273360192775726
1630415988952,0.1596273183822631,-0.4326585531234741,-0.1895574629306793,0.2273360192775726
1630415989092,0.1596273183822631,-0.4326585531234741,-0.1895574629306793,0.2273360192775726
1630415989201,0.1596273183822631,-0.4326585531234741,-0.1895574629306793,0.2273360192775726
1630415989264,0.1596273183822631,-0.4326585531234741,0.6359296441078186,0.2273360192775726
1630415989374,0.1596273183822631,0.6159066557884216,0.6359296441078186,0.2273360192775726
1630415989502,0.1596273183822631,0.6159066557884216,0.6359296441078186,0.2273360192775726
1630415989560,0.1596273183822631,0.6159066557884216,0.6359296441078186,0.2273360192775726
1630415989637,0.1596273183822631,0.6159066557884216,0.6359296441078186,0.2273360192775726
1630415989779,0.1596273183822631,0.6159066557884216,0.6359296441078186,0.2273360192775726
1630415989858,0.1596273183822631,0.6159066557884216,0.6359296441078186,0.2273360192775726
1630415990000,0.1596273183822631,0.6159066557884216,0.6359296441078186,0.2273360192775726
1630415990110,0.1596273183822631,0.6159066557884216,0.6359296441078186,0.2273360192775726
1630415990201,0.1596273183822631,0.6159066557884216,0.6359296441078186,0.2273360192775726
1630415990294,0.1596273183822631,0.6159066557884216,0.6359296441078186,0.2273360192775726
1630415990371,0.1596273183822631,0.6159066557884216,0.6359296441078186,0.2273360192775726
1630415990462,0.1596273183822631,0.6159066557884216,0.6359296441078186,0.2273360192775726
1630415990605,0.1596273183822631,0.6159066557884216,0.6359296441078186,0.2273360192775726
1630415990684,0.1596273183822631,0.6159066557884216,0.6359296441078186,0.2273360192775726
1630415990812,0.1596273183822631,0.6159066557884216,0.6359296441078186,0.2273360192775726
1630415990870,0.1596273183822631,0.6159066557884216,0.6359296441078186,0.2273360192775726
1630415991056,-0.0102136246860027,0.6159066557884216,0.6359296441078186,0.2273360192775726
1630415991146,0.0498346015810966,0.6159066557884216,0.6359296441078186,0.2273360192775726
1630415991246,0.0826588198542594,0.6159066557884216,0.6359296441078186,0.2273360192775726
1630415991339,0.0884680971503257,0.6159066557884216,-0.2192674279212951,0.2273360192775726
1630415991402,0.0764571279287338,0.6159066557884216,-0.2246313989162445,0.2273360192775726
1630415991494,0.0764571279287338,0.6159066557884216,-0.2185431569814682,0.2273360192775726
1630415991589,0.0764571279287338,0.6159066557884216,-0.2064862549304962,0.2273360192775726
1630415991685,0.0764571279287338,0.6159066557884216,-0.1969011276960373,0.2273360192775726
1630415991814,0.0764571279287338,0.6159066557884216,-0.1916358321905136,0.2273360192775726
1630415991917,0.0764571279287338,0.6159066557884216,-0.1916358321905136,0.2273360192775726
1630415991995,0.0764571279287338,-0.4579547047615051,-0.1916358321905136,0.2273360192775726
1630415992107,0.0764571279287338,-0.454191505908966,-0.1916358321905136,0.2273360192775726
1630415992217,0.1066699028015136,-0.4190790355205536,-0.1916358321905136,0.2273360192775726
1630415992328,0.1348435282707214,-0.3631908297538757,-0.1916358321905136,0.2273360192775726
1630415992404,0.1516246348619461,-0.3066374957561493,-0.1916358321905136,0.3614713847637176
1630415992495,0.1486755758523941,-0.2622227072715759,-0.1893042176961898,0.3614713847637176
1630415992604,0.1486755758523941,-0.2339792549610138,-0.1889991909265518,0.3614713847637176
1630415992698,0.1486755758523941,-0.2198148071765899,-0.18401999771595,0.3614713847637176
1630415992792,0.1486755758523941,-0.2158133089542389,-0.1707304120063781,0.3614713847637176
1630415992917,0.1486755758523941,-0.2175593674182891,-0.1536316275596618,0.3788264393806457
1630415993027,0.1486755758523941,-0.2199233770370483,-0.1536316275596618,0.3820978105068207
1630415993156,0.1486755758523941,-0.2165348082780838,-0.1536316275596618,0.3820978105068207
1630415993198,0.1486755758523941,-0.1926426589488983,-0.1536316275596618,0.3820978105068207
1630415993337,0.1486755758523941,-0.1591330617666244,-0.1536316275596618,0.3820978105068207
1630415993509,0.1486755758523941,-0.122551217675209,-0.1536316275596618,0.3846244812011719
1630415993574,0.1486755758523941,-0.0919370055198669,-0.1536316275596618,0.3846244812011719
1630415993650,-0.2698190808296203,-0.0721139162778854,-0.1536316275596618,0.3771411478519439
1630415993751,-0.275622546672821,-0.0635681077837944,-0.1536316275596618,0.3700060844421386
1630415993885,-0.2704429924488067,-0.064122661948204,-0.1536316275596618,0.3777762949466705
1630415993931,-0.2487838715314865,-0.0700051560997963,-0.0580245964229106,0.3777762949466705
1630415994011,-0.217392235994339,-0.0769771710038185,-0.072689950466156,0.4036560654640198
1630415994120,-0.1872586607933044,-0.0824903771281242,-0.1001558676362037,0.3810852169990539
1630415994278,-0.1617976725101471,-0.0857683345675468,-0.1246702373027801,0.352658212184906
1630415994357,-0.1469779163599014,-0.0843590572476387,-0.1381594836711883,0.329064130783081
1630415994449,-0.134071335196495,-0.0768152698874473,-0.1421779990196228,0.2887517511844635
1630415994558,-0.1235113367438316,-0.0670366361737251,-0.1429173797369003,0.2547567784786224
1630415994669,-0.1169445440173149,-0.0639967396855354,-0.1463848650455474,0.2432974427938461
1630415994731,-0.1159982308745384,-0.0742841958999633,-0.1537379920482635,0.230509340763092
1630415994906,-0.1176282986998558,-0.0963407978415489,-0.1599037200212478,0.2187730222940445
1630415994981,-0.1093885451555252,-0.1220124065876007,-0.1598288863897323,0.1822354048490524
1630415995076,-0.0971473008394241,-0.1434278637170791,-0.1545860320329666,0.1730928272008896
1630415995152,-0.0766713544726371,-0.1595367789268493,-0.1481676995754242,0.165135383605957
1630415995231,-0.0491702109575271,-0.173717200756073,-0.1533138155937194,0.1574954539537429
1630415995339,-0.0217378698289394,-0.1892700046300888,-0.169055551290512,0.1499925255775451
1630415995483,-0.0026971774641424,-0.2038595974445343,-0.1860972046852111,0.1427546739578247
1630415995544,0.003417327767238,-0.2126588076353073,-0.1958686113357544,0.1173649057745933
1630415995669,-0.000926585169509,-0.2130685299634933,-0.1972412317991256,0.108493186533451
1630415995745,-0.0071046729572117,-0.2086953818798065,-0.193326711654663,0.1184479743242263
1630415995838,-0.0103319277986884,-0.208211749792099,-0.1879281997680664,0.1362327635288238
1630415995948,-0.0092389015480875,-0.2168218344449997,-0.1846797913312912,0.1517495363950729
1630415996136,-0.0051938719116151,-0.2311609834432602,-0.1843076050281524,0.1622136682271957
1630415996214,-0.0019607283174991,-0.2430127412080764,-0.1807683259248733,0.1732115298509597
1630415996258,-0.0017323120264336,-0.2471261024475097,-0.1672592908143997,0.1895685046911239
1630415996353,-0.0059647629968822,-0.2468883246183395,-0.1479512453079223,0.2106479555368423
1630415996497,-0.0130097698420286,-0.2481957077980041,-0.133180022239685,0.2335140109062194
1630415996558,-0.0197481475770473,-0.2525815963745117,-0.126249223947525,0.2551515400409698
1630415996718,-0.0255088862031698,-0.2560737431049347,-0.1209325417876243,0.2735549509525299
1630415996792,-0.0323321148753166,-0.2554859220981598,-0.1110264733433723,0.2870804667472839
1630415996871,-0.0434346385300159,-0.2526016235351562,-0.0972008109092712,0.2972590625286102
1630415996981,-0.0599377267062664,-0.2550374269485473,-0.0845307111740112,0.3058468699455261
1630415997111,-0.078779436647892,-0.269281268119812,-0.0756189152598381,0.3126493692398071
1630415997171,-0.0957674756646156,-0.2929142415523529,-0.0712934806942939,0.314952552318573
1630415997299,-0.1103623732924461,-0.3152915835380554,-0.0736173018813133,0.3107230365276336
1630415997378,-0.1242402344942092,-0.3263871669769287,-0.0829812884330749,0.302745521068573
1630415997502,-0.1395873576402664,-0.3274449110031128,-0.0953922271728515,0.2952956259250641
1630415997628,-0.1561132371425628,-0.3278832733631134,-0.1050901487469673,0.2913389205932617
1630415997722,-0.1671778857707977,-0.332982987165451,-0.1110239252448082,0.2884824573993683
1630415997769,-0.1681972742080688,-0.339473009109497,-0.1173718348145484,0.2833558619022369
1630415997879,-0.1596258282661438,-0.3366843461990356,-0.1253779083490371,0.2747636437416076
1630415998021,-0.148749440908432,-0.3194787800312042,-0.1330122053623199,0.2654024362564087
1630415998096,-0.1439114511013031,-0.2943152189254761,-0.1401389241218567,0.2584554255008697
1630415998176,-0.1444054096937179,-0.2736865282058716,-0.1513861119747162,0.258668303489685
1630415998331,-0.145183265209198,-0.2643336355686188,-0.1699806600809097,0.2686928510665893
1630415998377,-0.1393119245767593,-0.2630545496940613,-0.1908846646547317,0.2843256592750549
1630415998532,-0.1256690025329589,-0.2611070573329925,-0.1995977908372879,0.2995646297931671
1630415998610,-0.1105997189879417,-0.2522118389606476,-0.186700701713562,0.308409720659256
1630415998721,-0.0990445762872695,-0.2376190572977066,-0.1557791233062744,0.3098852336406708
1630415998800,-0.094339407980442,-0.2209161072969436,-0.1189350336790084,0.3062493801116943
1630415998925,-0.0958988517522811,-0.2038557529449463,-0.0856067538261413,0.2992053925991058
1630415999038,-0.1008964627981185,-0.1860359460115432,-0.0585860311985015,0.2924619019031524
1630415999176,-0.1067031696438789,-0.1685231775045395,-0.037526823580265,0.2870167195796966
1630415999237,-0.113187663257122,-0.153230145573616,-0.0228161569684743,0.2838025689125061
1630415999315,-0.1215516850352287,-0.1423342376947403,-0.0149451931938529,0.2849352359771728
1630415999445,-0.1295379996299743,-0.138594776391983,-0.0123010100796818,0.2887305915355682
1630415999552,-0.1346567273139953,-0.1421629041433334,-0.0091630183160305,0.2903426587581634
1630415999599,-0.1365181356668472,-0.1454957127571106,-0.0002254023856949,0.2845591008663177
1630415999726,-0.1422546207904815,-0.1339744478464126,0.0138934729620814,0.2688429355621338
1630415999838,-0.1584578305482864,-0.0990091636776924,0.0279792193323373,0.2457625567913055
1630415999897,-0.1836234182119369,-0.0500134266912937,0.0374366827309131,0.2197857946157455
1630416000054,-0.2070885598659515,-0.0056010242551565,0.0397321283817291,0.1978452205657959
1630416000134,-0.2111103683710098,0.0232532750815153,0.035008255392313,0.1884013414382934
1630416000227,-0.193581536412239,0.0364464409649372,0.0246795713901519,0.1920966655015945
1630416000369,-0.1636316925287246,0.0385623537003994,0.0120540270581841,0.2079771757125854
1630416000428,-0.1346397995948791,0.0338029935956001,-0.0002894931531045,0.2294592559337616
1630416000539,-0.1135887876152992,0.026033766567707,-0.0113230291754007,0.2498752921819687
1630416000664,-0.0992752537131309,0.0201407857239246,-0.0192056875675916,0.2651272118091583
1630416000743,-0.0900182276964187,0.0192917063832283,-0.0199566315859556,0.269342303276062
1630416000838,-0.0841675102710723,0.0226817540824413,-0.0124995987862348,0.2612305283546448
1630416001025,-0.0819299593567848,0.0275047868490219,-0.0028199204243719,0.2441329956054687
1630416001070,-0.0837347954511642,0.0322868898510932,-0.0002843262045644,0.2264823913574218
1630416001148,-0.0859518498182296,0.0347864665091037,-0.0094456085935235,0.2170076519250869
1630416001226,-0.0858870223164558,0.0303091183304786,-0.0258495565503835,0.2171086370944976
1630416001322,-0.0822419747710228,0.0150273283943533,-0.0409254767000675,0.2222128212451934
1630416001446,-0.0793132707476615,-0.007685006596148,-0.0499708987772464,0.2258368879556656
1630416001589,-0.0811289027333259,-0.0280038546770811,-0.0545255243778228,0.2226967811584472
1630416001685,-0.0910404920578002,-0.0380400232970714,-0.0568982623517513,0.2103193700313568
1630416001782,-0.1077306717634201,-0.0370741225779056,-0.0572057962417602,0.1919048577547073
1630416001857,-0.122169941663742,-0.0258068591356277,-0.0554482713341712,0.168591633439064
1630416001952,-0.1266765594482422,-0.0035307873040437,-0.0520400032401084,0.143016442656517
1630416002032,-0.118747092783451,0.0277464482933282,-0.0487947650253772,0.1177573949098587
1630416002154,-0.1044746935367584,0.0626468434929847,-0.0496916808187961,0.0986573994159698
1630416002281,-0.0935678780078888,0.0953596979379654,-0.0594251304864883,0.0948605164885521
1630416002405,-0.0853497982025146,0.1223741769790649,-0.0779081583023071,0.1052822098135948
1630416002452,-0.0778919979929924,0.1427462846040725,-0.0968706011772155,0.123593769967556
1630416002561,-0.0704068690538406,0.156365305185318,-0.1036010161042213,0.1410293877124786
1630416002654,-0.0653644129633903,0.163938820362091,-0.0924693793058395,0.1515225321054458
1630416002812,-0.0637894719839096,0.1663213819265365,-0.0707209482789039,0.1542699635028839
1630416002923,-0.0653905719518661,0.1642476320266723,-0.050042774528265,0.1499853581190109
1630416002955,-0.0673390477895736,0.1587288677692413,-0.037536583840847,0.1427423506975174
1630416003078,-0.0680848434567451,0.1511859744787216,-0.033838614821434,0.1375498324632644
1630416003155,-0.0675629526376724,0.1425048112869262,-0.0368421748280525,0.1353837102651596
1630416003236,-0.0643699467182159,0.1321398913860321,-0.0440759919583797,0.1356047540903091
1630416003405,-0.0621109716594219,0.1181208118796348,-0.053800843656063,0.1359141170978546
1630416003515,-0.0629900246858596,0.098543107509613,-0.0648927167057991,0.1356014907360077
1630416003593,-0.0673297420144081,0.0743797570466995,-0.0763392299413681,0.1348938792943954
1630416003704,-0.073033332824707,0.0477033331990242,-0.0874700993299484,0.1323878616094589
1630416003799,-0.0704740658402443,0.020384132862091,-0.0976085439324379,0.128714382648468
1630416003874,-0.0612433925271034,-0.0055604381486773,-0.1069425493478775,0.1236927509307861
1630416003984,-0.0509798154234886,-0.026568729430437,-0.1178957521915435,0.1183752119541168
1630416004109,-0.0428876280784606,-0.0384991057217121,-0.134172037243843,0.1175422370433807
1630416004203,-0.0391234941780567,-0.0412062406539917,-0.1583071202039718,0.1223330199718475
1630416004282,-0.0349780619144439,-0.0401130020618438,-0.1874054074287414,0.1313675194978714
1630416004392,-0.0229182206094265,-0.0409613326191902,-0.2112800925970077,0.1412420570850372
1630416004487,-0.0024139815941452,-0.0460226722061634,-0.2182711064815521,0.1479285508394241
1630416004580,0.0218838099390268,-0.0515769384801387,-0.2078473269939422,0.1491402238607406
1630416004724,0.0436528287827968,-0.0520085953176021,-0.1895110160112381,0.1466441303491592
1630416004817,0.0570991598069667,-0.0462265200912952,-0.1719110310077667,0.1397175341844558
1630416004927,0.0626056566834449,-0.0400810949504375,-0.1562358289957046,0.1292613446712494
1630416005005,0.0597569644451141,-0.0397204384207725,-0.1417567133903503,0.1145980060100555
1630416005116,0.0489227920770645,-0.0472980961203575,-0.1298766732215881,0.0976180657744407
1630416005224,0.0332614108920097,-0.0587102584540843,-0.1224527135491371,0.0792804956436157
1630416005302,0.0139537127688527,-0.0690822973847389,-0.1189423501491546,0.0611993372440338
1630416005410,-0.0051921010017395,-0.0739937797188758,-0.1161544471979141,0.0518094450235366
1630416005489,-0.0199194215238094,-0.0739512890577316,-0.1105522140860557,0.0557320863008499
1630416005664,-0.0316075198352336,-0.0722017064690589,-0.1012855842709541,0.0675311386585235
1630416005715,-0.0406806655228138,-0.0706145167350769,-0.0907592251896858,0.0788065195083618
1630416005821,-0.049522079527378,-0.066947616636753,-0.08184165507555,0.0853835716843605
1630416005958,-0.0610046908259391,-0.067377932369709,-0.0759215429425239,0.0897550508379936
1630416006091,-0.0696066543459892,-0.0596708320081234,-0.0761474817991256,0.0993221327662468
1630416006132,-0.0713832378387451,-0.0498705022037029,-0.084727793931961,0.1175653710961341
1630416006244,-0.0690052285790443,-0.0433799102902412,-0.102851890027523,0.1378150284290313
1630416006287,-0.0660698562860488,-0.0389573387801647,-0.1204985901713371,0.1589328199625015
1630416006533,-0.0696373060345649,-0.0298780612647533,-0.1395887732505798,0.1759808212518692
1630416006559,-0.0767664462327957,-0.0083369864150881,-0.1578041911125183,0.1924998164176941
1630416006662,-0.0815064460039138,-0.0001772240648278,-0.1617490798234939,0.2134130001068115
1630416006726,-0.0788440555334091,-0.0073163113556802,-0.1385543197393417,0.2345946878194809
1630416006789,-0.0654066875576973,-0.0210085101425647,-0.0943775326013565,0.2539901733398437
1630416006932,-0.0452633649110794,-0.0352567732334136,-0.0474429801106452,0.2664360105991363
1630416007024,-0.02764842659235,-0.0492849387228488,-0.0110713262110948,0.2682903110980987
1630416007151,-0.0175403021275997,-0.0669507458806037,0.0107883643358945,0.2592799663543701
1630416007265,-0.0153555208817124,-0.0896205231547355,0.0123223690316081,0.2266428470611572
1630416007368,-0.0192651990801095,-0.1108739599585533,0.0097288889810442,0.1957474648952484
1630416007494,-0.0272254459559917,-0.0998851731419563,0.0050354292616248,0.1712983250617981
1630416007554,-0.0427749529480934,-0.0837100744247436,-0.0002876382495742,0.1524671465158462
1630416007644,-0.0659098476171493,-0.0660209655761718,-0.0062439860776066,0.1381724327802658
1630416007772,-0.0885158404707908,-0.0513393580913543,-0.0062379566952586,0.1347485929727554
1630416007897,-0.1017674058675766,-0.0387800820171833,-0.0075057405047118,0.136599063873291
1630416007943,-0.0973014682531356,-0.0242854282259941,-0.0076557206921279,0.1473332792520523
1630416008022,-0.0832440480589866,-0.0086043030023574,-0.0075121740810573,0.1613760441541671
1630416008114,-0.0691647976636886,0.0164183657616376,-0.0118557577952742,0.1769805699586868
1630416008303,-0.0617226175963878,0.0411377847194671,-0.0250070840120315,0.2018535733222961
1630416008366,-0.0661642253398895,0.058100800961256,-0.0456495434045791,0.2301038801670074
1630416008530,-0.0801626145839691,0.0688564553856849,-0.0692052468657493,0.2527390718460083
1630416008599,-0.0974034592509269,0.0775780826807022,-0.0897280424833297,0.2624464631080627
1630416008663,-0.1082886010408401,0.0846221148967742,-0.1018741875886917,0.2587737739086151
1630416008838,-0.1053908392786979,0.0874600932002067,-0.1018130183219909,0.2576497793197632
1630416008885,-0.0896782130002975,0.0836077332496643,-0.0910129249095916,0.2534665167331695
1630416009026,-0.0660569444298744,0.0727229416370391,-0.0760219246149063,0.2511210739612579
1630416009104,-0.0371834561228752,0.0567793883383274,-0.0639992952346801,0.2518508732318878
1630416009182,-0.0096778208389878,0.0380397289991378,-0.0565047487616539,0.2523417770862579
1630416009244,0.0098255304619669,0.019170394167304,-0.0509098656475544,0.250573992729187
1630416009356,0.0185362137854099,-0.000398043426685,-0.0436275526881217,0.2484108358621597
1630416009482,0.0158818364143371,-0.0250302515923976,-0.0324625447392463,0.2471264749765396
1630416009622,0.0105226878076791,-0.0574091523885726,-0.0176346488296985,0.2464125454425811
1630416009700,0.0092073818668723,-0.0940877571702003,-0.0028769811615347,0.2445891201496124
1630416009793,0.0127495620399713,-0.1279117912054062,0.0071889120154082,0.2390167862176895
1630416009887,0.0196650717407464,-0.1534590572118759,0.0100960507988929,0.2180975079536438
1630416009997,0.0257447138428688,-0.1732038110494613,0.0084009878337383,0.1925366371870041
1630416010169,0.0317898206412792,-0.1926169991493225,0.0061812256462872,0.1735924184322357
1630416010278,0.0348881632089614,-0.2125302702188491,0.0044980980455875,0.170739084482193
1630416010343,0.0333695299923419,-0.2292471677064895,0.0009489306248724,0.1773344874382019
1630416010390,0.0300996974110603,-0.2378377318382263,-0.006069894414395,0.198153555393219
1630416010484,0.031864795833826,-0.2340675294399261,-0.0151100819930434,0.2254784852266311
1630416010628,0.0415799655020237,-0.2164382338523864,-0.0222932752221822,0.251427412033081
1630416010737,0.0545061603188514,-0.1856866627931594,-0.0252329036593437,0.2703061997890472
1630416010815,0.0626588985323906,-0.1430607736110687,-0.0254005808383226,0.2786504924297333
1630416010926,0.0623577460646629,-0.0884597972035408,-0.0266221445053815,0.2778642773628235
1630416010988,0.0575476437807083,-0.0269404370337724,-0.0323585122823715,0.2753206193447113
1630416011129,0.0497428141534328,0.0302701611071825,-0.0425571352243423,0.2823961973190307
1630416011191,0.0386624820530414,0.0725754424929618,-0.0528475306928157,0.2978251576423645
1630416011332,0.0256421137601137,0.0983818471431732,-0.0580420084297657,0.3104026019573211
1630416011410,0.0123063828796148,0.1143184974789619,-0.0554346404969692,0.3164844512939453
1630416011488,0.0025025049690157,0.1287579387426376,-0.0465316474437713,0.3115717470645904
1630416011629,-0.0031044939532876,0.1450438797473907,-0.0364538878202438,0.3018989264965057
1630416011738,-0.0030197757296264,0.1614841669797897,-0.0304593201726675,0.2931880950927734
1630416011848,-0.0010280868737027,0.1751352399587631,-0.0319070927798748,0.2966875731945038
1630416011957,-0.003406013129279,0.1841827034950256,-0.0414828658103942,0.2972508072853088
1630416012004,-0.0212583839893341,0.1872618496417999,-0.0564985871315002,0.2919237911701202
1630416012144,-0.0591550469398498,0.1833793669939041,-0.0740980431437492,0.2815396785736084
1630416012269,-0.1087078005075454,0.1727145761251449,-0.0927409008145332,0.269837737083435
1630416012426,-0.1710132211446762,0.1308742612600326,-0.1339076161384582,0.2587836384773254
1630416012441,-0.1523981690406799,0.1559697240591049,-0.1125892773270607,0.261545181274414
1630416012557,-0.1643934994935989,0.0952589213848114,-0.1542609483003616,0.2573357224464416
1630416012682,-0.1411963850259781,0.0514409430325031,-0.1705925613641739,0.248757854104042
1630416012744,-0.1123019084334373,0.008803048171103,-0.1819549947977066,0.2301134467124939
1630416012807,-0.0873637571930885,-0.0243425741791725,-0.1884101033210754,0.205672487616539
1630416012947,-0.0688783079385757,-0.0493928492069244,-0.1901350617408752,0.188263326883316
1630416013088,-0.056485503911972,-0.0760324448347091,-0.1904546171426773,0.1845830380916595
1630416013166,-0.0506196245551109,-0.1096259802579879,-0.1927491277456283,0.1881577372550964
1630416013228,-0.0491321384906768,-0.1456935107707977,-0.1992070823907852,0.1887056082487106
1630416013323,-0.049843680113554,-0.1742766797542572,-0.2077933549880981,0.1809897422790527
1630416013525,-0.0518696717917919,-0.1876605451107025,-0.2128897905349731,0.1663012057542801
1630416013610,-0.0534351430833339,-0.182440847158432,-0.2081110477447509,0.1501178592443466
1630416013625,-0.0573156960308551,-0.1616003513336181,-0.1903116106986999,0.1365429311990738
1630416013766,-0.0636497437953949,-0.1347895264625549,-0.1643029749393463,0.1256911009550094
1630416013922,-0.0701643973588943,-0.1132254973053932,-0.1398010402917862,0.1154472157359123
1630416013969,-0.0790485069155693,-0.0969159752130508,-0.1236742511391639,0.1030846536159515
1630416014047,-0.0921475067734718,-0.07753287255764,-0.1174828931689262,0.0876921862363815
1630416014157,-0.1106413453817367,-0.0501685328781604,-0.1189383342862129,0.0729280337691307
1630416014235,-0.130556508898735,-0.0201807375997304,-0.1242810860276222,0.0618197843432426
1630416014360,-0.1458360254764557,0.0058518713340163,-0.1310061961412429,0.0550219900906086
1630416014441,-0.1550375819206237,0.0254301186650991,-0.1388324499130249,0.0466761849820613
1630416014629,-0.1607750952243805,0.0408421047031879,-0.1451278030872345,0.0358404442667961
1630416014676,-0.1631952971220016,0.0538962222635746,-0.145345538854599,0.0274854358285665
1630416014738,-0.1603568345308303,0.0646519511938095,-0.1351314336061477,0.0272932332009077
1630416014847,-0.144897386431694,0.0724589005112648,-0.1167778819799423,0.0359263271093368
1630416015035,-0.1176516488194465,0.0765447616577148,-0.0971420034766197,0.0462090410292148
1630416015066,-0.0858297124505043,0.0752940699458122,-0.079212874174118,0.0511411726474761
1630416015144,-0.0560686960816383,0.0685800984501838,-0.0592389218509197,0.0492457300424575
1630416015300,-0.0289448741823434,0.0589524172246456,-0.034257024526596,0.0475295260548591
1630416015332,-0.0023300235625356,0.0493740551173687,-0.0084567414596676,0.0506119839847087
1630416015472,0.0244298838078975,0.0381045639514923,0.0116737568750977,0.0594391599297523
1630416015566,0.0501023530960083,0.0196579452604055,0.0234418679028749,0.0701769292354583
1630416015738,0.0711550489068031,-0.007609425112605,0.0306622311472892,0.0767259299755096
1630416015816,0.0868094712495803,-0.0357394814491272,0.0373286642134189,0.0820503905415535
1630416015879,0.0972812101244926,-0.054602213203907,0.0430335439741611,0.0928460955619812
1630416015972,0.1025727242231369,-0.0592693239450454,0.0461077690124511,0.1113263219594955
1630416016066,0.104234367609024,-0.0516830310225486,0.0474008433520793,0.1324705779552459
1630416016222,0.1028397306799888,-0.0358134917914867,0.0492952652275562,0.1497694998979568
1630416016300,0.0981421321630477,-0.0163335651159286,0.0525951460003852,0.1600347012281417
1630416016378,0.0875273868441581,0.0007231889176182,0.0551479756832122,0.1658850908279419
1630416016503,0.0693137794733047,0.0110460184514522,0.0546708740293979,0.170359581708908
1630416016581,0.0467125959694385,0.014219875447452,0.0488733984529972,0.1719791442155838
1630416016753,0.0244862958788871,0.0121487416326999,0.0346793793141841,0.1704748421907425
1630416016800,0.001798482844606,0.0067645679228007,0.0112179229035973,0.1661587357521057
1630416016925,-0.023185409605503,-0.0002306940295966,-0.0159989185631275,0.1741660684347152
1630416017003,-0.0527561642229557,-0.0068868263624608,-0.0382756292819976,0.1815919280052185
1630416017081,-0.0858484357595443,-0.0109383724629879,-0.0496205128729343,0.188996747136116
1630416017222,-0.1102464944124221,-0.0110710570588707,-0.0536273568868637,0.1981957405805587
1630416017253,-0.1348653733730316,-0.0091121857985854,-0.0564495660364627,0.2061411887407302
1630416017378,-0.1594436317682266,-0.0077750659547746,-0.0602437704801559,0.2070672065019607
1630416017523,-0.1814314424991607,-0.0115583287551999,-0.0635421797633171,0.1962996870279312
1630416017585,-0.2003623098134994,-0.0260335691273212,-0.066896878182888,0.1736839711666107
1630416017741,-0.2161266803741455,-0.0544290244579315,-0.0727536380290985,0.141895592212677
1630416017804,-0.2280478179454803,-0.0938885062932968,-0.0816323980689048,0.1060419753193855
1630416017913,-0.2380592972040176,-0.132670372724533,-0.0897324755787849,0.1153862550854682
1630416018007,-0.2438357472419738,-0.155333325266838,-0.0939383283257484,0.1223432719707489
1630416018132,-0.1900076419115066,-0.1560201346874237,-0.0963112264871597,0.1255387365818023
1630416018194,-0.1479591131210327,-0.1426313072443008,-0.1002394407987594,0.1270664185285568
1630416018351,-0.1296495348215103,-0.1255920678377151,-0.1061944738030433,0.1663356572389602
1630416018382,-0.1040075495839119,-0.1096329465508461,-0.1115677058696746,0.1663356572389602
1630416018507,-0.1040075495839119,-0.0957765653729438,-0.1134954243898391,0.1663356572389602
1630416018620,-0.1040075495839119,-0.0858813524246215,-0.1098068356513977,0.1663356572389602
1630416018729,-0.1114865466952323,-0.0826515331864357,-0.0996457487344741,0.1663356572389602
1630416018807,-0.1435371339321136,-0.0838548317551612,-0.0856365710496902,0.1663356572389602
1630416018901,-0.1711163520812988,-0.0834765136241912,-0.07258952409029,0.1663356572389602
1630416019026,-0.1933188736438751,-0.0754876062273979,-0.0652549862861633,0.1663356572389602
1630416019197,-0.2103861421346664,-0.0601668171584606,-0.0653252005577087,0.1110448539257049
1630416019260,-0.2103861421346664,-0.0424214415252208,-0.0721553862094879,0.0607521124184131
1630416019322,-0.2103861421346664,-0.0276995915919542,-0.0840660408139228,0.0225149001926183
1630416019479,-0.2103861421346664,-0.0199380293488502,-0.0984717831015586,-0.0383495204150676
1630416019541,-0.2103861421346664,-0.0218142643570899,-0.11060281842947,-0.1164962798357009
1630416019619,-0.2567894458770752,-0.0328476503491401,-0.1157626211643219,-0.2024314701557159
1630416019697,-0.3173464238643646,-0.0492407567799091,-0.1130312606692314,-0.2024314701557159
1630416019838,-0.3173464238643646,-0.0663158148527145,-0.1038995757699012,-0.2024314701557159
1630416019932,-0.3173464238643646,-0.082797922194004,-0.0887506529688835,-0.2024314701557159
1630416020057,-0.3173464238643646,-0.0991743057966232,-0.0684824734926223,-0.2024314701557159
1630416020135,-0.3330844044685364,-0.1126788631081581,-0.0507985539734363,-0.2024314701557159
1630416020197,-0.3386612236499786,-0.1192417591810226,-0.0447055846452713,-0.2024314701557159
1630416020338,-0.3386612236499786,-0.1217932999134063,-0.0522444210946559,-0.2024314701557159
1630416020447,-0.3386612236499786,-0.1285884231328964,-0.0651163160800933,-0.1720745414495468
1630416020563,-0.3386612236499786,-0.1430433541536331,-0.0734573006629943,-0.1573811471462249
1630416020688,-0.3386612236499786,-0.1537005454301834,-0.0745453089475631,-0.1430297344923019
1630416020750,-0.3386612236499786,-0.1426548957824707,-0.0741062462329864,-0.1033498644828796
1630416020860,-0.3386612236499786,-0.1078683957457542,-0.0760803893208503,-0.1033498644828796
1630416020985,-0.3386612236499786,-0.0658881738781929,-0.0805944129824638,-0.1033498644828796
1630416021094,-0.3386612236499786,-0.0322943776845932,-0.0854663923382759,-0.1033498644828796
1630416021156,-0.3386612236499786,-0.0104317450895905,-0.0900782495737075,-0.1033498644828796
1630416021266,-0.3386612236499786,0.0047154375351965,-0.0941781476140022,-0.1033498644828796
1630416021344,-0.3386612236499786,0.0169462189078331,-0.0960220545530319,-0.1033498644828796
1630416021422,-0.3386612236499786,0.0270198043435812,-0.0963843762874603,-0.1033498644828796
1630416021550,-0.3386612236499786,0.03477219119668,-0.0981429144740104,-0.1033498644828796
1630416021675,-0.3386612236499786,0.0390738993883132,-0.0989911407232284,-0.1033498644828796
1630416021769,-0.3386612236499786,0.0397022739052772,-0.0915168076753616,-0.1033498644828796
1630416021909,-0.3386612236499786,0.0411415100097656,-0.0732000097632408,-0.1033498644828796
1630416021956,-0.3386612236499786,0.0496139675378799,-0.0532646663486957,-0.1033498644828796
1630416022066,-0.3386612236499786,0.0634570568799972,-0.0411365441977977,-0.1033498644828796
1630416022159,-0.3386612236499786,0.0705491825938224,-0.0360734798014164,-0.1033498644828796
1630416022304,-0.3386612236499786,0.0582570284605026,-0.0285844262689352,-0.1033498644828796
1630416022382,0.2653531432151794,0.0259521789848804,-0.0137780318036675,-0.1033498644828796
1630416022494,0.4342944920063019,-0.0136545971035957,0.0054330108687281,-0.1033498644828796
1630416022650,0.580578625202179,-0.0435554422438144,0.022248912602663,-0.1033498644828796
1630416022697,0.6698746681213379,-0.0580953583121299,0.0326260775327682,-0.1033498644828796
1630416022775,0.7049040198326111,-0.0631111338734626,0.0345578230917453,-0.1033498644828796
1630416022900,0.7014841437339783,-0.0647387206554412,0.026895111426711,-0.1033498644828796
1630416023025,0.6781033277511597,-0.0642096549272537,0.0106346998363733,-0.1033498644828796
1630416023103,0.6512221693992615,-0.0607039779424667,-0.0095944395288825,-0.1033498644828796
1630416023197,0.6255024671554565,-0.0524457469582557,-0.0291952528059482,-0.1033498644828796
1630416023322,0.6027481555938721,-0.0393018163740634,-0.0455226637423038,-0.1033498644828796
1630416023384,0.6027481555938721,-0.0247640311717987,-0.0558097660541534,-0.1033498644828796
1630416023509,0.6027481555938721,-0.0260282307863235,-0.0512729845941066,-0.1033498644828796
1630416023587,0.6278893351554871,-0.0388232544064521,-0.0541086457669734,-0.1033498644828796
1630416023743,0.6550383567810059,-0.0547511950135231,-0.0520196966826915,-0.1033498644828796
1630416023790,0.6819102764129639,-0.0607204549014568,-0.0522899590432643,-0.1033498644828796
1630416023900,0.6961950659751892,-0.0519338361918926,-0.0608120523393154,-0.1033498644828796
1630416024025,0.682269811630249,-0.0354918651282787,-0.0765898674726486,-0.1033498644828796
1630416024118,0.6208895444869995,-0.0216851457953453,-0.0934642180800437,-0.1033498644828796
1630416024212,0.5085398554801941,-0.0144069902598857,-0.1045511960983276,-0.1033498644828796
1630416024321,0.3629411160945892,-0.0140672363340854,-0.1049301773309707,-0.1033498644828796
1630416024446,0.2318010777235031,-0.0179707743227481,-0.0934384688735008,-0.1033498644828796
1630416024524,0.2318010777235031,-0.0197843424975872,-0.0702323839068412,-0.1033498644828796
1630416024559,0.2318010777235031,-0.0197843424975872,-0.0367519333958625,-0.1033498644828796
1630416024747,0.2318010777235031,-0.0197843424975872,-0.0367519333958625,-0.1033498644828796
1630416024841,0.2318010777235031,-0.0197843424975872,-0.0367519333958625,-0.1033498644828796
1630416024919,0.2318010777235031,-0.0197843424975872,-0.0367519333958625,-0.1033498644828796
1630416025013,0.2318010777235031,-0.0197843424975872,-0.0367519333958625,-0.1033498644828796
1630416025122,0.2318010777235031,-0.0197843424975872,-0.0367519333958625,-0.1033498644828796
1630416025200,0.2318010777235031,-0.0197843424975872,-0.0367519333958625,-0.1033498644828796
1630416025325,0.2318010777235031,-0.0197843424975872,-0.0367519333958625,-0.1033498644828796
1630416025450,0.2318010777235031,-0.0197843424975872,-0.0367519333958625,-0.1033498644828796
1630416025512,0.2318010777235031,-0.0197843424975872,-0.0367519333958625,-0.1033498644828796
1630416025624,0.2318010777235031,-0.0197843424975872,-0.0367519333958625,-0.1033498644828796
1630416025749,0.2318010777235031,-0.0197843424975872,-0.0367519333958625,-0.1033498644828796
1630416025796,0.2318010777235031,-0.0197843424975872,-0.0367519333958625,-0.1033498644828796
1630416025952,0.2318010777235031,-0.0197843424975872,-0.0367519333958625,-0.1033498644828796
1630416026062,0.2318010777235031,-0.0197843424975872,-0.0367519333958625,-0.1033498644828796
1630416026140,0.2318010777235031,-0.0197843424975872,-0.4616579413414001,-0.1033498644828796
1630416026233,0.2318010777235031,-0.0197843424975872,-0.4606947898864746,-0.1033498644828796
1630416026343,0.2318010777235031,-0.0197843424975872,-0.4539108276367187,-0.1033498644828796
1630416026436,0.2318010777235031,-0.4346649944782257,-0.4460656344890594,-0.1033498644828796
1630416026549,0.2318010777235031,-0.3821123242378235,-0.4422481954097748,-0.1033498644828796
1630416026674,0.2318010777235031,-0.3234671652317047,-0.4402796924114227,-0.1033498644828796
1630416026767,0.2318010777235031,-0.2851810753345489,-0.4351833760738373,-0.1033498644828796
1630416026861,0.2318010777235031,-0.2706787884235382,-0.4263092577457428,-0.1033498644828796
1630416026955,0.0195435471832752,-0.2696838974952698,-0.4166168570518493,0.1684066951274871
1630416027033,0.0229237210005521,-0.2686283588409424,-0.4085757434368133,0.1920277625322342
1630416027205,0.0426426045596599,-0.2577395439147949,-0.4029186367988586,0.2002876698970794
1630416027252,0.0694984197616577,-0.2356493026018142,-0.4006878435611725,0.1973553895950317
1630416027348,0.0894275158643722,-0.2097716629505157,-0.3975246548652649,0.1984253078699112
1630416027457,0.0922429040074348,-0.189318910241127,-0.4005702137947082,0.2139872163534164
1630416027535,0.080515369772911,-0.1780333071947097,-0.4008026719093323,0.2422464340925216
1630416027645,0.080515369772911,-0.1662301123142242,-0.3844667077064514,0.2726994156837463
1630416027785,0.080515369772911,-0.1484898179769516,-0.3456870317459106,0.2931436896324157
1630416027895,0.080515369772911,-0.1271521747112274,-0.2949560582637787,0.3016907274723053
1630416028020,0.080515369772911,-0.1083254292607307,-0.2506307363510132,0.3031128942966461
1630416028098,0.080515369772911,-0.095009945333004,-0.2241037487983703,0.3031128942966461
1630416028160,0.0856841579079628,-0.085379846394062,-0.2164334654808044,0.315608948469162
1630416028285,0.0909166261553764,-0.0761284977197647,-0.2197928577661514,0.3290164172649383
1630416028379,0.1014079079031944,-0.0674041658639907,-0.2246657907962799,0.3396875560283661
1630416028488,0.116873599588871,-0.0624845959246158,-0.2255272418260574,0.3471317589282989
1630416028567,0.1313562989234924,-0.0643700584769249,-0.2222744524478912,0.3544133901596069
1630416028645,0.1317707896232605,-0.0741021260619163,-0.2177302688360214,0.3668652474880218
1630416028770,0.1317707896232605,-0.0909495800733566,-0.2136077731847763,0.3880939185619354
1630416028879,0.1317707896232605,-0.111575186252594,-0.209626704454422,0.4122184514999389
1630416029004,0.1317707896232605,-0.1297743469476699,-0.2054722905158996,0.428254634141922
1630416029129,0.1317707896232605,-0.1398096680641174,-0.2038297802209854,0.4107077121734619
1630416029176,0.1317707896232605,-0.1407998502254486,-0.2116226106882095,0.3760336637496948
1630416029316,0.1317707896232605,-0.1370116174221038,-0.235481709241867,0.3354222774505615
1630416029410,-0.0780597925186157,-0.1340240091085434,-0.2757689654827118,0.2959108352661133
1630416029488,-0.1184061765670776,-0.1361502259969711,-0.320303350687027,0.2692227363586426
1630416029629,-0.1456367969512939,-0.1441060602664947,-0.3502871990203857,0.2617942988872528
1630416029738,-0.158305361866951,-0.1547916978597641,-0.3564394414424896,0.2612521052360534
1630416029801,-0.1598670035600662,-0.164529487490654,-0.3485067486763,0.2612521052360534
1630416029879,-0.1590165942907333,-0.1709169596433639,-0.3411806523799896,0.2612521052360534
1630416030004,-0.159045472741127,-0.1742945313453674,-0.3421982526779175,0.2612521052360534
1630416030097,-0.1593656688928604,-0.1755035370588302,-0.3520897030830383,0.2612521052360534
1630416030238,-0.1603144109249115,-0.1744616031646728,-0.3657476902008056,0.2429248541593551
1630416030347,-0.1619243621826172,-0.1698140799999237,-0.3723986446857452,0.2286479771137237
1630416030425,-0.166413128376007,-0.1610216945409774,-0.3591914474964142,0.2191979438066482
1630416030539,-0.166413128376007,-0.150387167930603,-0.3251794874668121,0.2191979438066482
1630416030664,-0.184219479560852,-0.1435775756835937,-0.2847699224948883,0.2028753608465194
1630416030742,-0.2033438682556152,-0.1458313912153244,-0.253938764333725,0.1834146678447723
1630416030851,-0.2137035578489303,-0.1574458628892898,-0.2379223704338073,0.1718157678842544
1630416030914,-0.2045553922653198,-0.1743150949478149,-0.2319576442241668,0.178065150976181
1630416031008,-0.1907425969839096,-0.1907678395509719,-0.2293377518653869,0.183236077427864
1630416031132,-0.1802192330360412,-0.2035007923841476,-0.2263427525758743,0.171766996383667
1630416031211,-0.1757606118917465,-0.2097198814153671,-0.2214782088994979,0.1451028287410736
1630416031320,-0.1759915202856063,-0.2066475600004196,-0.2143921852111816,0.135617047548294
1630416031429,-0.1746020913124084,-0.1943975090980529,-0.2049371004104614,0.1358131915330886
1630416031570,-0.1712930053472519,-0.1764585971832275,-0.1909162700176239,0.143740639090538
1630416031679,-0.1633655726909637,-0.1591657698154449,-0.1686695963144302,0.1541497409343719
1630416031773,-0.144688218832016,-0.1468840837478637,-0.1386870145797729,0.1686417609453201
1630416031851,-0.1133287027478218,-0.1422349512577057,-0.1103263571858406,0.1785242259502411
1630416031914,-0.0726161375641822,-0.1453171372413635,-0.095595397055149,0.1811585575342178
1630416032054,-0.0726161375641822,-0.1524588763713836,-0.0988592430949211,0.1829684823751449
1630416032210,-0.0726161375641822,-0.1557396501302719,-0.1140237152576446,0.1829684823751449
1630416032257,-0.0726161375641822,-0.1497740149497985,-0.1289169043302536,0.1829684823751449
1630416032351,-0.0610380955040454,-0.1380916833877563,-0.13481006026268,0.1817586869001388
1630416032460,-0.052490908652544,-0.1289945691823959,-0.1287591755390167,0.1769862920045852
1630416032509,-0.0428437292575836,-0.1265449225902557,-0.1129620820283889,0.172709658741951
1630416032634,-0.0291251372545957,-0.1292015314102172,-0.0944053456187248,0.1771188378334045
1630416032743,-0.0107962302863597,-0.1365067809820175,-0.0815925523638725,0.1862330883741378
1630416032853,0.0112739093601703,-0.1489413976669311,-0.0777829959988594,0.2005033791065216
1630416032978,0.0356619767844677,-0.1639395356178283,-0.0809940844774246,0.2087926417589187
1630416033056,0.0675883069634437,-0.1744827032089233,-0.0891117975115776,0.2075887769460678
1630416033134,0.0675883069634437,-0.1728363335132599,-0.1032691895961761,0.1975214779376983
1630416033259,0.0675883069634437,-0.1599676758050918,-0.1235738396644592,0.181630328297615
1630416033415,0.0675883069634437,-0.1435380727052688,-0.1443157494068145,0.181630328297615
1630416033493,0.0675883069634437,-0.1307217478752136,-0.1580215096473693,0.181630328297615
1630416033540,0.0675883069634437,-0.1240625530481338,-0.162449225783348,0.181630328297615
1630416033681,0.0675883069634437,-0.1223677322268486,-0.1606483310461044,0.181630328297615
1630416033728,-0.2292432188987732,-0.1199814826250076,-0.1569410413503646,0.181630328297615
1630416033868,-0.1990667432546615,-0.1099006012082099,-0.1538604944944381,0.181630328297615
1630416033977,-0.1674736440181732,-0.0883913040161132,-0.1555274128913879,0.181630328297615
1630416034087,-0.1439150273799896,-0.0604807063937187,-0.1659425795078277,0.181630328297615
1630416034134,-0.1439150273799896,-0.0354442670941352,-0.1839132905006408,0.181630328297615
1630416034274,-0.1439150273799896,-0.018719807267189,-0.202242761850357,0.181630328297615
1630416034337,-0.1439150273799896,-0.0106054423376917,-0.2152856439352035,0.181630328297615
1630416034477,-0.1439150273799896,-0.0091496407985687,-0.2219538241624832,0.181630328297615
1630416034602,-0.1439150273799896,-0.0126317916437983,-0.224072054028511,0.181630328297615
1630416034680,-0.1439150273799896,-0.0193526204675436,-0.2224977165460586,0.181630328297615
1630416034774,-0.1439150273799896,-0.0268283635377883,-0.2181327491998672,0.181630328297615
1630416034837,-0.1439150273799896,-0.0329266302287578,-0.2131248861551284,0.181630328297615
1630416034962,-0.1282888352870941,-0.0368077829480171,-0.2085612267255783,0.181630328297615
1630416035149,-0.1066836267709732,-0.0380495674908161,-0.2041565477848053,0.181630328297615
1630416035258,-0.0431505404412746,-0.0367225967347621,-0.2000674605369568,0.181630328297615
1630416035325,0.00575105054304,-0.0369726382195949,-0.1957637518644333,0.181630328297615
1630416035372,0.0390193276107311,-0.04542763158679,-0.1871496886014938,0.181630328297615
1630416035481,0.061834268271923,-0.0663681253790855,-0.1685787588357925,0.0081003196537494
1630416035591,0.0859375894069671,-0.0959353223443031,-0.1401272118091583,0.0122822364792227
1630416035716,0.091824434697628,-0.1231101378798484,-0.1087874993681907,0.0230100527405738
1630416035840,0.0908155441284179,-0.1377067416906356,-0.0833602249622345,0.0398098938167095
1630416035934,0.0813916996121406,-0.139034703373909,-0.0684366300702095,0.063321016728878
1630416036012,0.0688252598047256,-0.1346998214721679,-0.0629214495420456,0.0974145829677581
1630416036122,0.0688252598047256,-0.1340196877717971,-0.0627335831522941,0.1389989405870437
1630416036200,0.0688252598047256,-0.1427906900644302,-0.0640393868088722,0.1389989405870437
1630416036309,0.0688252598047256,-0.1602574735879898,-0.0656970292329788,0.1389989405870437
1630416036387,0.0688252598047256,-0.1796124875545501,-0.0687544345855712,0.1389989405870437
1630416036512,0.0497053004801273,-0.1901730597019195,-0.0719927996397018,0.1389989405870437
1630416036606,0.0329050235450267,-0.1867351830005645,-0.072645366191864,0.1389989405870437
1630416036684,0.0107069257646799,-0.1757369935512542,-0.0700591057538986,0.1570192724466323
1630416036778,-0.0135697731748223,-0.1678495854139328,-0.0679033324122428,0.1740131378173828
1630416036918,-0.0428917184472084,-0.166433110833168,-0.0724082514643669,0.1904844790697097
1630416037028,-0.0768007412552833,-0.1667496562004089,-0.0881954580545425,0.2084751427173614
1630416037121,-0.1160672977566719,-0.165305808186531,-0.1142699941992759,0.2588024139404297
1630416037231,-0.1572321653366089,-0.1662343144416809,-0.1443093121051788,0.2897577583789825
1630416037309,-0.1853066980838775,-0.1768087744712829,-0.1699325442314148,0.2995784878730774
1630416037387,-0.1927425414323806,-0.1971522569656372,-0.1845527291297912,0.2858041226863861
1630416037580,-0.1868107467889785,-0.2191013246774673,-0.1875657886266708,0.2458792030811309
1630416037658,-0.1655481308698654,-0.2317271679639816,-0.1805350482463836,0.1833430677652359
1630416037751,-0.1479256898164749,-0.2303325533866882,-0.1669158488512039,0.1689216345548629
1630416037814,-0.1338819414377212,-0.2191112488508224,-0.1527980864048004,0.1596037149429321
1630416037892,-0.1233232319355011,-0.2064682096242904,-0.1451992094516754,0.1512579768896103
1630416038033,-0.1163551360368728,-0.2025642991065979,-0.1495933979749679,0.1363818496465683
1630416038126,-0.1115832403302192,-0.2148875594139099,-0.1672048419713974,0.1215356960892677
1630416038204,-0.0999672934412956,-0.2425433099269867,-0.1933729201555252,0.1215356960892677
1630416038332,-0.0918578505516052,-0.2710738778114319,-0.2197102755308151,0.1215356960892677
1630416038441,-0.0796496123075485,-0.2742049992084503,-0.232740432024002,0.1215356960892677
1630416038597,-0.0639674812555313,-0.2813501358032226,-0.236260250210762,0.1215356960892677
1630416038675,-0.0466830134391784,-0.2805841267108917,-0.2392557561397552,0.0896469205617904
1630416038754,-0.0305015742778778,-0.2751039564609527,-0.2425517588853836,0.0588156282901763
1630416038879,-0.0204606335610151,-0.264563113451004,-0.2434279769659042,0.0360448881983757
1630416038925,-0.0173455029726028,-0.2494198381900787,-0.2405776530504226,0.0289157181978225
1630416039051,-0.0194644555449485,-0.232284814119339,-0.2368297725915908,0.0342445075511932
1630416039160,-0.0260142590850591,-0.2165858000516891,-0.2424956709146499,0.033475887030363
1630416039269,-0.0361760631203651,-0.2052203118801117,-0.269627571105957,0.0236751399934291
1630416039363,-0.0503965094685554,-0.2011770755052566,-0.3238424956798553,0.0236751399934291
1630416039457,-0.0503965094685554,-0.2053276151418686,-0.3932341337203979,0.0236751399934291
1630416039568,-0.0503965094685554,-0.2112307697534561,-0.4510205388069153,0.0236751399934291
1630416039615,-0.0503965094685554,-0.2112307697534561,-0.4510205388069153,0.0236751399934291
1630416039709,-0.0503965094685554,-0.2112307697534561,-0.4510205388069153,0.0236751399934291
1630416039881,-0.0503965094685554,-0.2112307697534561,-0.4510205388069153,0.0236751399934291
1630416039990,-0.0503965094685554,-0.2112307697534561,-0.4510205388069153,0.0236751399934291
1630416040084,-0.0503965094685554,-0.2112307697534561,-0.4510205388069153,0.0236751399934291
1630416040162,-0.0503965094685554,-0.2112307697534561,-0.4510205388069153,0.0236751399934291
1630416040240,-0.0503965094685554,-0.2112307697534561,-0.4510205388069153,0.0236751399934291
1630416040365,-0.0503965094685554,-0.2112307697534561,-0.4510205388069153,0.0236751399934291
1630416040474,-0.0503965094685554,-0.2112307697534561,-0.4510205388069153,0.0236751399934291
1630416040571,-0.0503965094685554,-0.2112307697534561,-0.4510205388069153,0.0236751399934291
1630416040664,-0.0503965094685554,-0.2112307697534561,-0.4510205388069153,0.0236751399934291
1630416040789,-0.0503965094685554,-0.2112307697534561,-0.4510205388069153,0.0236751399934291
1630416040852,-0.0503965094685554,-0.2112307697534561,-0.4510205388069153,0.0236751399934291
1630416040961,-0.0503965094685554,-0.2112307697534561,-0.4510205388069153,0.0236751399934291
1630416041102,-0.0503965094685554,-0.2112307697534561,-0.4510205388069153,0.0236751399934291
1630416041180,-0.0503965094685554,-0.2112307697534561,-0.4510205388069153,0.0236751399934291
1630416041258,-0.0503965094685554,-0.2112307697534561,-0.4510205388069153,0.0236751399934291
1630416041373,-0.0503965094685554,-0.2112307697534561,-0.4510205388069153,0.0236751399934291
1630416041483,-0.0503965094685554,-0.2112307697534561,-0.4510205388069153,0.0236751399934291
1630416041580,-0.0503965094685554,-0.2112307697534561,-0.4510205388069153,0.0236751399934291
1630416041689,-0.0503965094685554,-0.2112307697534561,-0.4510205388069153,0.0236751399934291
1630416041829,-0.0503965094685554,-0.2112307697534561,-0.4510205388069153,0.0236751399934291
1630416041908,-0.0503965094685554,-0.2112307697534561,-0.4510205388069153,0.0236751399934291
1630416041970,-0.0503965094685554,-0.2112307697534561,-0.4510205388069153,0.0236751399934291
1630416042142,-0.0503965094685554,-0.2112307697534561,-0.4510205388069153,0.0236751399934291
1630416042220,-0.0503965094685554,-0.2112307697534561,-0.4510205388069153,0.0236751399934291
1630416042283,-0.0503965094685554,-0.2112307697534561,-0.4510205388069153,0.0236751399934291
1630416042379,-0.0503965094685554,-0.2112307697534561,-0.4510205388069153,0.0236751399934291
1630416042575,-0.0503965094685554,-0.2112307697534561,-0.4510205388069153,0.0236751399934291
1630416042617,-0.0503965094685554,-0.2112307697534561,-0.3642090857028961,0.0236751399934291
1630416042727,-0.0503965094685554,-0.2112307697534561,-0.3856819868087768,0.0236751399934291
1630416042841,-0.0503965094685554,-0.2112307697534561,-0.4036628007888794,0.0236751399934291
1630416042916,-0.0503965094685554,-0.2112307697534561,-0.4121752679347992,0.2119344919919967
1630416043027,-0.0503965094685554,-0.2112307697534561,-0.4107712507247925,0.2119344919919967
1630416043137,-0.0503965094685554,-0.2112307697534561,-0.4014604687690735,0.2119344919919967
1630416043230,-0.0503965094685554,-0.2151853591203689,-0.3843060731887817,0.2119344919919967
1630416043277,-0.0503965094685554,-0.2380102127790451,-0.3597238659858703,0.2119344919919967
1630416043388,-0.0503965094685554,-0.2642875015735626,-0.3331151902675628,0.2119344919919967
1630416043481,-0.0503965094685554,-0.2840131521224975,-0.3121829628944397,0.2119344919919967
1630416043637,-0.0503965094685554,-0.2890160381793976,-0.3017325699329376,0.2119344919919967
1630416043716,-0.0503965094685554,-0.2758969664573669,-0.3012647330760956,0.2119344919919967
1630416043856,-0.0503965094685554,-0.2460684478282928,-0.3020598888397217,0.2119344919919967
1630416043903,-0.0217091348022222,-0.2059704661369323,-0.3037430346012115,0.2119344919919967
1630416043981,-0.0132914371788501,-0.1650876104831695,-0.2936395406723022,0.2119344919919967
1630416044106,0.0166626162827014,-0.1320325434207916,-0.2632727026939392,0.2119344919919967
1630416044265,0.0166626162827014,-0.111796885728836,-0.2177946120500564,0.2119344919919967
1630416044339,0.0166626162827014,-0.1048571839928627,-0.170894056558609,0.2119344919919967
1630416044432,0.0166626162827014,-0.0995019748806953,-0.1334222108125686,0.2119344919919967
1630416044556,0.0166626162827014,-0.0963368564844131,-0.1082823127508163,0.2119344919919967
