timestamp,TP9,AF7,AF8,TP10
1630415912010,1.470568299293518,-0.0500176772475242,0.2069894969463348,0.9522692561149596
1630415912136,1.470568299293518,-0.0154880583286285,0.2095750123262405,0.9522692561149596
1630415912245,1.470568299293518,0.0102508012205362,0.1966672092676162,0.9522692561149596
1630415912292,1.470568299293518,0.028643837198615,0.1795228421688079,0.9522692561149596
1630415912432,1.470568299293518,0.0388138554990291,0.1695258319377899,0.9522692561149596
1630415912495,1.470568299293518,0.0435252003371715,0.1750182807445526,0.9522692561149596
1630415912608,1.470568299293518,0.0496307015419006,0.1960930526256561,0.9522692561149596
1630415912686,1.470568299293518,0.0603330880403518,0.226545974612236,0.9522692561149596
1630415912842,1.470568299293518,0.07418904453516,0.2601708471775055,0.9522692561149596
1630415912889,0.2913248836994171,0.0918454602360725,0.2927716672420501,0.9522692561149596
1630415912983,0.2663182020187378,0.1123332008719444,0.315528005361557,0.9522692561149596
1630415913123,0.2718242704868316,0.1265358924865722,0.3186299800872803,0.9522692561149596
1630415913233,0.2970486879348755,0.1214640140533447,0.2988229990005493,0.9522692561149596
1630415913295,0.3204000294208526,0.090946577489376,0.2648619711399078,0.9522692561149596
1630415913420,0.3364627063274383,0.0431965254247188,0.2336016446352005,0.9522692561149596
1630415913561,0.3572195172309875,-0.0057538277469575,0.2168327867984771,0.9522692561149596
1630415913608,0.3572195172309875,-0.0445838086307048,0.2136441320180893,0.9522692561149596
1630415913686,0.3572195172309875,-0.0664145201444625,0.2146644443273544,0.9522692561149596
1630415913842,0.3572195172309875,-0.0630006790161132,0.211641177535057,0.9522692561149596
1630415913967,0.3572195172309875,-0.0389961041510105,0.2022080272436142,0.9522692561149596
1630415914014,0.3572195172309875,-0.0135906282812356,0.1842652261257171,0.9522692561149596
1630415914076,0.5340181589126587,-0.0022043942008167,0.1582186371088028,0.9522692561149596
1630415914232,0.6083963513374329,-0.0060393786989152,0.1245545074343681,0.9522692561149596
1630415914310,0.6710878610610962,-0.0138279246166348,0.0828653872013092,0.9522692561149596
1630415914498,0.7445396780967712,-0.0186740905046463,0.0343413911759853,0.9522692561149596
1630415914564,0.8076692819595337,-0.0251708831638097,-0.0098614571616053,0.9522692561149596
1630415914673,0.8442710638046265,-0.0385807454586029,-0.0325747057795524,0.9522692561149596
1630415914751,0.8562317490577698,-0.0542398802936077,-0.0293197203427553,0.9522692561149596
1630415914798,0.8574396967887878,-0.0595961846411228,-0.0191303547471761,0.9522692561149596
1630415914907,0.8617593050003052,-0.0459729135036468,-0.0225207861512899,0.9522692561149596
1630415915079,0.8731197714805603,-0.0184986181557178,-0.0372620522975921,0.573771595954895
1630415915141,0.8683052659034729,0.0072896028868854,-0.0504790544509887,0.5630687475204468
1630415915220,0.8633055090904236,0.0175821017473936,-0.0517334006726741,0.569850504398346
1630415915345,0.8532546162605286,0.0047661252319812,-0.0420686528086662,0.5757189989089966
1630415915423,0.8399163484573364,-0.0262071453034877,-0.0294597391039133,0.572884738445282
1630415915565,0.8280632495880127,-0.0518173798918724,-0.0201738011091947,0.5625268220901489
1630415915659,0.7867459058761597,-0.053162433207035,-0.0165174156427383,0.5520779490470886
1630415915768,0.7623321413993835,-0.0223115738481283,-0.0100355995818972,0.5453099608421326
1630415915846,0.7318799495697021,0.0261653196066617,0.0013127025449648,0.540979266166687
1630415915925,0.6879811882972717,0.0738881081342697,0.0136735001578927,0.53806471824646
1630415916050,0.6534134745597839,0.1061672568321228,0.0171037800610065,0.5350605249404907
1630415916143,0.6295230388641357,0.1199553459882736,0.004792514257133,0.5279514193534851
1630415916315,0.6266043186187744,0.120471179485321,-0.0200311299413442,0.4901937544345855
1630415916346,0.6374287605285645,0.1145975515246391,-0.0386898517608642,0.4882340133190155
1630415916424,0.645550549030304,0.1051190346479415,-0.0280339792370796,0.5000379085540771
1630415916549,0.6374108791351318,0.1001980826258659,0.0039371289312839,0.5100134015083313
1630415916690,0.608684241771698,0.1129751056432724,0.0371079221367836,0.5092670917510986
1630415916784,0.5719062089920044,0.14118193089962,0.0371079221367836,0.4975898563861847
1630415916893,0.5439260601997375,0.1730495542287826,0.0371079221367836,0.4813570380210876
1630415917002,0.5284199714660645,0.1995147913694381,0.0371079221367836,0.4701695144176483
1630415917127,0.5036941766738892,0.215064138174057,0.0371079221367836,0.4703058898448944
1630415917174,0.5036941766738892,0.2217282503843307,0.3047442436218261,0.4752619862556457
1630415917284,0.5036941766738892,0.2160287052392959,0.2735732197761535,0.4762947261333465
1630415917362,0.5036941766738892,0.1960409432649612,0.2382254600524902,0.4762947261333465
1630415917487,0.5036941766738892,0.1639125496149063,0.1979164183139801,0.4762947261333465
1630415917581,0.5036941766738892,0.1311545073986053,0.1584613025188446,0.4762947261333465
1630415917721,0.5036941766738892,0.1082631424069404,0.1244621351361274,0.4762947261333465
1630415917784,0.5036941766738892,0.0974637642502784,0.0987602174282074,0.4762947261333465
1630415917846,0.5036941766738892,0.1013498678803443,0.0911181271076202,0.4762947261333465
1630415918049,0.5036941766738892,0.1240114197134971,0.1066751927137374,0.4762947261333465
1630415918127,0.5036941766738892,0.1561444699764251,0.1385946273803711,0.4762947261333465
1630415918221,0.5036941766738892,0.1787083745002746,0.1748472452163696,0.4762947261333465
1630415918283,0.5036941766738892,0.1835077702999115,0.2065500020980835,0.4762947261333465
1630415918408,0.5036941766738892,0.1764229834079742,0.2114444226026535,0.4762947261333465
1630415918486,0.5036941766738892,0.1682674884796142,0.2164803892374038,0.4762947261333465
1630415918580,0.5036941766738892,0.164923682808876,0.2153312116861343,0.4762947261333465
1630415918706,0.5036941766738892,0.1632474511861801,0.2032249867916107,0.4762947261333465
1630415918830,0.5036941766738892,0.1608156710863113,0.1858025342226028,0.4762947261333465
1630415918893,0.5036941766738892,0.1574292480945587,0.1709086894989013,0.4762947261333465
1630415918971,0.5036941766738892,0.1546945422887802,0.1657556742429733,0.4762947261333465
1630415919127,0.5036941766738892,0.1532223373651504,0.1708321124315261,0.4762947261333465
1630415919158,0.5036941766738892,0.1530158668756485,0.1807855367660522,0.4762947261333465
1630415919330,0.5036941766738892,0.1548808068037033,0.1876671910285949,0.4762947261333465
1630415919424,0.5036941766738892,0.1536906957626342,0.1814597696065902,0.2936139404773712
1630415919502,0.5036941766738892,0.1385692358016967,0.1561871320009231,0.3327814042568207
1630415919583,0.5036941766738892,0.10226421803236,0.1125446856021881,0.3757095038890838
1630415919661,0.5036941766738892,0.049435406923294,0.0570722743868827,0.3757095038890838
1630415919755,0.5036941766738892,0.0055762049742043,-0.0027427694294601,0.3757095038890838
1630415919942,0.5036941766738892,-0.0268254168331623,-0.075096271932125,0.3757095038890838
1630415920004,0.5036941766738892,-0.0460293628275394,-0.1487583070993423,0.3757095038890838
1630415920067,0.5036941766738892,-0.0605819374322891,-0.2026906609535217,0.3757095038890838
1630415920208,0.5036941766738892,-0.0782593041658401,-0.2198827862739563,0.3757095038890838
1630415920333,0.5036941766738892,-0.0993027687072753,-0.2021647542715072,0.3757095038890838
1630415920426,0.5036941766738892,-0.1171365678310394,-0.1683587580919265,0.3757095038890838
1630415920538,0.5036941766738892,-0.1250457614660263,-0.14314004778862,0.3757095038890838
1630415920632,0.5036941766738892,-0.1216073408722877,-0.1452155113220214,0.3982980251312256
1630415920772,0.5036941766738892,-0.1073178648948669,-0.1784645915031433,0.42393758893013
1630415920804,0.5036941766738892,-0.0901714116334915,-0.224504679441452,0.42393758893013
1630415920897,0.5036941766738892,-0.0901714116334915,-0.224504679441452,0.42393758893013
1630415921038,0.5036941766738892,-0.0901714116334915,-0.224504679441452,0.42393758893013
1630415921210,0.5036941766738892,-0.0901714116334915,-0.224504679441452,0.42393758893013
1630415921225,0.5036941766738892,-0.0901714116334915,-0.224504679441452,0.42393758893013
1630415921382,0.5036941766738892,-0.0901714116334915,-0.224504679441452,0.42393758893013
1630415921428,0.5036941766738892,-0.0901714116334915,-0.0942432805895805,0.42393758893013
1630415921507,0.5036941766738892,-0.0901714116334915,-0.0671097189188003,0.42393758893013
1630415921603,0.5036941766738892,-0.0901714116334915,-0.0306555200368165,0.42393758893013
1630415921744,0.5036941766738892,-0.0901714116334915,0.0031639684457331,0.42393758893013
1630415921869,0.5036941766738892,-0.1392684280872345,0.03595482558012,0.42393758893013
1630415921931,0.5036941766738892,-0.1445265859365463,0.061133038252592,0.42393758893013
1630415922072,0.5036941766738892,-0.1437513381242752,0.0737878531217575,0.42393758893013
1630415922150,0.5036941766738892,-0.1298889070749282,0.0768765360116958,0.42393758893013
1630415922213,0.5036941766738892,-0.1004058569669723,0.082082450389862,0.42393758893013
1630415922384,0.5036941766738892,-0.0630177035927772,0.0984728932380676,0.42393758893013
1630415922492,0.5036941766738892,-0.0337066315114498,0.1223312616348266,0.42393758893013
1630415922540,0.5036941766738892,-0.0234781727194786,0.1471953690052032,0.42393758893013
1630415922665,0.5036941766738892,-0.0332271307706832,0.1724834442138672,0.42393758893013
1630415922727,0.5036941766738892,-0.0545130856335163,0.194251537322998,0.42393758893013
1630415922885,0.5036941766738892,-0.0772204920649528,0.2054021656513214,0.42393758893013
1630415922977,0.5036941766738892,-0.0958819091320037,0.2050140798091888,0.42393758893013
1630415923071,0.5036941766738892,-0.1155851706862449,0.1970755010843277,0.42393758893013
1630415923149,0.5036941766738892,-0.1171144992113113,0.1857301294803619,0.42393758893013
1630415923273,0.5036941766738892,-0.1166581660509109,0.1735851764678955,0.42393758893013
1630415923366,0.8604282140731812,-0.1083163768053054,0.1616857647895813,0.42393758893013
1630415923475,1.1300227642059326,-0.0885026752948761,0.1546518206596374,0.42393758893013
1630415923554,1.2697293758392334,-0.0664075389504432,0.1544605195522308,0.42393758893013
1630415923694,1.3253076076507568,-0.0579606443643569,0.156061366200447,1.435784101486206
1630415923803,1.3253076076507568,-0.0736142694950103,0.1482184380292892,1.4173758029937744
1630415923851,1.3253076076507568,-0.1118095889687538,0.122606374323368,1.3701883554458618
1630415923930,1.3253076076507568,-0.1600398123264312,0.0813092961907386,1.3154325485229492
1630415924024,1.3253076076507568,-0.2024560719728469,0.0294312518090009,1.265799880027771
1630415924181,1.3253076076507568,-0.226603627204895,-0.0241531748324632,1.225407958030701
1630415924259,1.3850775957107544,-0.2338095754384994,-0.0677213445305824,1.222785472869873
1630415924399,1.4595048427581787,-0.2338770180940628,-0.093808427453041,1.1914883852005005
1630415924538,1.552475094795227,-0.2342675924301147,-0.102501094341278,1.1669247150421145
1630415924570,1.552475094795227,-0.2371924221515655,-0.1028279438614845,1.1519814729690552
1630415924661,1.4770351648330688,-0.2419950664043426,-0.1045833826065063,1.1447182893753052
1630415924818,1.420456051826477,-0.2511288821697235,-0.1146606802940368,1.1379384994506836
1630415924958,1.3727011680603027,-0.2708435654640198,-0.1401734501123428,1.12558913230896
1630415925004,1.2601624727249146,-0.2893828451633453,-0.1851899176836013,1.0640082359313965
1630415925083,1.0655200481414795,-0.2782965898513794,-0.2414915561676025,0.9855632185935974
1630415925208,0.7877057790756226,-0.2205465286970138,-0.2841184437274933,0.8923644423484802
1630415925254,0.7877057790756226,-0.1419791579246521,-0.2860963344573974,0.8230758905410767
1630415925381,0.7877057790756226,-0.0729897916316986,-0.2514667510986328,0.8027930855751038
1630415925490,0.7877057790756226,-0.0245710294693708,-0.2112612724304199,0.818537175655365
1630415925644,0.7877057790756226,0.0168043263256549,-0.1851339340209961,0.8453366160392761
1630415925706,0.7877057790756226,0.0639643669128418,-0.1737276017665863,0.8702099323272705
1630415925769,0.7877057790756226,0.088803581893444,-0.1625977009534835,0.8925923705101013
1630415925878,0.7877057790756226,0.1145792677998542,-0.1468767076730728,0.917094886302948
1630415926068,0.7877057790756226,0.1701422333717346,-0.1386398524045944,0.9388459324836732
1630415926098,0.7877057790756226,0.1973456144332885,-0.1337561160326004,0.9383550882339478
1630415926192,0.7718374729156494,0.2047119587659835,-0.1328556537628173,0.9383550882339478
1630415926286,0.7314957976341248,0.2033357322216034,-0.1185045316815376,0.9383550882339478
1630415926377,0.7314957976341248,0.2011637538671493,-0.0764349475502967,0.9383550882339478
1630415926471,0.7314957976341248,0.1942783594131469,-0.0223233327269554,0.9383550882339478
1630415926675,0.7314957976341248,0.1770083010196685,0.0281324815005064,0.9383550882339478
1630415926767,0.7314957976341248,0.1438889801502227,0.0644905269145965,0.9383550882339478
1630415926815,0.7314957976341248,0.0997560173273086,0.0847998186945915,0.9383550882339478
1630415926877,0.7314957976341248,0.0525312647223472,0.0924174636602401,0.9383550882339478
1630415927066,0.7314957976341248,0.0080670760944485,0.0934121385216713,0.9383550882339478
1630415927128,0.7314957976341248,-0.037875473499298,0.0996584594249725,0.9383550882339478
1630415927189,0.7314957976341248,-0.0971992388367652,0.1189042255282402,0.9383550882339478
1630415927300,0.8916165232658386,-0.1001027598977088,0.1440409868955612,0.9383550882339478
1630415927425,1.2071329355239868,-0.0945098251104354,0.1655511558055877,0.9383550882339478
1630415927517,1.4268791675567627,-0.1576559841632843,0.1669996529817581,0.9383550882339478
1630415927626,1.557807445526123,-0.1936931610107422,0.1613855063915252,0.9383550882339478
1630415927705,1.557807445526123,-0.2061675041913986,0.1717577874660492,0.9383550882339478
1630415927880,1.557807445526123,-0.2008817344903946,0.1836688071489334,0.9383550882339478
1630415927909,1.557807445526123,-0.1781512945890426,0.1939324289560318,0.9383550882339478
1630415928004,1.557807445526123,-0.1378545612096786,0.2020276933908462,0.9383550882339478
1630415928151,1.557807445526123,-0.0944200679659843,0.206218346953392,0.9383550882339478
1630415928240,1.557807445526123,-0.0595849603414535,0.2061883807182312,0.9383550882339478
1630415928414,1.557807445526123,-0.0361931696534156,0.2027337104082107,0.9383550882339478
1630415928469,1.557807445526123,-0.0202958527952432,0.1987653225660324,0.9383550882339478
1630415928553,1.6204864978790283,-8.007995347725227e-05,0.2043472081422805,0.9383550882339478
1630415928629,1.6959881782531738,0.0230191778391599,0.2112907618284225,0.9383550882339478
1630415928756,1.782515525817871,0.0431771576404571,0.2138689160346985,0.9383550882339478
1630415928818,1.782515525817871,0.0565397031605243,0.2103940546512603,0.9383550882339478
1630415928929,1.782515525817871,0.0637431442737579,0.2061452120542526,0.9383550882339478
1630415929088,1.782515525817871,0.0711757019162178,0.2083898931741714,0.9383550882339478
1630415929132,1.782515525817871,0.0889193788170814,0.2225978672504425,0.9383550882339478
1630415929227,1.782515525817871,0.1225013583898544,0.2398520559072494,0.9383550882339478
1630415929412,1.782515525817871,0.1637025475502014,0.2497741430997848,0.9383550882339478
1630415929456,1.782515525817871,0.193281665444374,0.2421722561120987,0.9383550882339478
1630415929518,1.782515525817871,0.195100337266922,0.2171030044555664,0.9383550882339478
1630415929709,1.782515525817871,0.195100337266922,0.2171030044555664,0.9383550882339478
1630415929754,1.782515525817871,0.195100337266922,0.2171030044555664,0.9383550882339478
1630415929863,1.782515525817871,0.195100337266922,0.2171030044555664,0.9383550882339478
1630415929945,1.782515525817871,0.195100337266922,0.2171030044555664,0.9383550882339478
1630415930087,1.782515525817871,0.195100337266922,0.2171030044555664,0.9383550882339478
1630415930149,1.782515525817871,0.195100337266922,0.2171030044555664,0.9383550882339478
1630415930274,1.782515525817871,0.195100337266922,0.2171030044555664,0.9383550882339478
1630415930352,1.782515525817871,0.195100337266922,0.2171030044555664,0.9383550882339478
1630415930480,1.782515525817871,0.195100337266922,0.2171030044555664,0.9383550882339478
1630415930524,1.782515525817871,0.195100337266922,0.2171030044555664,0.9383550882339478
1630415930666,1.782515525817871,0.195100337266922,0.2171030044555664,0.9383550882339478
1630415930721,1.782515525817871,0.195100337266922,0.2171030044555664,0.9383550882339478
1630415930952,1.782515525817871,0.195100337266922,0.2171030044555664,0.9383550882339478
1630415931015,1.782515525817871,0.195100337266922,0.2171030044555664,0.9383550882339478
1630415931093,1.782515525817871,0.195100337266922,0.2171030044555664,0.9383550882339478
1630415931186,1.782515525817871,0.195100337266922,0.2171030044555664,0.9383550882339478
1630415931233,1.782515525817871,0.195100337266922,0.2171030044555664,0.9383550882339478
1630415931327,1.782515525817871,0.195100337266922,0.2171030044555664,0.9383550882339478
1630415931499,1.782515525817871,0.195100337266922,0.2171030044555664,0.9383550882339478
1630415931605,1.782515525817871,0.195100337266922,0.2171030044555664,0.9383550882339478
1630415931715,1.782515525817871,0.195100337266922,0.2171030044555664,0.9383550882339478
1630415931746,1.782515525817871,0.195100337266922,0.2171030044555664,0.9383550882339478
1630415931902,1.782515525817871,0.195100337266922,0.2171030044555664,0.9383550882339478
1630415932027,1.782515525817871,0.195100337266922,0.2171030044555664,0.9383550882339478
1630415932123,1.782515525817871,0.195100337266922,0.2171030044555664,0.9383550882339478
1630415932201,1.782515525817871,0.195100337266922,0.2171030044555664,0.9383550882339478
1630415932279,1.782515525817871,0.195100337266922,0.2171030044555664,0.9383550882339478
1630415932420,1.782515525817871,0.195100337266922,0.2171030044555664,0.9383550882339478
1630415932475,1.782515525817871,0.195100337266922,0.2171030044555664,0.9383550882339478
1630415932560,1.782515525817871,0.195100337266922,0.2171030044555664,0.9383550882339478
1630415932717,1.782515525817871,0.195100337266922,0.2171030044555664,0.9383550882339478
1630415932810,1.782515525817871,0.195100337266922,0.2171030044555664,0.9383550882339478
1630415932982,1.782515525817871,0.195100337266922,0.2171030044555664,0.9383550882339478
1630415933029,1.782515525817871,0.195100337266922,0.2171030044555664,0.9383550882339478
1630415933076,1.782515525817871,0.195100337266922,-0.0848575681447982,0.9383550882339478
1630415933217,1.782515525817871,0.195100337266922,-0.1225516274571418,0.9383550882339478
1630415933329,1.782515525817871,0.1337708383798599,-0.1584998071193695,0.9383550882339478
1630415933495,1.782515525817871,0.0983127206563949,-0.1722390204668045,0.9383550882339478
1630415933542,1.782515525817871,0.0925654619932174,-0.1651585400104522,0.9383550882339478
1630415933635,1.782515525817871,0.103136159479618,-0.1485578566789627,0.9383550882339478
1630415933698,1.782515525817871,0.1146626397967338,-0.1311693042516708,0.9383550882339478
1630415933776,1.782515525817871,0.1171199455857276,-0.1158993989229202,0.9383550882339478
1630415933963,1.782515525817871,0.1072406694293022,-0.1009682044386863,0.9383550882339478
1630415934073,1.782515525817871,0.0888405665755271,-0.0789650306105613,0.9383550882339478
1630415934120,1.782515525817871,0.0687871351838111,-0.0526103749871254,0.9383550882339478
1630415934229,1.782515525817871,0.0526818893849849,-0.0299834311008453,0.9383550882339478
1630415934293,1.782515525817871,0.042781762778759,-0.0150560671463608,0.9383550882339478
1630415934389,1.782515525817871,0.0366643629968166,-0.0140418894588947,0.9383550882339478
1630415934561,1.782515525817871,-0.0108552426099777,-0.021657109260559,0.9383550882339478
1630415934654,0.5107346177101135,-0.0310555323958396,-0.0234764870256185,0.9383550882339478
1630415934732,0.6398683190345764,-0.0263002160936594,-0.0093461200594902,0.9383550882339478
1630415934826,0.8345063328742981,-0.0163927301764488,0.029192054644227,0.9383550882339478
1630415934935,0.8345063328742981,-0.0113244373351335,0.0878688246011734,0.9383550882339478
1630415935060,0.8345063328742981,0.1082957610487937,0.1478388458490371,0.9383550882339478
1630415935139,0.8345063328742981,0.1949963122606277,0.1887247115373611,0.9383550882339478
1630415935264,0.8345063328742981,0.2448540776968002,0.204776331782341,0.9383550882339478
1630415935326,0.8788081407546997,0.2687544822692871,0.2027733474969864,0.9383550882339478
1630415935451,0.868697464466095,0.2828535735607147,0.1915408223867416,0.9383550882339478
1630415935590,0.84785395860672,0.2955930531024933,0.1702447980642318,0.9383550882339478
1630415935683,0.8244518041610718,0.3054036200046539,0.1421176046133041,0.7928107976913452
1630415935746,0.8244518041610718,0.3175401389598846,0.1114352047443389,0.7853085398674011
1630415935871,0.8525913953781128,0.3288049399852752,0.0852136388421058,0.7853085398674011
1630415935965,0.867232084274292,0.3365442454814911,0.0682884454727172,0.7260661721229553
1630415936074,0.8834587931632996,0.3414310216903686,0.0596082732081413,0.7260661721229553
1630415936121,0.9059553146362304,0.3445578217506408,0.0532848201692104,0.7260661721229553
1630415936230,0.8997434377670288,0.3248614966869354,0.0438769944012165,0.7487778067588806
1630415936375,0.7829647660255432,0.3057057559490204,0.0174776539206504,0.7560654282569885
1630415936437,0.7829647660255432,0.2847827672958374,-0.0429365299642086,0.7520115971565247
1630415936562,0.7829647660255432,0.2113045305013656,-0.1339693516492843,0.7483333349227905
1630415936658,0.7829647660255432,0.1198479235172271,-0.2151007056236267,0.7381395101547241
1630415936767,0.7829647660255432,0.0334553197026252,-0.241737961769104,0.7162208557128906
1630415936876,0.6890318393707275,-0.0246882103383541,-0.2176540642976761,0.7162208557128906
1630415937064,0.6594904661178589,-0.0430494137108325,-0.1710429489612579,0.7162208557128906
1630415937095,0.6594904661178589,-0.0244508162140846,-0.0893486812710762,0.7256788015365601
1630415937189,0.6594904661178589,0.0354038663208484,0.0335353836417198,0.7301906943321228
1630415937298,0.6594904661178589,0.105359211564064,0.1631393432617187,0.7261044979095459
1630415937361,0.6594904661178589,0.1591080576181411,0.2696232199668884,0.7261044979095459
1630415937411,0.6594904661178589,0.1614769548177719,0.3409390747547149,0.7261044979095459
1630415937629,0.6594904661178589,0.1683761924505233,0.3672443628311157,0.7261044979095459
1630415937692,0.6594904661178589,0.1804132312536239,0.394129604101181,0.7261044979095459
1630415937864,0.6594904661178589,0.1952337622642517,0.4209029972553253,0.6882952451705933
1630415937879,0.6594904661178589,0.2150305360555648,0.447871595621109,0.6606505513191223
1630415937958,0.6594904661178589,0.2447366416454315,0.4773378670215606,0.6606505513191223
1630415938082,0.6594904661178589,0.2857643663883209,0.509713351726532,0.6606505513191223
1630415938192,0.6594904661178589,0.301609456539154,0.5437129139900208,0.6606505513191223
1630415938332,0.6594904661178589,0.3132389187812805,0.5805712342262268,0.6606505513191223
1630415938400,1.3287431001663208,0.3305557668209076,0.6239092350006104,0.6606505513191223
1630415938509,1.32217276096344,0.3579453229904175,0.6763721704483032,0.6606505513191223
1630415938572,1.3272830247879028,0.3951683342456817,0.6743931174278259,0.6606505513191223
1630415938697,1.322223424911499,0.4209007918834686,0.6431281566619873,0.6606505513191223
1630415938822,1.3038884401321411,0.4208899140357971,0.5978215932846069,0.6606505513191223
1630415938931,1.2295061349868774,0.4049155116081238,0.5580792427062988,0.6606505513191223
1630415938978,1.1606204509735107,0.4081888496875763,0.5363771319389343,0.6606505513191223
1630415939087,1.1463505029678345,0.4169696271419525,0.5362317562103271,0.6606505513191223
1630415939181,1.1326466798782349,0.4307623505592346,0.5206496715545654,0.6606505513191223
1630415939275,1.114503026008606,0.4409245550632477,0.4997812211513519,0.6606505513191223
1630415939431,1.0921391248703003,0.4433417320251465,0.4794835746288299,0.6606505513191223
1630415939525,1.0687941312789917,0.4392078220844269,0.4661605060100555,0.6606505513191223
1630415939634,1.0467250347137451,0.4303315877914428,0.4606986045837402,0.6606505513191223
1630415939712,1.0272181034088137,0.4375490248203277,0.4564358592033386,0.6606505513191223
1630415939775,1.0247212648391724,0.4445192217826843,0.445846289396286,0.6606505513191223
1630415939900,1.0175973176956177,0.4496340155601501,0.4275865852832794,0.6606505513191223
1630415940009,1.0035293102264404,0.4481124877929687,0.4056929349899292,0.6606505513191223
1630415940118,0.9832960963249208,0.4340468645095825,0.3863141536712646,0.6606505513191223
1630415940243,0.959753394126892,0.4063011705875397,0.3605600893497467,0.6606505513191223
1630415940337,0.9360010027885436,0.3727315962314605,0.3173480629920959,0.6606505513191223
1630415940399,0.9110528826713562,0.3448561429977417,0.2557651400566101,0.6606505513191223
1630415940493,0.8832045197486877,0.3231649994850158,0.1897595971822738,0.6606505513191223
1630415940634,0.853646457195282,0.2978461682796478,0.1331899315118789,0.610607922077179
1630415940727,0.8259624242782593,0.2637884318828583,0.0898357853293418,0.6183875203132629
1630415940837,0.8056598901748657,0.2250048667192459,0.0557316690683364,0.6118044853210449
1630415940946,0.7925662994384766,0.1896524578332901,0.0259664747864007,0.5997680425643921
1630415941040,0.7836095690727234,0.1630886942148208,-0.011124144308269,0.5872974395751953
1630415941180,0.777580201625824,0.1451740264892578,-0.06433617323637,0.5709376931190491
1630415941243,0.7768882513046265,0.1329218000173568,-0.1273353099822998,0.5464265942573547
1630415941337,0.7771691083908081,0.1176949515938758,-0.1789508312940597,0.5156850814819336
1630415941449,0.7624493837356567,0.0901498571038246,-0.2023520469665527,0.485764592885971
1630415941527,0.7210591435432434,0.0477784425020217,-0.2047591358423233,0.4630318284034729
1630415941652,0.6582338809967041,-0.0032261915039271,-0.2010903060436248,0.454600989818573
1630415941730,0.6004800200462341,-0.045724980533123,-0.1942975521087646,0.4636878669261932
1630415941871,0.5744002461433411,-0.0668583810329437,-0.1819272488355636,0.479835569858551
1630415941965,0.5814052820205688,-0.0684133842587471,-0.1675712168216705,0.4951707720756531
1630415942043,0.6010305881500244,-0.0652998462319374,-0.1529508382081985,0.4968545436859131
1630415942139,0.6190651655197144,-0.0715346336364746,-0.1482439488172531,0.4844990670681
1630415942295,0.6336860656738281,-0.0805205106735229,-0.1455277055501938,0.4666481018066406
1630415942342,0.6476602554321289,-0.085039883852005,-0.1436667740345001,0.451075941324234
1630415942459,0.6618359088897705,-0.0914010778069496,-0.1444245278835296,0.4415499866008758
1630415942552,0.6756181716918945,-0.1054217517375946,-0.1495685279369354,0.4393313229084015
1630415942646,0.6869984865188599,-0.1293796896934509,-0.1584034115076065,0.4443860352039337
1630415942787,0.6946352124214172,-0.153918445110321,-0.1670216172933578,0.4565030336380005
1630415942849,0.7050126791000366,-0.1621340662240982,-0.169787585735321,0.4791089296340942
1630415942974,0.7125673294067383,-0.1488481163978576,-0.1681746989488601,0.506500244140625
1630415943068,0.721242368221283,-0.1195068955421447,-0.1645852029323578,0.5325014591217041
1630415943208,0.7423101663589478,-0.0867873653769493,-0.1531777381896972,0.5485813021659851
1630415943240,0.80107182264328,-0.042803231626749,-0.1531777381896972,0.5456346869468689
1630415943349,0.9119228720664978,0.0297654699534177,-0.1531777381896972,0.5201144814491272
1630415943525,1.0413856506347656,0.1202896311879158,-0.1531777381896972,0.4793928563594818
1630415943572,1.145228147506714,0.201822429895401,-0.1531777381896972,0.4404951930046081
1630415943712,1.1655737161636353,0.2568440437316894,-0.1531777381896972,0.42009437084198
1630415943759,1.1883538961410522,0.2810020446777344,-0.1531777381896972,0.4211599826812744
1630415943868,1.214289903640747,0.2897525131702423,-0.1531777381896972,0.4211599826812744
1630415943978,1.244598150253296,0.3007602393627167,-0.1531777381896972,0.4211599826812744
1630415944056,1.2796589136123655,0.3219803273677826,-0.1531777381896972,0.4211599826812744
1630415944134,1.319982647895813,0.3549779653549194,-0.1531777381896972,0.4211599826812744
1630415944321,1.2870360612869265,0.393506109714508,-0.1531777381896972,0.4211599826812744
1630415944415,1.289207935333252,0.4259076714515686,-0.1531777381896972,0.4211599826812744
1630415944497,1.2924132347106934,0.4450265765190124,-0.1531777381896972,0.4211599826812744
1630415944560,1.2957762479782104,0.4506266415119171,-0.1531777381896972,0.4211599826812744
1630415944685,1.2936073541641235,0.4486456215381622,-0.1531777381896972,0.4211599826812744
1630415944747,1.2707310914993286,0.4399120211601257,0.2837602198123932,0.4211599826812744
1630415944903,1.200614094734192,0.416890949010849,0.2745165824890136,0.4211599826812744
1630415944997,1.0533524751663208,0.3738932013511657,0.277886301279068,0.4211599826812744
1630415945122,0.8015958666801453,0.3154819011688232,0.293024480342865,0.4211599826812744
1630415945185,0.7643944025039673,0.2600785195827484,0.3063084781169891,0.4211599826812744
1630415945310,0.7643944025039673,0.2250953465700149,0.3063791692256927,0.4211599826812744
1630415945388,0.7643944025039673,0.20355986058712,0.2905810177326202,0.4211599826812744
1630415945544,0.7643944025039673,0.1793420612812042,0.2633651196956634,0.4211599826812744
1630415945622,0.7643944025039673,0.1416719555854797,0.2317709326744079,0.4211599826812744
1630415945747,0.7643944025039673,0.0869736596941948,0.2011366933584213,0.4211599826812744
1630415945825,0.7531040906906128,0.0187777020037174,0.1730282008647918,0.4211599826812744
1630415945903,0.7267709374427795,-0.0429504998028278,0.1472201198339462,0.4211599826812744
1630415946013,0.6712828874588013,-0.0674835816025734,0.1187045946717262,0.4211599826812744
1630415946184,0.5866157412528992,-0.0476964004337787,0.0818255096673965,0.4211599826812744
1630415946216,0.4887777864933014,-0.011782519519329,0.0444016195833683,0.4211599826812744
1630415946294,0.3925537467002868,0.0121592469513416,0.0135082518681883,0.4211599826812744
1630415946419,0.3925537467002868,0.0165503472089767,-0.0178327746689319,0.4211599826812744
1630415946499,0.3925537467002868,0.0099637135863304,-0.0631047189235687,0.4211599826812744
1630415946608,0.3925537467002868,0.0025431101676076,-0.1254402697086334,0.5255252122879028
1630415946764,0.3925537467002868,-0.0017607857007533,-0.1892084926366806,0.5181455016136169
1630415946842,0.3925537467002868,-0.0028070863336324,-0.2276558429002761,0.5182820558547974
1630415946936,0.5149027705192566,0.0013962131924927,-0.2284263968467712,0.5249859094619751
1630415947030,0.5149027705192566,0.0113945426419377,-0.20485220849514,0.5386773347854614
1630415947123,0.5149027705192566,0.0238856133073568,-0.1781085133552551,0.5745558738708496
1630415947202,0.5149027705192566,0.0309017430990934,-0.1599567234516143,0.6007144451141357
1630415947389,0.5149027705192566,0.02562684006989,-0.1515731513500213,0.6024717092514038
1630415947467,0.5149027705192566,0.0027569395024329,-0.1497593075037002,0.6024717092514038
1630415947498,0.5149027705192566,-0.0403898321092128,-0.1519048660993576,0.6024717092514038
1630415947639,0.5149027705192566,-0.101153664290905,-0.1594647169113159,0.6024717092514038
1630415947764,0.5149027705192566,-0.1664623469114303,-0.1725487262010574,0.8273034691810608
1630415947826,0.5149027705192566,-0.2176181226968765,-0.1865038126707077,0.899830162525177
1630415947983,0.4840351045131683,-0.2385630309581756,-0.1923548877239227,0.9089475870132446
1630415948030,0.4796888530254364,-0.2297543436288833,-0.1881421357393264,0.8996129035949707
1630415948155,0.4890698790550232,-0.2036034315824508,-0.183705449104309,0.9079091548919678
1630415948233,0.4973598718643188,-0.1754734963178634,-0.188718095421791,0.9317352771759032
1630415948389,0.5212967991828918,-0.1545330435037613,-0.2050906419754028,0.9575909972190856
1630415948451,0.5738123655319214,-0.1441189646720886,-0.2256399691104889,0.9854723811149596
1630415948611,0.6088437438011169,-0.1373446434736251,-0.241931140422821,0.9799723625183104
1630415948720,0.6481143832206726,-0.1253152936697006,-0.250599056482315,1.0070751905441284
1630415948783,0.6881734728813171,-0.1040379330515861,-0.2487561255693435,1.0388394594192505
1630415948861,0.7216046452522278,-0.0793366059660911,-0.2325190007686615,1.0727906227111816
1630415948970,0.7405561804771423,-0.0607331693172454,-0.2038230895996093,1.0727906227111816
1630415949048,0.7430209517478943,-0.0540786124765872,-0.1737288385629654,1.0727906227111816
1630415949174,0.7308128476142883,-0.0565248727798461,-0.1493884176015854,1.0727906227111816
1630415949236,0.7121543884277344,-0.0594492070376873,-0.1324309855699539,0.9294984936714172
1630415949439,0.69697105884552,-0.0513229444622993,-0.1220360025763511,0.7704259753227234
1630415949487,0.707280158996582,-0.0341477058827877,-0.115558423101902,0.7704259753227234
1630415949512,0.7224738001823425,-0.0201513282954692,-0.1164713650941848,0.7704259753227234
1630415949637,0.7359395027160645,-0.0193075947463512,-0.1151660457253456,0.7704259753227234
1630415949840,0.7405359745025635,-0.0300491917878389,-0.116780050098896,0.7704259753227234
1630415949887,0.7345656156539917,-0.0449342466890811,-0.1206715032458305,0.7704259753227234
1630415949965,0.7194369435310364,-0.0567591972649097,-0.1257064193487167,0.7704259753227234
1630415950090,0.695932149887085,-0.0721687600016594,-0.1295053362846374,0.7704259753227234
1630415950184,0.6633450984954834,-0.0990924760699272,-0.117749847471714,0.7704259753227234
1630415950278,0.6197088360786438,-0.1381125599145889,-0.1180014386773109,0.7704259753227234
1630415950403,0.5680232644081116,-0.1808294951915741,-0.1256518363952636,0.7704259753227234
1630415950481,0.5182545781135559,-0.2129546999931335,-0.1424827575683593,0.7704259753227234
1630415950606,0.4809326827526092,-0.2270078659057617,-0.1642219275236129,0.7704259753227234
1630415950731,0.4646081030368805,-0.2328102588653564,-0.1757119745016098,0.7704259753227234
1630415950762,0.4697223007678985,-0.2452770769596099,-0.1648375540971756,0.7704259753227234
1630415950919,0.4862932562828064,-0.278740644454956,-0.1181270778179168,0.7704259753227234
1630415951075,0.4972996711730957,-0.3273983001708984,-0.0406338684260845,0.7704259753227234
1630415951122,0.4874228239059448,-0.3745565116405487,0.0457422845065593,0.8094230890274048
1630415951168,0.458692193031311,-0.4011285305023193,0.0923494771122932,0.8094230890274048
1630415951293,0.4290342628955841,-0.4071305990219116,0.1094517558813095,0.8094230890274048
1630415951418,0.4167322218418121,-0.4057237207889557,0.1027144491672515,0.8094230890274048
1630415951496,0.4238035678863525,-0.4095982313156128,0.0829957574605941,0.8094230890274048
1630415951590,0.4408868849277496,-0.4107582867145538,0.0591009445488452,0.8094230890274048
1630415951731,0.4582551121711731,-0.3992367386817932,0.0410564392805099,0.8094230890274048
1630415951840,0.4706890285015106,-0.37420654296875,0.0311630330979824,0.8094230890274048
1630415951918,0.4757648408412933,-0.3410288393497467,0.0260602310299873,0.8094230890274048
1630415952012,0.4755721390247345,-0.3062219023704529,0.0229184236377477,0.8094230890274048
1630415952106,0.4745506942272186,-0.2751012146472931,0.0189063362777233,0.8880971074104309
1630415952262,0.4735358655452728,-0.2473982870578766,0.0111429672688245,0.9201098084449768
1630415952308,0.4666330218315124,-0.2219779044389724,0.0005999343702569,0.9275830388069152
1630415952418,0.4498357772827148,-0.200945645570755,-0.0171066727489233,0.9362255334854126
1630415952555,0.4296263754367828,-0.1904485523700714,-0.0528835691511631,0.899929404258728
1630415952649,0.4161949157714844,-0.1929267197847366,-0.1130684092640876,0.8989131450653076
1630415952696,0.415308803319931,-0.2013030052185058,-0.1916248202323913,0.8892010450363159
1630415952805,0.4241467118263244,-0.1982038021087646,-0.2653024196624756,0.894881010055542
1630415952992,0.4347040355205536,-0.1744162291288375,-0.3086742758750915,0.9001361727714539
1630415953039,0.4402021765708923,-0.141187235713005,-0.3149392604827881,0.8960626125335693
1630415953133,0.4382988214492798,-0.1160179078578949,-0.2996928095817566,0.8839011788368225
1630415953211,0.4369164109230041,-0.1067473441362381,-0.2833782732486725,0.867455780506134
1630415953305,0.4453143775463104,-0.1098881289362907,-0.2765218019485473,0.8473386168479919
1630415953430,0.460639089345932,-0.1177674084901809,-0.2820432782173157,0.8269940614700317
1630415953570,0.4739511013031006,-0.1249486729502677,-0.2923250198364258,0.8093463778495789
1630415953633,0.4831849634647369,-0.1269887387752533,-0.2950906157493591,0.7634066343307495
1630415953742,0.4922723770141601,-0.1180093213915824,-0.286566823720932,0.727989912033081
1630415953867,0.4984435141086578,-0.0915533825755119,-0.2696402966976166,0.7158307433128357
1630415953914,0.5007584691047668,-0.047060627490282,-0.254593938589096,0.7122700810432434
1630415954101,0.5096372961997986,0.0026232639793306,-0.2488820403814315,0.7099395990371704
1630415954180,0.5429701209068298,0.0410407893359661,-0.2483149617910385,0.6954845190048218
1630415954258,0.5935260653495789,0.058347962796688,-0.2387205958366394,0.6652456521987915
1630415954336,0.6409046053886414,0.0536950007081031,-0.2064201384782791,0.6208432912826538
1630415954414,0.6737139821052551,0.0352675877511501,-0.1510400474071502,0.5865647792816162
1630415954554,0.6934887766838074,0.0139080490916967,-0.091814711689949,0.5559223294258118
1630415954664,0.7036544680595398,0.0013659003889188,-0.0455355197191238,0.5342497229576111
1630415954773,0.7020223140716553,0.0034254675265401,-0.0126165337860584,0.5238927602767944
1630415954867,0.6883085370063782,0.0162395909428596,0.0143342223018407,0.5236867070198059
1630415954961,0.6704261898994446,0.0320101156830787,0.0397340282797813,0.5249775648117065
1630415955039,0.6601523160934448,0.0477150529623031,0.0695120021700859,0.5233668684959412
1630415955148,0.6607984900474548,0.0614159367978572,0.1019376441836357,0.511713981628418
1630415955289,0.6731784343719482,0.0695991143584251,0.1325056403875351,0.4833798110485077
1630415955351,0.6872557401657104,0.0632842257618904,0.1554925292730331,0.4397843182086944
1630415955476,0.7023265361785889,0.0340088382363319,0.1683307439088821,0.3910943865776062
1630415955586,0.7089806795120239,-0.0132343936711549,0.1731592267751693,0.3816977143287658
1630415955617,0.6912062168121338,-0.0601893775165081,0.1735504865646362,0.386941522359848
1630415955710,0.6431815028190613,-0.0884905979037284,0.1695296168327331,0.3980719149112701
1630415955898,0.5705548524856567,-0.0972235351800918,0.1568016409873962,0.4147450923919678
1630415955945,0.4831472933292389,-0.1011664643883705,0.1323002278804779,0.4147450923919678
1630415956070,0.3849360644817352,-0.1074794828891754,0.098670408129692,0.4147450923919678
1630415956242,0.2822707891464233,-0.11207777261734,0.0667657107114791,0.4147450923919678
1630415956288,0.2140528112649917,-0.105920486152172,0.0446045137941837,0.3770354986190796
1630415956398,0.2140528112649917,-0.0894501209259033,0.0329752154648304,0.3282196819782257
1630415956492,0.2140528112649917,-0.0749822705984115,0.0285129565745592,0.2684222757816314
1630415956570,0.2140528112649917,-0.0768732726573944,0.0187343284487724,0.2006272375583648
1630415956695,0.2140528112649917,-0.092932604253292,-0.0025239211972802,0.1503334492444992
1630415956820,0.5301448106765747,-0.1071870625019073,-0.0331375710666179,0.1520110219717025
1630415956851,0.5534524321556091,-0.1015960797667503,-0.0659439340233802,0.2067533880472183
1630415956991,0.5515345931053162,-0.0774469375610351,-0.0936510786414146,0.2768145799636841
1630415957116,0.5327383875846863,-0.0493572391569614,-0.1141012459993362,0.2943187952041626
1630415957194,0.5098093152046204,-0.0268733892589807,-0.1248892247676849,0.2943187952041626
1630415957304,0.4871901571750641,-0.0100029967725276,-0.1180449053645134,0.2943187952041626
1630415957382,0.4623454809188843,0.0031064799986779,-0.0897276625037193,0.2943187952041626
1630415957476,0.4328818321228027,0.0120539711788296,-0.048712357878685,0.2943187952041626
1630415957572,0.4005438983440399,0.014523321762681,-0.0065656658262014,0.2943187952041626
1630415957713,0.3688074648380279,0.006631588563323,0.0280151255428791,0.2943187952041626
1630415957807,0.342818409204483,-0.0169943645596504,0.0519948936998844,0.2981706261634826
1630415957931,0.3275090157985687,-0.0576680265367031,0.0656684637069702,0.318473070859909
1630415957994,0.3165601193904876,-0.1060494035482406,0.0691141635179519,0.3615837693214416
1630415958056,0.3263076543807983,-0.1456817835569381,0.0652943924069404,0.4189082682132721
1630415958228,0.3429769277572632,-0.1712491810321808,0.0583575628697872,0.4689331650733948
1630415958353,0.3584514558315277,-0.1900546103715896,0.0530146732926368,0.4689331650733948
1630415958416,0.3731072247028351,-0.2122624665498733,0.0552857927978038,0.4689331650733948
1630415958494,0.3929760158061981,-0.2373387664556503,0.0703826546669006,0.4689331650733948
1630415958650,0.4180886745452881,-0.2646844387054443,0.0963931828737258,0.4689331650733948
1630415958697,0.4429848492145538,-0.2952796816825866,0.1208796575665474,0.4689331650733948
1630415958759,0.4663556814193725,-0.326387882232666,0.1307459473609924,0.4689331650733948
1630415958947,0.4920851290225982,-0.3519800305366516,0.1209354996681213,0.4689331650733948
1630415958994,0.5268974900245667,-0.367825835943222,0.0946251079440116,0.4689331650733948
1630415959087,0.5736134648323059,-0.3714112043380737,0.0606827586889267,0.4689331650733948
1630415959244,0.6290431022644043,-0.3618262410163879,0.029942462220788,0.4689331650733948
1630415959290,0.6846864819526672,-0.3409160673618316,0.0083052311092615,0.4689331650733948
1630415959415,0.7315391898155212,-0.3138477504253387,-0.0055438256822526,0.3944581151008606
1630415959559,0.7626166343688965,-0.2867562770843506,-0.0142626501619815,0.3687657117843628
1630415959606,0.7745401859283447,-0.2640275955200195,-0.0155662205070257,0.3421898782253265
1630415959762,0.7710741758346558,-0.2488342672586441,-0.0025360549334436,0.3332437872886657
1630415959809,0.7629112005233765,-0.2492924034595489,0.0260841194540262,0.3519126176834106
1630415959887,0.7628241181373596,-0.267289400100708,0.0593480132520198,0.3837183117866516
1630415959996,0.7739945650100708,-0.2917098104953766,0.0827256590127945,0.4080364406108856
1630415960168,0.7894212007522583,-0.3014803528785705,0.0894247516989708,0.4139586985111236
1630415960230,0.8003416061401367,-0.2846401929855346,0.0846534669399261,0.4046902060508728
1630415960308,0.8035082817077637,-0.2512406706809997,0.0778104588389396,0.3899360001087188
1630415960418,0.7985960841178894,-0.2183015942573547,0.0751866698265075,0.378248780965805
1630415960562,0.7844533920288086,-0.1961951702833175,0.0767282992601394,0.3726077973842621
1630415960608,0.7594268321990967,-0.1837607473134994,0.0792490243911743,0.3623601198196411
1630415960755,0.7230316400527954,-0.1734190881252288,0.0781633406877517,0.3640285134315491
1630415960833,0.6790379285812378,-0.1580971479415893,0.071832038462162,0.3615784049034118
1630415960942,0.6341272592544556,-0.1380983293056488,0.0631768330931663,0.3526728749275207
1630415961083,0.5944280624389648,-0.1217197999358177,0.0585390515625476,0.3425219058990478
1630415961131,0.5647256374359131,-0.1162274554371833,0.0607620850205421,0.3320874273777008
1630415961222,0.5446357727050781,-0.1226696223020553,0.0635711401700973,0.3149774074554443
1630415961374,0.524089515209198,-0.135942280292511,0.0592743419110775,0.2842364013195038
1630415961468,0.4887681603431701,-0.1488998830318451,0.0472506918013095,0.2445034235715866
1630415961562,0.4309804737567901,-0.1588703989982605,0.0334948115050792,0.2115195244550705
1630415961609,0.3567167520523071,-0.1676177084445953,0.0233046859502792,0.2027326822280883
1630415961722,0.2847371399402618,-0.1789830923080444,0.0167158935219049,0.2193663418292999
1630415961847,0.2333785742521286,-0.1950112134218216,0.0129060763865709,0.2542663514614105
1630415961957,0.2134118676185608,-0.2128937095403671,0.0135183138772845,0.2989382743835449
1630415962035,0.2241386473178863,-0.2253460735082626,0.0195236783474683,0.3424290120601654
1630415962144,0.2555364668369293,-0.2313628047704696,0.0307714492082595,0.37575763463974
1630415962253,0.2891275584697723,-0.2411697804927826,0.0482590198516845,0.3959352374076843
1630415962394,0.3054363429546356,-0.2687769532203674,0.0724026039242744,0.4128134250640869
1630415962441,0.2982554733753204,-0.3174065947532654,0.0970305800437927,0.4347056746482849
1630415962546,0.2785133421421051,-0.3727904558181762,0.1133453994989395,0.4622918367385864
1630415962687,0.2650364935398102,-0.4090543091297149,0.1145804896950721,0.4903173446655273
1630415962828,0.266051173210144,-0.4064348638057709,0.1038375198841095,0.5174261331558228
1630415962859,0.2746351659297943,-0.367679238319397,0.087613932788372,0.5430405139923096
1630415962953,0.2822582423686981,-0.31444051861763,0.0683737695217132,0.563034176826477
1630415963093,0.2888343334197998,-0.2695615291595459,0.0455058142542839,0.5726737976074219
1630415963171,0.2995725274085998,-0.2442436069250106,0.020738162100315,0.5714215040206909
1630415963296,0.3251424431800842,-0.2360731214284896,0.0134220700711011,0.5663481950759888
1630415963421,0.3652115762233734,-0.2259173393249511,0.0215382408350706,0.5643212199211121
1630415963515,0.403934895992279,-0.1881845444440841,0.0372275523841381,0.5667172074317932
1630415963577,0.4245974123477936,-0.1164898425340652,0.0523350574076175,0.5724993348121643
1630415963640,0.4202169775962829,-0.0358523689210414,0.0615474581718444,0.5764127969741821
1630415963843,0.3977245986461639,0.0262349266558885,0.0598674118518829,0.5772060751914978
1630415963874,0.3747235536575317,0.0605297423899173,0.0445650741457939,0.5724355578422546
1630415964015,0.3661511838436126,0.0749122202396392,0.0128232985734939,0.5606473684310913
1630415964077,0.3761210143566131,0.0824386924505233,-0.0250219870358705,0.5452768206596375
1630415964187,0.3973664939403534,0.0937062948942184,-0.0488207750022411,0.5442978143692017
1630415964281,0.4202413260936737,0.1093852743506431,-0.0575991906225681,0.5430926084518433
1630415964421,0.4391486644744873,0.1239447891712188,-0.0469058640301227,0.5399567484855652
1630415964515,0.451024442911148,0.1320004761219024,-0.0168606098741292,0.5369453430175781
1630415964626,0.4541871547698974,0.1330074816942215,0.0186401531100273,0.5410327315330505
1630415964673,0.4487688839435577,0.129145935177803,0.0485799871385097,0.5571247339248657
1630415964814,0.4309347867965698,0.1243363320827484,0.0449645929038524,0.577492356300354
1630415964876,0.4001221358776092,0.1182953491806984,0.0254020299762487,0.5859563946723938
1630415965017,0.3681052923202514,0.1051089167594909,0.0075145168229937,0.56851726770401
1630415965143,0.3603232800960541,0.0793641433119773,0.0042427205480635,0.5159663558006287
1630415965225,0.3902930319309234,0.0476898103952407,0.0205649100244045,0.4365715384483337
1630415965334,0.4444073140621185,0.0275598764419555,0.0473206602036953,0.4365715384483337
1630415965428,0.4986494779586792,0.0298726726323366,0.0719872191548347,0.4365715384483337
1630415965475,0.5453426241874695,0.0453232154250144,0.0957682430744171,0.4365715384483337
1630415965647,0.5837624073028564,0.0577964298427104,0.1201399788260459,0.4365715384483337
1630415965725,0.6120848059654236,0.0559554658830165,0.1442182660102844,0.4365715384483337
1630415965834,0.6266257166862488,0.0406938828527927,0.1639327704906463,1.078603982925415
1630415965928,0.6280079483985901,0.0240231081843376,0.1694495379924774,1.0182242393493652
1630415966037,0.6268773078918457,0.02066146209836,0.162455677986145,0.9665715098381042
1630415966100,0.6382438540458679,0.0337850786745548,0.1565811038017273,0.9334420561790466
1630415966209,0.6677634119987488,0.0519891120493412,0.1635845303535461,0.9206632971763612
1630415966371,0.7086782455444336,0.0624400563538074,0.181803673505783,0.9189810156822203
1630415966418,0.7483726739883423,0.0610431283712387,0.2019257098436355,0.9173821210861206
1630415966528,0.778852105140686,0.0515476614236831,0.2144200652837753,0.9123560786247252
1630415966640,0.7915358543395996,0.037491139024496,0.2143746018409729,0.9123560786247252
1630415966734,0.7982469201087952,0.0191338025033473,0.1983454674482345,0.9123560786247252
1630415966859,0.7998736500740051,0.0010347012430429,0.1675244271755218,0.9123560786247252
1630415966937,0.8001555800437927,-0.0049082543700933,0.1295919418334961,0.9123560786247252
1630415967031,0.799112856388092,0.0080838901922106,0.0931420624256134,0.8679113984107971
1630415967187,0.7945156097412109,0.0321626961231231,0.0590875558555126,0.8243269324302673
1630415967249,0.7886385917663574,0.0537750758230686,0.0239132288843393,0.7888463735580444
1630415967359,0.7932658195495605,0.0632902607321739,-0.0106246583163738,0.7777528762817383
1630415967499,0.8197124600410461,0.0564496852457523,-0.0398798696696758,0.7988225817680359
1630415967596,0.8641871213912964,0.0325545966625213,-0.0702295303344726,0.8368655443191528
1630415967658,0.9097625613212584,-0.0025233079213649,-0.1093479916453361,0.8727970123291016
1630415967736,0.9097625613212584,-0.0335840545594692,-0.1490572392940521,0.8727970123291016
1630415967814,0.9097625613212584,-0.0464048013091087,-0.1479134112596511,0.8727970123291016
1630415967970,0.9097625613212584,-0.0375829637050628,-0.0823500454425811,0.8727970123291016
1630415968033,0.9097625613212584,-0.0117414472624659,0.0078860158100724,0.8727970123291016
1630415968189,0.9097625613212584,0.0311534292995929,0.0801838561892509,0.8727970123291016
1630415968236,0.9097625613212584,0.0901811420917511,0.1263281255960464,1.58635675907135
1630415968395,0.9097625613212584,0.149985671043396,0.1598832160234451,1.5661760568618774
1630415968442,0.9097625613212584,0.1963361203670501,0.1935156285762787,1.5479601621627808
1630415968535,0.9097625613212584,0.1918192654848098,0.2262969464063644,1.5689009428024292
1630415968676,0.9097625613212584,0.1859160214662552,0.251009851694107,1.5689009428024292
1630415968754,0.9097625613212584,0.1875246167182922,0.2648440301418304,1.5689009428024292
1630415968832,0.9097625613212584,0.2027437537908554,0.2700988054275512,1.5689009428024292
1630415968942,0.9097625613212584,0.2301367819309234,0.2703793942928314,1.5689009428024292
1630415969067,0.9097625613212584,0.2504062354564667,0.2704267501831054,1.5689009428024292
1630415969176,0.9097625613212584,0.2704271674156189,0.2708717882633209,1.5689009428024292
1630415969260,0.9097625613212584,0.2901695966720581,0.2675157189369201,1.5689009428024292
1630415969385,0.9097625613212584,0.3077181279659271,0.2483381927013397,1.5689009428024292
1630415969479,0.9097625613212584,0.3173747360706329,0.20307257771492,1.585173726081848
1630415969588,0.9097625613212584,0.3109937906265259,0.1366592347621917,1.579516053199768
1630415969650,0.9097625613212584,0.2809362709522247,0.0725656449794769,1.5585200786590576
1630415969760,0.9097625613212584,0.2211468070745468,0.0355224087834358,1.5585200786590576
1630415969869,0.9097625613212584,0.1316519677639007,0.0276063494384288,1.5585200786590576
1630415970057,0.9097625613212584,0.0190653894096612,0.0313235819339752,1.5585200786590576
1630415970088,0.9097625613212584,0.0113769490271806,0.0447389706969261,1.5585200786590576
1630415970182,0.9097625613212584,0.0146610727533698,0.0731980055570602,1.5585200786590576
1630415970275,0.9097625613212584,0.0299565512686967,0.1102263480424881,1.5585200786590576
1630415970338,0.9097625613212584,0.0568514540791511,0.1437079161405563,1.5585200786590576
1630415970526,0.9097625613212584,0.0864887163043022,0.1650337278842926,1.5585200786590576
1630415970556,0.9097625613212584,0.1079445928335189,0.1748526990413665,1.5585200786590576
1630415970728,0.9097625613212584,0.1139007359743118,0.1808095574378967,1.5585200786590576
1630415970791,1.1488851308822632,0.1053481549024581,0.185509905219078,1.5585200786590576
1630415970869,1.065909743309021,0.0918921455740928,0.1960546374320984,1.5585200786590576
1630415970931,1.0034817457199097,0.0816354751586914,0.2175614237785339,1.5585200786590576
1630415971088,0.9622556567192078,0.0824887156486511,0.2451887726783752,1.5585200786590576
1630415971291,0.9363381266593932,0.0923946723341941,0.2658372223377228,0.5609964728355408
1630415971373,0.9157437086105348,0.1018427833914756,0.2694109976291656,0.5508317351341248
1630415971435,0.8945042490959167,0.1046614348888397,0.2540480494499206,0.5321786403656006
1630415971513,0.8738606572151184,0.0987885072827339,0.2248127162456512,0.5127008557319641
1630415971669,0.8555102348327637,0.0858018845319747,0.1849508732557296,0.4937958717346191
1630415971732,0.8374155163764954,0.0654790252447128,0.1392765194177627,0.4845187962055206
1630415971841,0.816318929195404,0.0392751842737197,0.1002878919243812,0.492676317691803
1630415971857,0.7917802929878235,0.0066678775474429,0.0787408649921417,0.5166674852371216
1630415972044,0.6523072123527527,-0.0301353428512811,0.0779041573405265,0.5469298958778381
1630415972076,0.5305789113044739,-0.0645670592784881,0.0868103578686714,0.577605128288269
1630415972185,0.4590033888816833,-0.088846318423748,0.0910852625966072,0.6030063033103943
1630415972341,0.4432249367237091,-0.1005508303642273,0.0864019095897674,0.6169220805168152
1630415972404,0.4529635310173034,-0.1026664078235626,0.0649502724409103,0.6209647059440613
1630415972513,0.4558734595775604,-0.0961169153451919,0.0206120200455188,0.6121402382850647
1630415972607,0.4378552138805389,-0.0859460905194282,-0.0433036834001541,0.5975830554962158
1630415972700,0.3989808559417724,-0.075059950351715,-0.110426090657711,0.5843366980552673
1630415972888,0.35199174284935,-0.0636330917477607,-0.1555163711309433,0.5774521827697754
1630415972966,0.3099883198738098,-0.0514839887619018,-0.1636628210544586,0.5755382776260376
1630415973060,0.2721989750862121,-0.0409036427736282,-0.1420528590679168,0.5753576755523682
1630415973122,0.2315311282873153,-0.0340685807168483,-0.1129123494029045,0.575498104095459
1630415973200,0.1950325220823288,-0.0321380756795406,-0.0956175625324249,0.5715380907058716
1630415973325,0.1825943142175674,-0.0363660976290702,-0.1009201109409332,0.5608203411102295
1630415973372,0.2082182765007019,-0.0449338182806968,-0.1247889995574951,0.5467893481254578
1630415973563,0.2635214924812317,-0.0520290620625019,-0.154245987534523,0.534815788269043
1630415973641,0.3239191770553589,-0.0515065304934978,-0.1793666183948516,0.5201886296272278
1630415973766,0.3680848777294159,-0.0421884767711162,-0.1960416436195373,0.4976171851158142
1630415973828,0.3915563523769378,-0.0285742096602916,-0.19953353703022,0.4719038605690002
1630415973906,0.4063808023929596,-0.0165265090763568,-0.1827609688043594,0.4552952945232391
1630415974063,0.4320491850376129,-0.0078003634698688,-0.1494309604167938,0.4513344764709472
1630415974156,0.4757642447948456,-0.0014801047509536,-0.1124120205640792,0.4512281417846679
1630415974266,0.5268211364746094,0.0047264653258025,-0.0793004184961319,0.4502415955066681
1630415974359,0.5698550343513489,0.010855495929718,-0.048836413770914,0.4538123905658722
1630415974406,0.59894198179245,0.0170872211456298,-0.0234303101897239,0.465985894203186
1630415974503,0.6152029037475586,0.0240586679428815,-0.0118471849709749,0.4829744696617126
1630415974612,0.626953125,0.0339928306639194,-0.0150624113157391,0.4981043338775635
1630415974768,0.6430237293243408,0.046041302382946,-0.0157321952283382,0.5106175541877747
1630415974878,0.6676484942436218,0.0567656978964805,0.0094483932480216,0.5203150510787964
1630415975003,0.6961315274238586,0.0626194477081298,0.0597042515873909,0.5209329128265381
1630415975034,0.7189801931381226,0.062667965888977,0.1104823499917984,0.5069770216941833
1630415975159,0.7305344343185425,0.0577333085238933,0.1426342725753784,0.4852923154830932
1630415975206,0.7353293299674988,0.049743503332138,0.1533974111080169,0.4729296863079071
1630415975362,0.7385978698730469,0.0391883142292499,0.1486592292785644,0.4770336747169494
1630415975506,0.7389750480651855,0.0255967564880847,0.134381428360939,0.4883893430233001
1630415975568,0.7308846712112427,0.0072948988527059,0.1135681644082069,0.4958939850330353
1630415975678,0.7112793922424316,-0.0173037014901638,0.0898212864995002,0.4953405261039734
1630415975771,0.6839833855628967,-0.0431737005710601,0.0655681788921356,0.4881972670555115
1630415975834,0.6574209928512573,-0.058889415115118,0.0379949919879436,0.4718285202980041
1630415975959,0.6371427178382874,-0.0605060793459415,0.0046123587526381,0.4435374736785888
1630415976037,0.6245397329330444,-0.0573960915207862,-0.0291253924369812,0.4066667258739471
1630415976162,0.6141507625579834,-0.060412224382162,-0.0542644448578357,0.3709609508514404
1630415976287,0.595768392086029,-0.0687813684344291,-0.0733986496925354,0.3393024504184723
1630415976365,0.561715841293335,-0.0747390687465667,-0.1017611622810363,0.3132139146327972
1630415976505,0.5134986042976379,-0.0764685273170471,-0.1477921605110168,0.3079749047756195
1630415976584,0.4654600620269775,-0.0788189023733139,-0.2011447995901107,0.3452252149581909
1630415976693,0.4357922673225403,-0.0855178236961364,-0.2382634580135345,0.4101722538471222
1630415976755,0.4220801591873169,-0.0940959751605987,-0.2494641095399856,0.4635002315044403
1630415976880,0.4086649119853973,-0.0994360148906707,-0.2456080317497253,0.4847330451011657
1630415976958,0.390514999628067,-0.1003071889281272,-0.2407963126897812,0.4789648950099945
1630415977068,0.376274824142456,-0.1003654599189758,-0.2355521023273468,0.4640678167343139
1630415977224,0.3728228211402893,-0.1047208830714225,-0.2301253229379654,0.4550511837005615
1630415977287,0.3732381463050842,-0.1215760707855224,-0.2251272499561309,0.4543937444686889
1630415977396,0.3691761195659637,-0.1548480689525604,-0.2226860523223877,0.4620694518089294
1630415977521,0.3626466393470764,-0.1946526765823364,-0.2222229093313217,0.4812597334384918
1630415977630,0.3621509671211242,-0.2145559340715408,-0.2188149541616439,0.5148875713348389
1630415977677,0.3715619444847107,-0.2001457661390304,-0.2107450366020202,0.5567039847373962
1630415977833,0.3867713510990143,-0.1683142632246017,-0.2059809863567352,0.5951445698738098
1630415977958,0.3988292217254638,-0.1426614969968795,-0.217930257320404,0.6199528574943542
1630415978021,0.3998391330242157,-0.1290489137172699,-0.2556033134460449,0.6250625252723694
1630415978083,0.3847955465316772,-0.1206525489687919,-0.3145749568939209,0.6046634316444397
1630415978193,0.3564160466194153,-0.109066791832447,-0.3775852024555206,0.5613489151000977
1630415978302,0.3290626108646393,-0.0911871120333671,-0.4223799109458923,0.5088731646537781
1630415978442,0.3204737305641174,-0.0708516687154769,-0.4398659467697143,0.4701674878597259
1630415978552,0.3337680399417877,-0.0517817214131355,-0.4352149069309234,0.458751231431961
1630415978692,0.35141122341156,-0.0351034849882125,-0.4229499995708465,0.4656301140785217
1630415978739,0.358428031206131,-0.0174366738647222,-0.4131583571434021,0.4750226736068725
1630415978786,0.3584902584552765,0.0076703960075974,-0.411564826965332,0.4780359268188476
1630415978880,0.3649876117706299,0.047324813902378,-0.4145482778549194,0.4725350737571716
1630415979083,0.3837275505065918,0.0957939550280571,-0.4180925786495209,0.4571911692619324
1630415979114,0.4062103033065796,0.1361832171678543,-0.4258427321910858,0.4277399480342865
1630415979239,0.4224993288516998,0.154874712228775,-0.4425339996814728,0.3825768828392029
1630415979333,0.4374633431434631,0.1518699079751968,-0.4594966769218445,0.3369064331054687
1630415979411,0.4632931351661682,0.1373204886913299,-0.4615467488765716,0.3133701980113983
1630415979521,0.5035127997398376,0.1208241134881973,-0.4467107057571411,0.3162831962108612
1630415979648,0.549384355545044,0.1049795746803283,-0.4227907657623291,0.3312931358814239
1630415979742,0.5876888036727905,0.0880940929055213,-0.3964576125144958,0.3446052372455597
1630415979820,0.609603226184845,0.0672447681427002,-0.3621645271778106,0.3505043089389801
1630415979929,0.6149036884307861,0.0431950204074382,-0.3080860674381256,0.3478353023529053
1630415980038,0.6115399599075317,0.021702267229557,-0.228077083826065,0.3366661965847015
1630415980132,0.6114562153816223,0.0118698747828602,-0.1378452181816101,0.3237269222736358
1630415980272,0.6197585463523865,0.0153699917718768,-0.0590311624109745,0.3168608248233795
1630415980398,0.6318628787994385,0.023441269993782,-0.0026590379420667,0.3202363550662994
1630415980445,0.6421635150909424,0.0259787533432245,0.0359949208796024,0.330757588148117
1630415980576,0.6631496548652649,0.0310191623866558,0.0668679401278495,0.3627727925777435
1630415980638,0.7342967391014099,0.0647664442658424,0.0953406542539596,0.4606613218784332
1630415980748,0.8672201037406921,0.1371583491563797,0.1209589093923568,0.6234332919120789
1630415980857,0.8820126056671143,0.2219003736972808,0.1398444920778274,0.781278133392334
1630415980919,0.8951378464698792,0.2885383069515228,0.1489125043153762,0.8883041739463806
1630415981076,0.9043128490447998,0.328605055809021,0.1488390415906906,0.9398605227470398
1630415981169,0.9103348255157472,0.3496562540531158,0.1432966142892837,0.954332709312439
1630415981279,0.9181339144706726,0.3622380197048187,0.1378511041402816,0.9554972052574158
1630415981326,0.9344792366027832,0.3716031610965729,0.1314166337251663,0.9566927552223206
1630415981466,0.9637041091918944,0.3776253163814544,0.1172632128000259,0.9592522978782654
1630415981578,0.9767860770225524,0.3783439099788666,0.0885361358523368,0.9614278674125672
1630415981625,0.990519106388092,0.3725388646125793,0.0490823052823543,0.9629631042480468
1630415981766,1.0095911026000977,0.3619186580181122,0.0105142975226044,0.9639754891395568
1630415981875,1.0335184335708618,0.3503860235214233,-0.0160720124840736,0.9644291996955872
1630415981969,1.052612543106079,0.3380941748619079,-0.0357574038207531,0.9635084867477416
1630415982078,1.0496890544891355,0.3178261220455169,-0.0609295740723609,0.9560505151748656
1630415982203,0.9881656169891356,0.2765827476978302,-0.0980006381869316,0.9258451461791992
1630415982266,0.7826282978057861,0.2049073725938797,-0.1451815515756607,0.8500759601593018
1630415982375,0.7575252056121826,0.105443462729454,-0.1975735127925872,0.7140359282493591
1630415982447,0.7304760813713074,-0.0004141162498854,-0.2438928484916687,0.5297231674194336
1630415982553,0.7049887180328369,-0.0803821682929992,-0.2641664445400238,0.3618510663509369
1630415982678,0.6967203617095947,-0.1053359806537628,-0.2266411930322647,0.2615891695022583
1630415982858,0.7313231229782104,-0.0623360909521579,-0.1250995397567749,0.2202343493700027
1630415982896,0.8072198629379272,0.0349253006279468,0.0025902711786329,0.191901221871376
1630415982991,0.8894872069358826,0.1451425552368164,0.11138616502285,0.1696847677230835
1630415983116,0.9584568738937378,0.2369869202375412,0.1795470714569091,0.1643393188714981
1630415983198,0.9935773611068726,0.3008841276168823,0.2062527984380722,0.1656567007303238
1630415983289,0.9968187212944032,0.3408983945846557,0.2067062556743621,0.1615192145109176
1630415983400,0.9843806028366088,0.3635547757148742,0.1988145262002945,0.1463294178247451
1630415983493,0.9742321968078612,0.3735242187976837,0.1951408237218856,0.1322431564331054
1630415983603,0.9748095870018004,0.3734069168567657,0.1993601322174072,0.133091390132904
1630415983680,0.9829031825065612,0.3688987195491791,0.209991306066513,0.133091390132904
1630415983761,0.9917223453521729,0.365391343832016,0.2242091000080108,0.133091390132904
1630415983887,1.0003488063812256,0.3660030961036682,0.24118572473526,0.133091390132904
1630415983996,1.0191476345062256,0.3699302077293396,0.2604051232337951,0.133091390132904
1630415984076,1.0645288228988647,0.3724612891674042,0.2771129608154297,0.8304487466812134
1630415984202,1.129546046257019,0.3652785718441009,0.2790322005748749,0.938698410987854
1630415984276,1.1835520267486572,0.3393396735191345,0.2530597448348999,1.006422519683838
1630415984388,1.2025067806243896,0.287120372056961,0.1950813382863998,1.0285276174545288
1630415984543,1.1837457418441772,0.2104307413101196,0.1229938268661499,1.0157253742218018
1630415984589,1.145494818687439,0.1210017949342727,0.0731664076447486,0.9860146045684814
1630415984731,1.1141912937164309,0.0359946899116039,0.0706181079149246,0.9564344882965088
1630415984793,1.101999044418335,-0.0311444569379091,0.1044790670275688,0.9349823594093324
1630415984935,1.101804494857788,-0.0785441622138023,0.1448528468608856,0.9239431023597716
1630415984982,1.104213833808899,-0.1106003299355506,0.1746718734502792,0.9252408146858216
1630415985171,1.1207752227783203,-0.1258805096149444,0.1891869753599167,0.9600602388381958
1630415985233,1.1369404792785645,-0.1302500069141388,0.1898458898067474,1.06307053565979
1630415985295,1.1557819843292236,-0.1298359036445617,0.1836119443178177,1.0809876918792725
1630415985437,1.1782597303390503,-0.1316756159067154,0.1763416826725006,1.101535081863403
1630415985483,1.1956738233566284,-0.1387004554271698,0.1680768430233001,1.1188151836395264
1630415985576,1.434528112411499,-0.14603853225708,0.1576106250286102,1.124070405960083
1630415985764,1.5199341773986816,-0.1461889296770095,0.1459970623254776,1.1140340566635132
1630415985842,1.5140724182128906,-0.1406417936086654,0.1342612504959106,1.0971072912216189
1630415985919,1.518479347229004,-0.1376932263374328,0.123073823750019,1.0911942720413208
1630415986027,1.5486587285995483,-0.1459282636642456,0.1083540692925453,1.1115275621414185
1630415986183,1.5912445783615112,-0.1645517200231552,0.0915670394897461,1.1578447818756104
1630415986261,1.6660431623458862,-0.1909042000770568,0.0763365477323532,1.220053791999817
1630415986354,1.7427420616149902,-0.208363339304924,0.0398205630481243,1.294132947921753
1630415986417,1.798481583595276,-0.2276236116886139,-0.0075609446503221,1.294132947921753
1630415986496,1.8600025177001955,-0.241918459534645,-0.0547295585274696,1.294132947921753
1630415986604,1.8600025177001955,-0.247224360704422,-0.0858455523848533,1.294132947921753
1630415986729,1.8600025177001955,-0.2450050115585327,-0.0910424441099166,1.294132947921753
1630415986809,1.8600025177001955,-0.2446591258049011,-0.0808819457888603,1.294132947921753
1630415986938,1.8600025177001955,-0.251262754201889,-0.0734158977866172,1.294132947921753
1630415987046,1.8600025177001955,-0.2635164558887481,-0.0772871449589729,1.294132947921753
1630415987093,1.7786365747451782,-0.2778177559375763,-0.0873605459928512,1.294132947921753
1630415987249,1.718505620956421,-0.29680335521698,-0.0892663076519966,1.294132947921753
1630415987406,1.718505620956421,-0.3267153203487396,-0.0630822405219078,1.294132947921753
1630415987407,1.718505620956421,-0.3267153203487396,-0.0630822405219078,1.294132947921753
1630415987544,1.718505620956421,-0.3267153203487396,-0.0630822405219078,1.294132947921753
1630415987639,1.718505620956421,-0.3267153203487396,-0.0630822405219078,1.294132947921753
1630415987747,1.718505620956421,-0.3267153203487396,-0.0630822405219078,1.294132947921753
1630415987856,1.718505620956421,-0.3267153203487396,-0.0630822405219078,1.294132947921753
1630415987950,1.718505620956421,-0.3267153203487396,-0.0630822405219078,1.294132947921753
1630415988076,1.718505620956421,-0.3267153203487396,-0.0630822405219078,1.294132947921753
1630415988173,1.718505620956421,-0.3267153203487396,-0.0630822405219078,1.294132947921753
1630415988249,1.718505620956421,-0.3267153203487396,-0.0630822405219078,1.294132947921753
1630415988360,1.718505620956421,-0.3267153203487396,-0.0630822405219078,1.294132947921753
1630415988489,1.718505620956421,-0.3267153203487396,-0.0630822405219078,1.294132947921753
1630415988516,1.718505620956421,-0.3267153203487396,-0.0630822405219078,1.294132947921753
1630415988655,1.718505620956421,-0.3267153203487396,-0.0630822405219078,1.294132947921753
1630415988796,1.718505620956421,-0.3267153203487396,-0.0630822405219078,1.294132947921753
1630415988876,1.718505620956421,-0.3267153203487396,-0.0630822405219078,1.294132947921753
1630415988952,1.718505620956421,-0.3267153203487396,-0.0630822405219078,1.294132947921753
1630415989092,1.718505620956421,-0.3267153203487396,-0.0630822405219078,1.294132947921753
1630415989202,1.718505620956421,-0.3267153203487396,-0.0630822405219078,1.294132947921753
1630415989264,1.718505620956421,-0.3267153203487396,-0.0345716960728168,1.294132947921753
1630415989357,1.718505620956421,-0.3639239370822906,-0.0345716960728168,1.294132947921753
1630415989501,1.718505620956421,-0.3639239370822906,-0.0345716960728168,1.294132947921753
1630415989559,1.718505620956421,-0.3639239370822906,-0.0345716960728168,1.294132947921753
1630415989637,1.718505620956421,-0.3639239370822906,-0.0345716960728168,1.294132947921753
1630415989782,1.718505620956421,-0.3639239370822906,-0.0345716960728168,1.294132947921753
1630415989860,1.718505620956421,-0.3639239370822906,-0.0345716960728168,1.294132947921753
1630415989999,1.718505620956421,-0.3639239370822906,-0.0345716960728168,1.294132947921753
1630415990110,1.718505620956421,-0.3639239370822906,-0.0345716960728168,1.294132947921753
1630415990202,1.718505620956421,-0.3639239370822906,-0.0345716960728168,1.294132947921753
1630415990294,1.718505620956421,-0.3639239370822906,-0.0345716960728168,1.294132947921753
1630415990371,1.718505620956421,-0.3639239370822906,-0.0345716960728168,1.294132947921753
1630415990462,1.718505620956421,-0.3639239370822906,-0.0345716960728168,1.294132947921753
1630415990605,1.718505620956421,-0.3639239370822906,-0.0345716960728168,1.294132947921753
1630415990684,1.718505620956421,-0.3639239370822906,-0.0345716960728168,1.294132947921753
1630415990812,1.718505620956421,-0.3639239370822906,-0.0345716960728168,1.294132947921753
1630415990855,1.718505620956421,-0.3639239370822906,-0.0345716960728168,1.294132947921753
1630415991057,0.5071998834609985,-0.3639239370822906,-0.0345716960728168,1.294132947921753
1630415991147,0.502626359462738,-0.3639239370822906,-0.0345716960728168,1.294132947921753
1630415991246,0.4776361584663391,-0.3639239370822906,-0.0345716960728168,1.294132947921753
1630415991338,0.4572784602642059,-0.3639239370822906,-0.2844906151294708,1.294132947921753
1630415991402,0.4811478853225708,-0.3639239370822906,-0.2994259297847748,1.294132947921753
1630415991494,0.4811478853225708,-0.3639239370822906,-0.312086820602417,1.294132947921753
1630415991589,0.4811478853225708,-0.3639239370822906,-0.3000750243663788,1.294132947921753
1630415991683,0.4811478853225708,-0.3639239370822906,-0.2448574155569076,1.294132947921753
1630415991813,0.4811478853225708,-0.3639239370822906,-0.1580544710159301,1.294132947921753
1630415991919,0.4811478853225708,-0.3639239370822906,-0.1580544710159301,1.294132947921753
1630415991995,0.4811478853225708,0.3738565146923065,-0.1580544710159301,1.294132947921753
1630415992107,0.4811478853225708,0.3413562178611755,-0.1580544710159301,1.294132947921753
1630415992217,0.5013340711593628,0.3091299831867218,-0.1580544710159301,1.294132947921753
1630415992329,0.5056328177452087,0.2802996039390564,-0.1580544710159301,1.294132947921753
1630415992404,0.486175537109375,0.252663105726242,-0.1580544710159301,1.0668607950210571
1630415992495,0.4534327983856201,0.2233886569738388,-0.1566247344017028,1.0668607950210571
1630415992605,0.4534327983856201,0.1962704211473465,-0.1376074403524398,1.0668607950210571
1630415992697,0.4534327983856201,0.1791952848434448,-0.110305868089199,1.0668607950210571
1630415992792,0.4534327983856201,0.1746234595775604,-0.0781264454126358,1.0668607950210571
1630415992917,0.4534327983856201,0.1736398786306381,-0.0285868775099515,1.034677028656006
1630415993027,0.4534327983856201,0.166759192943573,-0.0285868775099515,1.0192692279815674
1630415993138,0.4534327983856201,0.1515953093767166,-0.0285868775099515,1.0192692279815674
1630415993198,0.4534327983856201,0.1045252680778503,-0.0285868775099515,1.0192692279815674
1630415993337,0.4534327983856201,0.0483148023486137,-0.0285868775099515,1.0192692279815674
1630415993509,0.4534327983856201,-0.0071784988977015,-0.0285868775099515,1.1361486911773682
1630415993556,0.4534327983856201,-0.0509931705892086,-0.0285868775099515,1.1361486911773682
1630415993650,1.2671360969543457,-0.0716636925935745,-0.0285868775099515,1.0522016286849976
1630415993748,1.2186907529830933,-0.063571460545063,-0.0285868775099515,1.040745735168457
1630415993885,1.1819696426391602,-0.0342981852591037,-0.0285868775099515,1.1060945987701416
1630415993930,1.1513603925704956,0.0024696949403733,-0.0674563124775886,1.1060945987701416
1630415994010,1.1181117296218872,0.0384111031889915,-0.0582518018782138,1.135532021522522
1630415994120,1.0817532539367676,0.0675922334194183,-0.0491450019180774,1.0665910243988037
1630415994278,1.073007345199585,0.0860124975442886,-0.0350095406174659,1.0085270404815674
1630415994356,1.0339365005493164,0.0911482945084571,-0.0165832825005054,0.9626414775848388
1630415994449,0.9980719685554504,0.0873458832502365,-0.0031939488835632,0.9311835169792176
1630415994558,0.9659631252288818,0.082629308104515,-0.0051456838846206,0.8876525163650513
1630415994669,0.9379703402519226,0.0808552876114845,-0.0212097913026809,0.8537956476211548
1630415994731,0.9136945009231568,0.081258401274681,-0.0413332767784595,0.8282228112220764
1630415994906,0.891895592212677,0.0798456817865371,-0.0574710518121719,0.8069604635238647
1630415994982,0.7471803426742554,0.0754579678177833,-0.0666371807456016,0.5429113507270813
1630415995076,0.6374108195304871,0.0689781829714775,-0.0664950981736183,0.5562098026275635
1630415995152,0.5840502977371216,0.0571872144937515,-0.0541036427021026,0.5730136632919312
1630415995231,0.5564972162246704,0.0324112176895141,-0.0324410609900951,0.581352174282074
1630415995341,0.5280568599700928,-0.0097465934231877,-0.0130729377269744,0.57613605260849
1630415995482,0.4951059222221374,-0.0643732920289039,-0.002517546294257,0.5628938674926758
1630415995544,0.4742525219917297,-0.1211378648877143,-0.0004401422047521,0.5364725589752197
1630415995670,0.477304995059967,-0.1709189563989639,-0.0022350708022713,0.531019389629364
1630415995745,0.5024343729019165,-0.2169177830219268,-0.0088920183479785,0.5329805612564087
1630415995837,0.5361844301223755,-0.2636584639549255,-0.0221898723393678,0.5337749719619751
1630415995948,0.565203845500946,-0.3072973489761352,-0.0370292849838733,0.5380597710609436
1630415996136,0.5828120708465576,-0.3360227942466736,-0.0429526455700397,0.5478787422180176
1630415996213,0.5899319648742676,-0.3353327810764313,-0.0393588468432426,0.5531564354896545
1630415996242,0.5898433327674866,-0.303733766078949,-0.0361100398004055,0.5465995669364929
1630415996353,0.5854464173316956,-0.2582544386386871,-0.0407338812947273,0.5312172770500183
1630415996496,0.5780531167984009,-0.2212276011705398,-0.053423598408699,0.5137549042701721
1630415996545,0.5661817193031311,-0.2044361233711242,-0.0750961154699325,0.4990120232105255
1630415996718,0.5457430481910706,-0.2061912566423416,-0.10938610881567,0.4887975752353668
1630415996792,0.5170782804489136,-0.2179061025381088,-0.1568348556756973,0.4842033088207245
1630415996871,0.4886780977249145,-0.2318079024553299,-0.2098116278648376,0.4826310575008392
1630415996981,0.4724853932857513,-0.24374420940876,-0.2581545412540436,0.4783535599708557
1630415997110,0.4706723690032959,-0.2574778795242309,-0.3013154864311218,0.4661606252193451
1630415997171,0.4690664410591125,-0.2694178819656372,-0.3451274633407593,0.4520969688892364
1630415997299,0.4544489681720733,-0.2694419026374817,-0.37625452876091,0.4499198496341705
1630415997378,0.4298557937145233,-0.2547118365764618,-0.3658244013786316,0.4602890610694885
1630415997502,0.409008651971817,-0.2328327596187591,-0.3142706453800201,0.4675669074058532
1630415997629,0.3998449146747589,-0.2187466770410537,-0.2565384209156036,0.4602223932743072
1630415997722,0.3972734808921814,-0.2218560576438903,-0.2205516099929809,0.4462030529975891
1630415997769,0.3968948125839233,-0.2367526441812515,-0.2086566090583801,0.4394170641899109
1630415997879,0.4009356200695038,-0.2496576309204101,-0.2066290378570556,0.4440918266773224
1630415998020,0.410805881023407,-0.2485328763723373,-0.2008706182241439,0.449575126171112
1630415998097,0.4271126091480255,-0.2360075563192367,-0.1840312033891677,0.4450923502445221
1630415998175,0.4486618936061859,-0.2241180986166,-0.1569266766309738,0.4285095334053039
1630415998331,0.4709372520446777,-0.2164300233125686,-0.1248759627342224,0.4076906442642212
1630415998377,0.4860486388206482,-0.2079119384288787,-0.0959031358361244,0.3929142653942108
1630415998532,0.4885394275188446,-0.1986773461103439,-0.0740282386541366,0.3895857036113739
1630415998610,0.4776608645915985,-0.1925344467163086,-0.0559787414968013,0.3935778141021728
1630415998721,0.4574036002159118,-0.1993914097547531,-0.0389647632837295,0.3960254192352295
1630415998800,0.4328110814094543,-0.2254073619842529,-0.0293314792215824,0.3896200656890869
1630415998926,0.4069395959377289,-0.2679032385349273,-0.0405359230935573,0.3753747344017029
1630415999037,0.3817941546440124,-0.3178191184997558,-0.0790351256728172,0.3671756088733673
1630415999176,0.3602792620658874,-0.358986347913742,-0.1348782032728195,0.3774443864822387
1630415999236,0.3445576429367065,-0.3772221207618713,-0.1826598793268203,0.4020037651062011
1630415999315,0.335116297006607,-0.380973219871521,-0.2021449208259582,0.4260959923267364
1630415999444,0.3303444683551788,-0.3855141997337341,-0.1963067650794983,0.4394395053386688
1630415999552,0.324877381324768,-0.4003079533576965,-0.1791390180587768,0.4437997341156006
1630415999599,0.3088272213935852,-0.4184179306030273,-0.1604669690132141,0.4450295567512512
1630415999726,0.2753833532333374,-0.4286124110221863,-0.1447032392024994,0.44600710272789
1630415999837,0.2291024178266525,-0.430401861667633,-0.1367453187704086,0.4492259621620178
1630415999897,0.1826701909303665,-0.4312076270580292,-0.1377563774585724,0.455572634935379
1630416000054,0.1448425352573394,-0.4306185245513916,-0.1455229073762893,0.461528867483139
1630416000134,0.1207745224237442,-0.4204672276973724,-0.1572168618440628,0.4624879956245422
1630416000227,0.1161235645413398,-0.396293580532074,-0.1723982989788055,0.4558265507221222
1630416000369,0.1313954591751098,-0.3640492558479309,-0.1912147849798202,0.4424917995929718
1630416000413,0.1553305387496948,-0.3315111100673675,-0.2089625298976898,0.4235784113407135
1630416000539,0.1745679825544357,-0.3029725551605224,-0.2180787622928619,0.398002564907074
1630416000664,0.1873586177825927,-0.2812488377094269,-0.2166866362094879,0.3656407296657562
1630416000743,0.20038603246212,-0.2711734771728515,-0.2083319425582885,0.3328365385532379
1630416000837,0.2138526141643524,-0.2756706178188324,-0.1994257569313049,0.3149726092815399
1630416001026,0.2227174639701843,-0.2903281152248382,-0.1969654709100723,0.3235122859477997
1630416001070,0.2278631925582885,-0.3051250278949737,-0.2073536962270736,0.3473024070262909
1630416001149,0.239293485879898,-0.3109751045703888,-0.2369419038295745,0.3655366897583008
1630416001232,0.2692133784294128,-0.3033668994903564,-0.286715030670166,0.3724952340126037
1630416001320,0.3138652145862579,-0.2815464735031128,-0.3478029072284698,0.3704152405261993
1630416001446,0.3600135445594787,-0.251600831747055,-0.4039306938648224,0.3670786321163177
1630416001589,0.3940536081790924,-0.2258013933897018,-0.4427862763404846,0.3672289252281189
1630416001685,0.408995509147644,-0.2150768488645553,-0.464165061712265,0.3754854202270508
1630416001782,0.406486451625824,-0.2213094383478164,-0.4675351977348327,0.3942778706550598
1630416001857,0.3926754593849182,-0.2366785854101181,-0.4460670948028564,0.4199334383010864
1630416001952,0.375124841928482,-0.2507196068763733,-0.3915192186832428,0.4464988112449646
1630416002032,0.3600869476795196,-0.2569662928581238,-0.3122114241123199,0.4683154225349426
1630416002154,0.3518722057342529,-0.2523496150970459,-0.2312162369489669,0.4808734059333801
1630416002281,0.3526866734027862,-0.239442378282547,-0.1691857576370239,0.4803680777549743
1630416002404,0.3598994016647339,-0.2232773602008819,-0.1292774826288223,0.4689303338527679
1630416002452,0.3677257895469665,-0.2118580937385559,-0.096627801656723,0.4542475640773773
1630416002561,0.3733896613121032,-0.2045792192220688,-0.0534677617251873,0.4446801245212555
1630416002654,0.3828945755958557,-0.1910072118043899,-0.0006386070162989,0.444720059633255
1630416002812,0.4005523324012756,-0.1620512008666992,0.0453840866684913,0.4527195692062378
1630416002923,0.4299296438694,-0.125697523355484,0.0727198868989944,0.4678291380405426
1630416002953,0.4683395028114319,-0.0931398198008537,0.0822581946849823,0.4863105118274688
1630416003079,0.5160360336303711,-0.059595301747322,0.0854159146547317,0.5072857141494751
1630416003155,0.5719377398490906,-0.0088275233283638,0.0912982448935508,0.5302004814147949
1630416003235,0.6301684379577637,0.0655319169163703,0.0994938015937805,0.553165078163147
1630416003405,0.6858748197555542,0.1499991416931152,0.1053506731986999,0.5724638104438782
1630416003516,0.7363172173500061,0.2259513139724731,0.1027484387159347,0.5832006335258484
1630416003594,0.7777881622314453,0.282325804233551,0.0902831852436065,0.5865582823753357
1630416003704,0.8067237734794617,0.3196583986282348,0.0728514119982719,0.5879791378974915
1630416003799,0.8249298930168152,0.3418807089328766,0.0574725829064846,0.5920382738113403
1630416003874,0.8352685570716858,0.3538865447044372,0.0512394420802593,0.5965327024459839
1630416003984,0.8410941958427429,0.3592336475849151,0.0522923246026039,0.5969459414482117
1630416004110,0.8438342213630676,0.3611508309841156,0.048905149102211,0.5922862887382507
1630416004203,0.8419488668441772,0.3625136911869049,0.0321429222822189,0.585131049156189
1630416004282,0.8325382471084595,0.36287721991539,0.0062812166288495,0.5796764492988586
1630416004391,0.8126130104064941,0.3602633476257324,-0.0124745378270745,0.5779296159744263
1630416004487,0.785480797290802,0.3534305691719055,-0.0116475522518157,0.5810236930847168
1630416004580,0.7586787343025208,0.341227263212204,0.0010458815377205,0.5880411863327026
1630416004724,0.7357345819473267,0.3208604156970978,0.0114663429558277,0.5913598537445068
1630416004818,0.712405264377594,0.2873532474040985,0.0143564390018582,0.5833324790000916
1630416004928,0.6797425746917725,0.2360211312770843,0.0102577097713947,0.564149022102356
1630416005005,0.636065661907196,0.1675942838191986,0.0009156837477348,0.5431298613548279
1630416005116,0.5926231145858765,0.0920281112194061,-0.0141106508672237,0.5308640003204346
1630416005224,0.5631896257400513,0.0198575686663389,-0.0348411090672016,0.529719889163971
1630416005303,0.5458552241325378,-0.0416636317968368,-0.0590558424592018,0.5360658168792725
1630416005411,0.5318566560745239,-0.0896358340978622,-0.0885329246520996,0.5430737733840942
1630416005489,0.5168240666389465,-0.1189227253198623,-0.1314780861139297,0.5445134043693542
1630416005715,0.4931686818599701,-0.1187295019626617,-0.2305134534835815,0.5280377268791199
1630416005820,0.491707295179367,-0.1138803139328956,-0.258240669965744,0.5163455009460449
1630416005960,0.4979275166988373,-0.1448405086994171,-0.2681378424167633,0.5014196634292603
1630416006090,0.5032947659492493,-0.1735126674175262,-0.2769916653633117,0.4796012938022613
1630416006132,0.4934939444065094,-0.1902393698692321,-0.2985654473304748,0.4474718868732452
1630416006244,0.4642167091369629,-0.1994176805019378,-0.339449018239975,0.4139310419559479
1630416006287,0.4300749897956848,-0.211375281214714,-0.3347438275814056,0.3983065783977508
1630416006532,0.4127010107040405,-0.2222023159265518,-0.2833421528339386,0.4247899353504181
1630416006559,0.4112080633640289,-0.0975136682391166,-0.2214068174362182,0.4896773993968963
1630416006663,0.4057183265686035,-0.0139733897522091,-0.1693134307861328,0.4959688782691955
1630416006726,0.3846578896045685,0.0278015751391649,-0.1306924223899841,0.499440848827362
1630416006789,0.3594019114971161,0.0457144267857074,-0.0910933092236518,0.4995359778404236
1630416006933,0.3647073209285736,0.0599088631570339,-0.0396684929728508,0.4997548460960388
1630416007024,0.420414000749588,0.0824959948658943,0.0208374392241239,0.5053467750549316
1630416007151,0.498292863368988,0.1077026724815368,0.0736307352781295,0.5194070935249329
1630416007260,0.5585065484046936,0.1198434755206108,0.0766773521900177,0.5660398602485657
1630416007368,0.5854076743125916,0.1137903779745101,0.0670892745256424,0.5939434766769409
1630416007492,0.5884314775466919,0.1039632260799408,0.0520570091903209,0.6049115657806396
1630416007554,0.5860804915428162,0.0881209596991539,0.0387292355298996,0.6110764145851135
1630416007644,0.5938090085983276,0.0714164525270462,0.0390933007001876,0.6234138607978821
1630416007772,0.6140859723091125,0.0592351853847503,0.0755202025175094,0.6381945013999939
1630416007897,0.6356262564659119,0.0526010170578956,0.1091221645474433,0.6500398516654968
1630416007943,0.6485376954078674,0.0493634901940822,0.1307316720485687,0.6523878574371338
1630416008023,0.6542797684669495,0.0135631999000906,0.1422178596258163,0.6466536521911621
1630416008114,0.662019670009613,-0.0137736601755023,0.1503510028123855,0.6945040225982666
1630416008303,0.6769782900810242,-0.0228413082659244,0.1598171442747116,0.7201550006866455
1630416008366,0.6927326321601868,-0.0176812130957841,0.1646856218576431,0.7232932448387146
1630416008527,0.6955000162124634,-0.0100777987390756,0.1580321639776229,0.7187963128089905
1630416008599,0.6751013994216919,-0.0094012198969721,0.1377811133861541,0.7208343744277954
1630416008663,0.6343284845352173,-0.0202439725399017,0.1109699606895446,0.7280978560447693
1630416008838,0.5891618728637695,-0.0390833243727684,0.0884876772761344,0.7338137626647949
1630416008885,0.5592727065086365,-0.056283876299858,0.0768862962722778,0.741121232509613
1630416009026,0.5485308766365051,-0.0617398805916309,0.0752821192145347,0.7544604539871216
1630416009088,0.5472149848937988,-0.0456733852624893,0.0775510594248771,0.7757861018180847
1630416009182,0.5427371263504028,-0.0056980485096573,0.0700468569993972,0.7985609769821167
1630416009244,0.5293738842010498,0.0493583530187606,0.044523250311613,0.8159556984901428
1630416009356,0.5113947987556458,0.1041634976863861,0.0078896982595324,0.8269292116165161
1630416009482,0.5009552240371704,0.1452970653772354,-0.0259311515837907,0.8294996023178101
1630416009622,0.5181556940078735,0.1668399274349212,-0.0510686337947845,0.8234767317771912
1630416009700,0.5726754665374756,0.1723720282316208,-0.077221892774105,0.8121849894523621
1630416009793,0.6455633640289307,0.1679944545030594,-0.1153942346572876,0.8006719350814819
1630416009887,0.7110611200332642,0.1595425605773925,-0.1593227982521057,0.8036683201789856
1630416009997,0.7545664310455322,0.1512346118688583,-0.1935304254293441,0.8129310011863708
1630416010169,0.7749527096748352,0.1460358202457428,-0.2019643783569336,0.8180346488952637
1630416010278,0.7798622250556946,0.1453083306550979,-0.1882462501525879,0.817966878414154
1630416010343,0.777699887752533,0.148319661617279,-0.1669489294290542,0.7917661070823669
1630416010390,0.7746856808662415,0.1527891308069229,-0.1548377424478531,0.7619867920875549
1630416010484,0.7740640640258789,0.1545983254909515,-0.154927596449852,0.7286532521247864
1630416010628,0.7777631282806396,0.1478105187416076,-0.1595452576875686,0.6861090064048767
1630416010737,0.788213849067688,0.1267694234848022,-0.1597050279378891,0.637182891368866
1630416010815,0.804867148399353,0.0872628167271614,-0.156085729598999,0.5931300520896912
1630416010926,0.8217011094093323,0.0302164163440465,-0.1609430909156799,0.5545608997344971
1630416010988,0.830035924911499,-0.0333449244499206,-0.1794461011886596,0.5176016092300415
1630416011129,0.8194167017936707,-0.0822464823722839,-0.2020045220851898,0.4696268141269684
1630416011191,0.7820489406585693,-0.0994724184274673,-0.21526600420475,0.4084198176860809
1630416011332,0.7202216386795044,-0.0855901017785072,-0.214966595172882,0.3475557565689087
1630416011410,0.6488459706306458,-0.0587006621062755,-0.2072760760784149,0.3332604169845581
1630416011488,0.590599000453949,-0.0375638157129287,-0.2024572044610977,0.3178265988826751
1630416011629,0.5588015913963318,-0.0318545885384082,-0.1998941302299499,0.3107846677303314
1630416011738,0.548687219619751,-0.039240650832653,-0.1953086853027343,0.3188069462776184
1630416011848,0.5502476692199707,-0.0513628683984279,-0.1865593194961547,0.3385859429836273
1630416011957,0.5570659637451172,-0.0592160075902938,-0.1737277209758758,0.3843762278556824
1630416012004,0.5662014484405518,-0.0625479221343994,-0.1635117083787918,0.4438730776309967
1630416012144,0.5727566480636597,-0.0608195438981056,-0.1612010896205902,0.5148766040802002
1630416012269,0.5655845999717712,-0.055058117955923,-0.168121799826622,0.586887538433075
1630416012426,0.5060139298439026,-0.048383604735136,-0.1881063431501388,0.6717674732208252
1630416012441,0.5402242541313171,-0.0506025217473506,-0.1799206584692001,0.6424776911735535
1630416012557,0.4850782454013824,-0.0445821732282638,-0.1879270523786544,0.6763123869895935
1630416012697,0.4889216125011444,-0.0371714755892753,-0.1730387657880783,0.6694127917289734
1630416012744,0.5058541893959045,-0.0245811454951763,-0.1350681185722351,0.6634714007377625
1630416012807,0.5214502811431885,-0.0081116938963532,-0.0752719566226005,0.6642673015594482
1630416012947,0.5312678217887878,0.0148032158613204,-0.01392572093755,0.6717837452888489
1630416013088,0.539875328540802,0.0454740151762962,0.032922875136137,0.6814576387405396
1630416013166,0.5544158816337585,0.0782151669263839,0.0579893849790096,0.6866534352302551
1630416013228,0.575673520565033,0.1033265739679336,0.0646356046199798,0.6834627985954285
1630416013323,0.6034334301948547,0.1205231919884681,0.0609995871782302,0.6765519380569458
1630416013525,0.6371286511421204,0.134531944990158,0.0555016547441482,0.6753526329994202
1630416013610,0.6714592576026917,0.1464661210775375,0.0523509755730629,0.6817219853401184
1630416013625,0.6969015002250671,0.1506735980510711,0.052055861800909,0.6817751526832581
1630416013766,0.710755467414856,0.1425165683031082,0.0527201369404792,0.665762186050415
1630416013922,0.715827465057373,0.1278942227363586,0.0525542497634887,0.6441543698310852
1630416013969,0.7188822627067566,0.1184207797050476,0.055429607629776,0.6416756510734558
1630416014047,0.7201763987541199,0.1187545880675315,0.0638821646571159,0.6671797037124634
1630416014157,0.7171255946159363,0.1224443614482879,0.0709982365369796,0.701598584651947
1630416014235,0.7084380388259888,0.1172943711280822,0.063842125236988,0.7288442254066467
1630416014360,0.6947047114372253,0.0953441262245178,0.0355274602770805,0.7480245232582092
1630416014441,0.6782131791114807,0.0557414926588535,-0.0053809555247426,0.7626309394836426
1630416014629,0.6636986136436462,0.003863250138238,-0.0417446829378604,0.7754167914390564
1630416014676,0.6575645804405212,-0.0503090620040893,-0.0639581084251403,0.7892153263092041
1630416014738,0.6613680720329285,-0.0946617797017097,-0.0738631784915924,0.8060014843940735
1630416014847,0.6664674282073975,-0.1302483230829239,-0.0799201354384422,0.820425271987915
1630416015035,0.6589876413345337,-0.1672469824552536,-0.086280383169651,0.8213855028152466
1630416015066,0.6334133744239807,-0.205786645412445,-0.0928023755550384,0.802423357963562
1630416015144,0.5991209149360657,-0.230703204870224,-0.0995629131793975,0.7676815986633301
1630416015300,0.5726054310798645,-0.2293062657117843,-0.1053637415170669,0.7286742329597473
1630416015332,0.5632033944129944,-0.2139617502689361,-0.1068121045827865,0.6920856237411499
1630416015472,0.570163905620575,-0.2083770185708999,-0.108647309243679,0.6548341512680054
1630416015566,0.5930728912353516,-0.2206048518419265,-0.1182553395628929,0.6131998896598816
1630416015738,0.6263734102249146,-0.2411438673734665,-0.1379178315401077,0.5697699189186096
1630416015832,0.6586109399795532,-0.2593660652637481,-0.1583307981491089,0.5278245806694031
1630416015879,0.678752601146698,-0.2711244523525238,-0.1665393114089965,0.4878225028514862
1630416015972,0.6848433017730713,-0.279411107301712,-0.16072478890419,0.4522930681705475
1630416016066,0.6808635592460632,-0.2881509661674499,-0.1497911810874939,0.421124130487442
1630416016222,0.6673552393913269,-0.2968282401561737,-0.1438775807619094,0.3863072991371155
1630416016300,0.6457178592681885,-0.303276777267456,-0.1495502889156341,0.3373999893665313
1630416016378,0.6220363974571228,-0.3104353249073028,-0.1588224619626999,0.2841306626796722
1630416016488,0.6042680144309998,-0.3251076340675354,-0.1587669104337692,0.2578182518482208
1630416016581,0.5962808132171631,-0.3485110402107239,-0.1443619281053543,0.2727564871311188
1630416016753,0.5926626324653625,-0.3797232210636139,-0.1215073764324188,0.3084566593170166
1630416016800,0.5897759795188904,-0.4055064618587494,-0.1030162051320076,0.3401948809623718
1630416016925,0.5920842289924622,-0.4051225781440735,-0.0979679524898529,0.3607554733753204
1630416016988,0.6194629073143005,-0.3737285733222961,-0.1066534370183944,0.3776496648788452
1630416017081,0.6999642848968506,-0.3144050538539886,-0.1179419308900833,0.3867903649806976
1630416017222,0.6852286458015442,-0.2136277109384536,-0.1092951297760009,0.394208550453186
1630416017253,0.6698005795478821,-0.0719259828329086,-0.0638769343495369,0.4097924530506134
1630416017378,0.6675357818603516,0.0706266611814498,0.0047543561086058,0.4323762059211731
1630416017523,0.6829428672790527,0.1768400222063064,0.0745773911476135,0.4498203098773956
1630416017585,0.7075325846672058,0.2390810251235962,0.1313753873109817,0.4585974812507629
1630416017726,0.7334726452827454,0.2684896290302276,0.1726887375116348,0.4724049866199493
1630416017804,0.7582125067710876,0.2814153134822845,0.2023701220750808,0.5043850541114807
1630416017913,0.7824394702911377,0.2910617291927337,0.2212693095207214,0.5501402020454407
1630416018007,0.8109210133552551,0.30314502120018,0.2279229462146759,0.6958218216896057
1630416018132,0.9583294987678528,0.3160694539546966,0.2253442406654358,0.9444913268089294
1630416018194,1.1415607929229736,0.3251179456710815,0.2189721018075943,1.1842708587646484
1630416018351,1.2070683240890503,0.3266200721263885,0.2137559950351715,1.263066291809082
1630416018382,1.2849023342132568,0.3202814161777496,0.212642028927803,1.263066291809082
1630416018507,1.2849023342132568,0.3082385957241058,0.2158011496067047,1.263066291809082
1630416018620,1.2849023342132568,0.2893042266368866,0.2177791893482208,1.263066291809082
1630416018729,1.1982651948928833,0.2545143961906433,0.2093027979135513,1.263066291809082
1630416018807,1.1255933046340942,0.1897840499877929,0.1795590817928314,1.263066291809082
1630416018901,1.0629611015319824,0.0874626338481903,0.1241753548383712,1.263066291809082
1630416019026,1.004730463027954,-0.0391197577118873,0.047200433909893,1.263066291809082
1630416019197,0.9518113732337952,-0.1522697359323501,-0.0343246795237064,1.230828881263733
1630416019260,0.9518113732337952,-0.2146088629961013,-0.1006455495953559,1.204190969467163
1630416019338,0.9518113732337952,-0.2267410904169082,-0.1462294906377792,1.1867594718933103
1630416019479,0.9518113732337952,-0.2196701616048813,-0.1737395823001861,1.238248348236084
1630416019541,0.9518113732337952,-0.216453731060028,-0.187368094921112,1.272960901260376
1630416019619,0.87526935338974,-0.2211239039897918,-0.1890958398580551,1.246849775314331
1630416019697,0.5461474657058716,-0.2276585847139358,-0.1805739849805832,1.246849775314331
1630416019838,0.5461474657058716,-0.2317122966051101,-0.1700661331415176,1.246849775314331
1630416019932,0.5461474657058716,-0.2349178344011306,-0.162504181265831,1.246849775314331
1630416020057,0.5461474657058716,-0.2391321212053299,-0.1577150523662567,1.246849775314331
1630416020135,0.4171169400215149,-0.2413826137781143,-0.1502027362585067,1.246849775314331
1630416020197,0.3250576257705688,-0.2422359436750412,-0.1367539465427398,1.246849775314331
1630416020338,0.3250576257705688,-0.2454698532819748,-0.1178621053695678,1.246849775314331
1630416020447,0.3250576257705688,-0.2481684535741806,-0.0949946641921997,1.3614896535873413
1630416020563,0.3250576257705688,-0.2433840334415435,-0.0743525475263595,1.5108217000961304
1630416020688,0.3250576257705688,-0.2239320278167724,-0.0654564797878265,1.6209030151367188
1630416020750,0.3250576257705688,-0.1829233020544052,-0.0693342685699462,1.6944456100463867
1630416020860,0.3250576257705688,-0.1236278116703033,-0.077150322496891,1.6944456100463867
1630416020985,0.3250576257705688,-0.0596825294196605,-0.077206440269947,1.6944456100463867
1630416021094,0.3250576257705688,-0.0033657099120318,-0.0606863126158714,1.6944456100463867
1630416021156,0.3250576257705688,0.041359681636095,-0.0337498784065246,1.6944456100463867
1630416021250,0.3250576257705688,0.0787358582019805,-0.0049152034334838,1.6944456100463867
1630416021344,0.3250576257705688,0.11605254560709,0.0308286678045988,1.6944456100463867
1630416021422,0.3250576257705688,0.1526584476232528,0.0742266401648521,1.6944456100463867
1630416021550,0.3250576257705688,0.1852920800447464,0.1224310472607612,1.6944456100463867
1630416021675,0.3250576257705688,0.2141535133123397,0.1684916764497757,1.6944456100463867
1630416021769,0.3250576257705688,0.2380675673484802,0.2061059474945068,1.6944456100463867
1630416021909,0.3250576257705688,0.2544706463813782,0.2342931032180786,1.6944456100463867
1630416021956,0.3250576257705688,0.2615056931972503,0.2488711029291153,1.6944456100463867
1630416022066,0.3250576257705688,0.2617373466491699,0.2506837844848633,1.6944456100463867
1630416022159,0.3250576257705688,0.257651686668396,0.2493110746145248,1.6944456100463867
1630416022304,0.3250576257705688,0.2463233470916748,0.2534074783325195,1.6944456100463867
1630416022382,0.5323187112808228,0.2230674624443054,0.2662162482738495,1.6944456100463867
1630416022494,0.6057701706886292,0.1897897124290466,0.2806893289089203,1.6944456100463867
1630416022650,0.6597532033920288,0.154311716556549,0.2857403457164764,1.6944456100463867
1630416022697,0.6932311058044434,0.1244876757264137,0.2770227491855621,1.6944456100463867
1630416022775,0.7122640609741211,0.1105372831225395,0.2580004334449768,1.6944456100463867
1630416022900,0.7237159609794617,0.1165783777832984,0.2303976416587829,1.6944456100463867
1630416023025,0.757310152053833,0.1386585831642151,0.1961379498243332,1.6944456100463867
1630416023103,0.8434997797012329,0.1617394536733627,0.1530699878931045,1.6944456100463867
1630416023197,0.9607838988304138,0.1691164225339889,0.1022615656256675,1.6944456100463867
1630416023322,1.064281702041626,0.1587511152029037,0.0497788041830062,1.6944456100463867
1630416023400,1.064281702041626,0.1456452012062072,0.0015612153802067,1.6944456100463867
1630416023509,1.064281702041626,0.1566716879606247,-0.0338371880352497,1.6944456100463867
1630416023587,1.0931094884872437,0.1749037355184555,-0.04097880423069,1.6944456100463867
1630416023743,1.1237398386001587,0.1947179734706878,-0.0427625626325607,1.6944456100463867
1630416023790,1.1536601781845093,0.2134846448898315,-0.0544797331094741,1.6944456100463867
1630416023884,1.1828343868255615,0.232028916478157,-0.0882347673177719,1.6944456100463867
1630416024025,1.212744116783142,0.2510194182395935,-0.1428333818912506,1.6944456100463867
1630416024118,1.2459673881530762,0.2710509598255157,-0.1967979669570922,1.6944456100463867
1630416024212,1.28704833984375,0.2935605049133301,-0.2233136445283889,1.6944456100463867
1630416024321,1.340425968170166,0.3079667091369629,-0.2268373966217041,1.6944456100463867
1630416024446,1.411199688911438,0.2948749363422394,-0.2201966345310211,1.6944456100463867
1630416024525,1.411199688911438,0.2342006713151931,-0.2199435830116272,1.6944456100463867
1630416024559,1.411199688911438,0.2342006713151931,-0.2215606868267059,1.6944456100463867
1630416024747,1.411199688911438,0.2342006713151931,-0.2215606868267059,1.6944456100463867
1630416024841,1.411199688911438,0.2342006713151931,-0.2215606868267059,1.6944456100463867
1630416024919,1.411199688911438,0.2342006713151931,-0.2215606868267059,1.6944456100463867
1630416025013,1.411199688911438,0.2342006713151931,-0.2215606868267059,1.6944456100463867
1630416025122,1.411199688911438,0.2342006713151931,-0.2215606868267059,1.6944456100463867
1630416025200,1.411199688911438,0.2342006713151931,-0.2215606868267059,1.6944456100463867
1630416025325,1.411199688911438,0.2342006713151931,-0.2215606868267059,1.6944456100463867
1630416025450,1.411199688911438,0.2342006713151931,-0.2215606868267059,1.6944456100463867
1630416025512,1.411199688911438,0.2342006713151931,-0.2215606868267059,1.6944456100463867
1630416025624,1.411199688911438,0.2342006713151931,-0.2215606868267059,1.6944456100463867
1630416025749,1.411199688911438,0.2342006713151931,-0.2215606868267059,1.6944456100463867
1630416025796,1.411199688911438,0.2342006713151931,-0.2215606868267059,1.6944456100463867
1630416025952,1.411199688911438,0.2342006713151931,-0.2215606868267059,1.6944456100463867
1630416026046,1.411199688911438,0.2342006713151931,-0.2215606868267059,1.6944456100463867
1630416026155,1.411199688911438,0.2342006713151931,0.0628118440508842,1.6944456100463867
1630416026233,1.411199688911438,0.2342006713151931,0.0639712214469909,1.6944456100463867
1630416026343,1.411199688911438,0.2342006713151931,0.0535336695611476,1.6944456100463867
1630416026452,1.411199688911438,-0.2434075623750686,0.0296506825834512,1.6944456100463867
1630416026549,1.411199688911438,-0.2162567973136901,-0.0049236873164772,1.6944456100463867
1630416026674,1.411199688911438,-0.2006529867649078,-0.043820321559906,1.6944456100463867
1630416026767,1.411199688911438,-0.1825615018606186,-0.079148918390274,1.6944456100463867
1630416026877,1.411199688911438,-0.1632904112339019,-0.1071555837988853,1.6944456100463867
1630416026955,0.5323235392570496,-0.1538204699754715,-0.1279373168945312,0.7016350030899048
1630416027033,0.6300429105758667,-0.1611762046813964,-0.1424113065004348,0.7525712847709656
1630416027205,0.8151795864105225,-0.1820646375417709,-0.1468517035245895,0.9034360647201538
1630416027252,0.9993411302566528,-0.2082468718290329,-0.1367403864860534,1.082045078277588
1630416027348,1.1223514080047607,-0.2348990887403488,-0.1173596754670143,1.2144536972045898
1630416027457,1.1783465147018433,-0.2599963843822479,-0.1050061807036399,1.2834335565567017
1630416027551,1.1819770336151123,-0.2809898853302002,-0.1036050096154213,1.2981021404266355
1630416027629,1.1819770336151123,-0.2913063764572143,-0.1053742915391922,1.2795251607894895
1630416027785,1.1819770336151123,-0.2921778857707977,-0.1016477718949318,1.2484350204467771
1630416027895,1.1819770336151123,-0.2966871857643127,-0.0907178968191146,1.2172836065292358
1630416028004,1.1819770336151123,-0.3127307891845703,-0.0732154995203018,1.191067099571228
1630416028098,1.1819770336151123,-0.3416432738304138,-0.0527532510459423,1.191067099571228
1630416028160,1.220007300376892,-0.3801348507404327,-0.0311310719698667,1.2127227783203125
1630416028285,1.2613245248794556,-0.431962251663208,-0.0123768774792552,1.2366461753845217
1630416028379,1.308390498161316,-0.4963241815567016,0.0023724336642771,1.264062523841858
1630416028488,1.363048434257507,-0.5506892800331116,0.0139464875683188,1.2950053215026855
1630416028567,1.4173575639724731,-0.5600978136062622,0.0230886451900005,1.3224116563796997
1630416028645,1.450413465499878,-0.5245993137359619,0.0256236027926206,1.325642704963684
1630416028770,1.450413465499878,-0.4773705303668976,0.0160235650837421,1.278139352798462
1630416028879,1.450413465499878,-0.4382931590080261,-0.0058048358187079,1.1577869653701782
1630416029004,1.450413465499878,-0.4004531800746918,-0.0305857341736555,0.9495375752449036
1630416029129,1.450413465499878,-0.3512975871562958,-0.0503642484545707,0.6624436974525452
1630416029176,1.450413465499878,-0.2952490746974945,-0.0686030611395835,0.549555778503418
1630416029316,1.450413465499878,-0.2477365732192993,-0.0949391424655914,0.610016405582428
1630416029410,0.8430994153022766,-0.2161050140857696,-0.1298670470714569,0.6839980483055115
1630416029488,0.835858166217804,-0.1973955929279327,-0.1633932292461395,0.7210224270820618
1630416029629,0.822202205657959,-0.1838073879480362,-0.1872851252555847,0.7141832113265991
1630416029738,0.8150901794433594,-0.1697101444005966,-0.2049510926008224,0.7030523419380188
1630416029801,0.8178085684776306,-0.151657685637474,-0.2203742563724517,0.7030523419380188
1630416029879,0.8382468223571777,-0.1312562078237533,-0.2297037541866302,0.7030523419380188
1630416030004,0.8983065485954285,-0.1144212335348129,-0.2279058992862701,0.7030523419380188
1630416030097,0.9896095395088196,-0.1071446686983108,-0.2167302817106247,0.7030523419380188
1630416030238,1.0719382762908936,-0.107218213379383,-0.2040606141090393,0.9830671548843384
1630416030316,1.1200761795043943,-0.1052328124642372,-0.1957231760025024,1.1059868335723877
1630416030425,1.1326202154159546,-0.0918122306466102,-0.1940406858921051,1.143482685089111
1630416030519,1.1326202154159546,-0.0699428021907806,-0.2022209465503692,1.143482685089111
1630416030664,1.1534420251846311,-0.0542587116360664,-0.2182014286518097,1.1756987571716309
1630416030742,1.171824336051941,-0.0563062503933906,-0.2336218655109405,1.2089228630065918
1630416030851,1.1575803756713867,-0.0754538252949714,-0.2416249364614486,1.1997835636138916
1630416030914,1.1430081129074097,-0.1024752855300903,-0.2449735850095749,1.1911038160324097
1630416031008,1.1326055526733398,-0.1234658360481262,-0.253429651260376,1.183408260345459
1630416031148,1.1266590356826782,-0.1257929056882858,-0.2700167298316955,1.1768798828125
1630416031211,1.122220158576965,-0.10384551435709,-0.2896714210510254,1.172491192817688
1630416031320,1.1149559020996094,-0.0645622909069061,-0.3047866523265838,1.131721019744873
1630416031429,1.097515106201172,-0.0233060382306575,-0.3138566017150879,1.0947332382202148
1630416031570,1.0517815351486206,0.005686589051038,-0.3142893016338348,1.0611188411712646
1630416031695,0.9565668106079102,0.0191492885351181,-0.3059522211551666,1.0327739715576172
1630416031757,0.8042245507240295,0.0234265569597482,-0.2954652607440948,0.8823415637016296
1630416031836,0.6160256862640381,0.0242017433047294,-0.2942256927490234,0.6844691634178162
1630416031914,0.4576238393783569,0.0186920948326587,-0.3073861002922058,0.506459653377533
1630416032054,0.4576238393783569,0.002927059540525,-0.3295852541923523,0.5270310044288635
1630416032210,0.4576238393783569,-0.021055294200778,-0.352636843919754,0.5270310044288635
1630416032257,0.4576238393783569,-0.0411581322550773,-0.3673872947692871,0.5270310044288635
1630416032351,0.4624231159687042,-0.0418287329375743,-0.3489403128623962,0.5287370085716248
1630416032460,0.4734620153903961,-0.0193618163466453,-0.2781828939914703,0.5325538516044617
1630416032650,0.4760162532329559,0.0303407702594995,-0.0850857943296432,0.5456075668334961
1630416032728,0.4490813910961151,0.0262641347944736,-0.0268160235136747,0.7796779870986938
1630416032868,0.4111592471599579,-0.0015640265773981,0.0003041868912987,0.807118833065033
1630416032978,0.3871803283691406,-0.0439670756459236,0.0093222316354513,0.8435397148132324
1630416033056,0.4021672010421753,-0.0842354521155357,0.0089699272066354,0.8900187611579895
1630416033134,0.4021672010421753,-0.1078007370233535,0.0013767537893727,0.9424375891685486
1630416033259,0.4021672010421753,-0.1133261173963546,-0.0075571164488792,1.00073504447937
1630416033415,0.4021672010421753,-0.1079591438174247,-0.0105214565992355,1.00073504447937
1630416033493,0.4021672010421753,-0.09486685693264,-0.0035647752229124,1.00073504447937
1630416033540,0.4021672010421753,-0.0764568597078323,0.0119588784873485,1.00073504447937
1630416033681,0.4021672010421753,-0.0562062412500381,0.0323835015296936,1.00073504447937
1630416033728,1.1801122426986694,-0.0418545454740524,0.052487414330244,1.00073504447937
1630416033868,1.0985668897628784,-0.0414543077349662,0.0601740442216396,1.00073504447937
1630416033977,1.0364751815795898,-0.0534684136509895,0.0408511087298393,1.00073504447937
1630416034087,0.9909251928329468,-0.0672526806592941,-0.0110987434163689,1.00073504447937
1630416034134,0.9909251928329468,-0.0740603506565094,-0.0831384286284446,1.00073504447937
1630416034274,0.9909251928329468,-0.0730441063642501,-0.1470402777194976,1.00073504447937
1630416034337,0.9909251928329468,-0.0665094330906868,-0.1794055104255676,1.00073504447937
1630416034477,0.9909251928329468,-0.0546615496277809,-0.1833132058382034,1.00073504447937
1630416034602,0.9909251928329468,-0.0408559665083885,-0.1748973429203033,1.00073504447937
1630416034680,0.9909251928329468,-0.0334315299987793,-0.163104236125946,1.00073504447937
1630416034774,0.9909251928329468,-0.0399666465818882,-0.1509973257780075,1.00073504447937
1630416034852,0.9909251928329468,-0.0623923726379871,-0.1395564824342727,1.00073504447937
1630416034962,0.7792065143585205,-0.097441628575325,-0.131823256611824,1.00073504447937
1630416035149,0.5585276484489441,-0.1407569199800491,-0.1272542476654052,1.00073504447937
1630416035274,0.4853705763816833,-0.1851422637701034,-0.1139692142605781,1.00073504447937
1630416035325,0.5516873002052307,-0.2227400094270706,-0.0778380706906318,1.00073504447937
1630416035372,0.6259758472442627,-0.2467346936464309,-0.0149708399549126,1.00073504447937
1630416035481,0.6629192233085632,-0.2622096538543701,0.0622358284890651,1.0587503910064695
1630416035591,0.6517512202262878,-0.278461754322052,0.1338283717632293,1.0172736644744873
1630416035716,0.5981143712997437,-0.2993985116481781,0.1859387308359146,0.9627808332443236
1630416035840,0.5456189513206482,-0.3235097229480743,0.215497225522995,0.9097237586975098
1630416035934,0.5031060576438904,-0.3524399995803833,0.2255456745624542,0.8609917759895325
1630416036012,0.4749070405960083,-0.3907715678215027,0.221819519996643,0.8199412822723389
1630416036122,0.4749070405960083,-0.4354559183120727,0.2089837789535522,0.8010274171829224
1630416036200,0.4749070405960083,-0.4747223854064941,0.1913328170776367,0.8010274171829224
1630416036309,0.4749070405960083,-0.4982382953166961,0.1729394793510437,0.8010274171829224
1630416036387,0.4749070405960083,-0.4990673065185547,0.157434806227684,0.8010274171829224
1630416036512,0.7777522206306458,-0.473645269870758,0.1476803869009018,0.8010274171829224
1630416036590,0.9024431705474854,-0.4243776500225067,0.1434410363435745,0.8010274171829224
1630416036684,0.9675958156585692,-0.3687063455581665,0.1380370855331421,0.7781342267990112
1630416036778,0.9887495040893556,-0.319443941116333,0.1234403923153877,0.7137618660926819
1630416036918,0.9896432161331176,-0.2756907641887665,0.0939432084560394,0.6015850901603699
1630416037028,0.9849516153335572,-0.2248097062110901,0.0469232350587844,0.4636688530445099
1630416037137,0.985608696937561,-0.1625175029039383,-0.01437927223742,0.4417223632335663
1630416037231,0.993093967437744,-0.1011755019426345,-0.0786610394716262,0.5054535269737244
1630416037309,1.0028717517852783,-0.0560159049928188,-0.1282648146152496,0.5815330147743225
1630416037387,1.010571002960205,-0.0319957360625267,-0.1491286754608154,0.6517224907875061
1630416037580,1.0141478776931765,-0.0235177520662546,-0.1455098241567611,0.7169055342674255
1630416037658,0.9840234518051147,-0.021460959687829,-0.1296808719635009,0.7540203332901001
1630416037751,0.9576140642166138,-0.0195943657308816,-0.1112560555338859,0.7672306299209595
1630416037798,0.9359534382820128,-0.0170824229717254,-0.0953493937849998,0.7687102556228638
1630416037892,0.9181417226791382,-0.016455914825201,-0.0806439071893692,0.7572965621948242
1630416038033,0.8011065721511841,-0.0194451957941055,-0.0655992180109024,0.7405902743339539
1630416038126,0.6714739203453064,-0.0230434779077768,-0.0528948418796062,0.7269637584686279
1630416038204,0.5607651472091675,-0.0214495994150638,-0.0476556420326232,0.7269637584686279
1630416038347,0.4978287816047668,-0.0116356583312153,-0.0558874309062957,0.7269637584686279
1630416038441,0.469561219215393,0.0031551709398627,-0.0671027153730392,0.7269637584686279
1630416038597,0.4659616649150848,-0.011024503968656,-0.0966512337327003,0.7269637584686279
1630416038675,0.4666573107242584,-0.0479046404361724,-0.1203341111540794,0.7266237139701843
1630416038769,0.4624858200550079,-0.1045714914798736,-0.1256112456321716,0.7235609889030457
1630416038879,0.4562987983226776,-0.1611938774585724,-0.1129750534892082,0.7217399477958679
1630416038925,0.456049770116806,-0.1916472315788269,-0.0935327261686325,0.722072184085846
1630416039051,0.4676779508590698,-0.1888381689786911,-0.0766477510333061,0.7158344388008118
1630416039160,0.4896077513694763,-0.1667762547731399,-0.0633858740329742,0.6921005249023438
1630416039269,0.5126555562019348,-0.1363627016544342,-0.0486592389643192,0.6460334062576294
1630416039363,0.5246139168739319,-0.095791757106781,-0.0264772810041904,0.6460334062576294
1630416039457,0.5246139168739319,-0.0407031439244747,0.0009170852135866,0.6460334062576294
1630416039631,0.5246139168739319,0.024737624451518,0.0249716509133577,0.6460334062576294
1630416039693,0.5246139168739319,0.024737624451518,0.0249716509133577,0.6460334062576294
1630416039881,0.5246139168739319,0.024737624451518,0.0249716509133577,0.6460334062576294
1630416039990,0.5246139168739319,0.024737624451518,0.0249716509133577,0.6460334062576294
1630416040084,0.5246139168739319,0.024737624451518,0.0249716509133577,0.6460334062576294
1630416040162,0.5246139168739319,0.024737624451518,0.0249716509133577,0.6460334062576294
1630416040225,0.5246139168739319,0.024737624451518,0.0249716509133577,0.6460334062576294
1630416040365,0.5246139168739319,0.024737624451518,0.0249716509133577,0.6460334062576294
1630416040490,0.5246139168739319,0.024737624451518,0.0249716509133577,0.6460334062576294
1630416040571,0.5246139168739319,0.024737624451518,0.0249716509133577,0.6460334062576294
1630416040680,0.5246139168739319,0.024737624451518,0.0249716509133577,0.6460334062576294
1630416040789,0.5246139168739319,0.024737624451518,0.0249716509133577,0.6460334062576294
1630416040852,0.5246139168739319,0.024737624451518,0.0249716509133577,0.6460334062576294
1630416040961,0.5246139168739319,0.024737624451518,0.0249716509133577,0.6460334062576294
1630416041102,0.5246139168739319,0.024737624451518,0.0249716509133577,0.6460334062576294
1630416041180,0.5246139168739319,0.024737624451518,0.0249716509133577,0.6460334062576294
1630416041258,0.5246139168739319,0.024737624451518,0.0249716509133577,0.6460334062576294
1630416041373,0.5246139168739319,0.024737624451518,0.0249716509133577,0.6460334062576294
1630416041483,0.5246139168739319,0.024737624451518,0.0249716509133577,0.6460334062576294
1630416041580,0.5246139168739319,0.024737624451518,0.0249716509133577,0.6460334062576294
1630416041689,0.5246139168739319,0.024737624451518,0.0249716509133577,0.6460334062576294
1630416041845,0.5246139168739319,0.024737624451518,0.0249716509133577,0.6460334062576294
1630416041908,0.5246139168739319,0.024737624451518,0.0249716509133577,0.6460334062576294
1630416041970,0.5246139168739319,0.024737624451518,0.0249716509133577,0.6460334062576294
1630416042126,0.5246139168739319,0.024737624451518,0.0249716509133577,0.6460334062576294
1630416042220,0.5246139168739319,0.024737624451518,0.0249716509133577,0.6460334062576294
1630416042283,0.5246139168739319,0.024737624451518,0.0249716509133577,0.6460334062576294
1630416042379,0.5246139168739319,0.024737624451518,0.0249716509133577,0.6460334062576294
1630416042576,0.5246139168739319,0.024737624451518,0.0249716509133577,0.6460334062576294
1630416042618,0.5246139168739319,0.024737624451518,-0.1282411962747573,0.6460334062576294
1630416042727,0.5246139168739319,0.024737624451518,-0.1928317546844482,0.6460334062576294
1630416042853,0.5246139168739319,0.024737624451518,-0.2425302863121032,0.6460334062576294
1630416042916,0.5246139168739319,0.024737624451518,-0.2729979157447815,1.3875409364700315
1630416043028,0.5246139168739319,0.024737624451518,-0.2731430530548095,1.3875409364700315
1630416043137,0.5246139168739319,0.024737624451518,-0.2324658930301666,1.3875409364700315
1630416043230,0.5246139168739319,-0.4858704507350921,-0.1633361577987671,1.3875409364700315
1630416043277,0.5246139168739319,-0.3454264402389526,-0.0873799249529838,1.3875409364700315
1630416043398,0.5246139168739319,-0.2204062342643737,-0.0206689480692148,1.3875409364700315
1630416043480,0.5246139168739319,-0.1232300400733947,0.0282303523272275,1.3875409364700315
1630416043638,0.5246139168739319,-0.0515308901667594,0.0609007366001606,1.3875409364700315
1630416043716,0.5246139168739319,-0.0006035570986568,0.0821118354797363,1.3875409364700315
1630416043858,0.5246139168739319,0.0356027074158191,0.0956054255366325,1.3875409364700315
1630416043903,1.2248142957687378,0.0588869117200374,0.1074385866522789,1.3875409364700315
1630416043984,1.2359362840652466,0.067655436694622,0.1179501414299011,1.3875409364700315
1630416044106,1.209526538848877,0.0613512098789215,0.1255458891391754,1.3875409364700315
1630416044264,1.209526538848877,0.0457110330462455,0.1309171169996261,1.3875409364700315
1630416044324,1.209526538848877,0.0273775979876518,0.1355644166469574,1.3875409364700315
1630416044416,1.209526538848877,0.0347543247044086,0.14112488925457,1.3875409364700315
1630416044540,1.209526538848877,0.0406504198908805,0.1521722376346588,1.3875409364700315
1630416044620,1.209526538848877,0.0406928360462188,0.1687026023864746,1.3875409364700315
1630416044746,1.209526538848877,0.0319309681653976,0.1828509420156479,1.3875409364700315
1630416044839,1.209526538848877,0.0117722311988472,0.1823706626892089,1.3875409364700315
1630416044949,1.209526538848877,-0.0204591080546379,0.162441074848175,1.3875409364700315
1630416045028,1.209526538848877,-0.064699538052082,0.1303097009658813,1.3875409364700315
1630416045090,1.2500373125076294,-0.1218285262584686,0.1005172431468963,1.3875409364700315
1630416045249,1.2707250118255615,-0.1917856186628341,0.0821830853819847,1.3875409364700315
1630416045342,1.2707250118255615,-0.2732287049293518,0.073546677827835,1.3875409364700315
1630416045503,1.2707250118255615,-0.354230135679245,0.0679824873805046,1.3875409364700315
1630416045563,1.2707250118255615,-0.4071229994297027,0.0643202364444732,1.3875409364700315
1630416045626,1.2707250118255615,-0.4133908748626709,0.0636162906885147,1.3875409364700315
1630416045767,0.6581664681434631,-0.3953472077846527,0.0655199289321899,0.8978069424629211
1630416045832,0.603891909122467,-0.3798701465129852,0.0671114102005958,0.8451725244522095
1630416045923,0.5543181896209717,-0.3675472140312195,0.0646175369620323,0.7942015528678894
1630416046080,0.5171487331390381,-0.3476454019546509,0.0471663661301136,0.7942015528678894
1630416046159,0.5182241797447205,-0.3109089732170105,0.0061156945303082,0.7942015528678894
1630416046267,0.5915428996086121,-0.2687998414039612,-0.0541133694350719,0.7942015528678894
1630416046359,0.7313212156295776,-0.2329240143299102,-0.1103232353925705,0.7942015528678894
1630416046452,0.8679584860801697,-0.210868626832962,-0.1393306702375412,0.7942015528678894
1630416046577,0.9606561660766602,-0.1938406527042389,-0.140135571360588,1.055264949798584
1630416046639,1.009742021560669,-0.167784109711647,-0.1240300312638282,1.150684475898743
1630416046782,1.0375370979309082,-0.1247918829321861,-0.0923996120691299,1.1670136451721191
1630416046876,1.0633156299591064,-0.0743952915072441,-0.044509932398796,1.152388572692871
1630416046952,1.1004773378372192,-0.0340233221650123,0.0090360017493367,1.1425811052322388
