timestamp,TP9,AF7,AF8,TP10
1629795340138,0.4830692112445831,0.2038059532642364,0.5289954543113708,1.0538642406463623
1629795340155,0.4830692112445831,0.2038059532642364,0.5289954543113708,1.0538642406463623
1629795340162,0.4830692112445831,0.2038059532642364,0.5289954543113708,1.0538642406463623
1629795340250,0.4830692112445831,0.2038059532642364,0.5289954543113708,1.0538642406463623
1629795340265,0.4830692112445831,0.2038059532642364,0.5289954543113708,1.0538642406463623
1629795340421,0.4830692112445831,0.2038059532642364,0.5289954543113708,1.0538642406463623
1629795340421,0.4830692112445831,0.2038059532642364,0.5289954543113708,1.0538642406463623
1629795340656,0.4830692112445831,0.2038059532642364,0.5289954543113708,1.0538642406463623
1629795340656,0.4830692112445831,0.2038059532642364,0.5289954543113708,1.0538642406463623
1629795340828,0.4830692112445831,0.2038059532642364,0.5289954543113708,1.0538642406463623
1629795340939,0.4830692112445831,0.2038059532642364,0.5289954543113708,1.0538642406463623
1629795340952,0.4830692112445831,0.2038059532642364,0.5289954543113708,1.0538642406463623
1629795340955,0.4830692112445831,0.2038059532642364,0.5289954543113708,1.0538642406463623
1629795341283,0.4830692112445831,0.2038059532642364,0.5289954543113708,1.0538642406463623
1629795341424,0.4830692112445831,0.2038059532642364,0.5289954543113708,1.0538642406463623
1629795341455,0.4830692112445831,0.2038059532642364,0.5289954543113708,1.0538642406463623
1629795341689,0.4830692112445831,0.2038059532642364,0.5289954543113708,1.0538642406463623
1629795341752,0.4830692112445831,0.2038059532642364,0.5289954543113708,1.0538642406463623
1629795341783,0.4830692112445831,0.2038059532642364,0.5289954543113708,1.0538642406463623
1629795341845,0.4830692112445831,0.2038059532642364,0.5289954543113708,1.0538642406463623
1629795341877,0.4830692112445831,0.2038059532642364,0.5289954543113708,1.0538642406463623
1629795341908,0.4830692112445831,0.2038059532642364,0.5289954543113708,1.0538642406463623
1629795341923,0.4830692112445831,0.2038059532642364,0.5289954543113708,1.0538642406463623
1629795341923,0.4830692112445831,0.2038059532642364,0.5289954543113708,1.0538642406463623
1629795341923,0.4830692112445831,0.2038059532642364,0.5289954543113708,1.0538642406463623
1629795341955,0.4830692112445831,0.2038059532642364,0.5289954543113708,1.0538642406463623
1629795341970,0.4830692112445831,0.2038059532642364,0.5289954543113708,1.0538642406463623
1629795342002,0.4830692112445831,0.2038059532642364,0.5289954543113708,1.0538642406463623
1629795342004,0.4830692112445831,0.2038059532642364,0.5289954543113708,1.0538642406463623
1629795342176,0.4830692112445831,0.2038059532642364,0.5289954543113708,1.0538642406463623
1629795342489,0.4830692112445831,0.2038059532642364,0.5289954543113708,1.0538642406463623
1629795342489,0.4830692112445831,0.2038059532642364,0.5289954543113708,1.0538642406463623
1629795342567,0.4830692112445831,0.2038059532642364,0.5289954543113708,1.0538642406463623
1629795342723,0.4830692112445831,0.2038059532642364,0.5289954543113708,1.0538642406463623
1629795342739,0.4830692112445831,0.2038059532642364,0.5289954543113708,1.0538642406463623
1629795342754,0.4830692112445831,0.2038059532642364,0.5289954543113708,1.0538642406463623
1629795343085,0.4830692112445831,0.2038059532642364,0.5289954543113708,1.0538642406463623
1629795343178,0.4830692112445831,0.2038059532642364,0.5289954543113708,1.0538642406463623
1629795343428,0.4830692112445831,0.2038059532642364,0.5289954543113708,1.0538642406463623
1629795343553,0.4830692112445831,0.2038059532642364,0.5289954543113708,1.0538642406463623
1629795343600,0.4830692112445831,0.2038059532642364,0.8521193265914917,1.0538642406463623
1629795343616,0.4830692112445831,1.713148832321167,0.7102181911468506,1.0538642406463623
1629795343616,0.4830692112445831,0.2038059532642364,0.7721927762031555,1.0538642406463623
1629795343694,0.4830692112445831,1.6197015047073364,0.6602974534034729,1.0538642406463623
1629795344150,0.4830692112445831,1.6197015047073364,0.6185705661773682,1.0538642406463623
1629795344243,0.4830692112445831,1.5504789352416992,0.6300392746925354,1.0538642406463623
1629795344259,0.4830692112445831,1.4844555854797363,0.6014475226402283,1.0538642406463623
1629795344493,0.4830692112445831,1.427405834197998,0.5794277787208557,1.0538642406463623
1629795344728,0.4830692112445831,1.3774675130844116,0.5614562034606934,1.0538642406463623
1629795344821,0.4830692112445831,1.3331191539764404,0.5668491721153259,1.0538642406463623
1629795344837,0.4830692112445831,1.5202609300613403,0.7757477760314941,1.0538642406463623
1629795344931,0.4830692112445831,1.6238938570022583,0.7473591566085815,1.0538642406463623
1629795345040,0.4830692112445831,1.6238938570022583,0.7847691178321838,1.0538642406463623
1629795345230,0.4830692112445831,1.5893648862838743,0.757836639881134,1.0538642406463623
1629795345277,0.4830692112445831,1.5888874530792236,0.75412517786026,1.0538642406463623
1629795345355,0.4830692112445831,1.5873968601226809,0.7469748854637146,1.0538642406463623
1629795345355,0.4830692112445831,1.594362735748291,0.7448123097419739,1.0538642406463623
1629795345386,0.4830692112445831,1.4472129344940186,0.8069994449615479,1.0538642406463623
1629795345386,0.4830692112445831,1.4361543655395508,0.7638126611709595,1.0538642406463623
1629795345652,0.4830692112445831,1.4472129344940186,0.9945815205574036,1.0538642406463623
1629795345761,0.4830692112445831,1.476172685623169,1.0246039628982544,1.0538642406463623
1629795345777,0.4830692112445831,1.5134124755859375,1.022028923034668,1.0538642406463623
1629795345823,0.4830692112445831,1.5542433261871338,1.1102112531661987,1.0538642406463623
1629795345870,0.4830692112445831,1.554579257965088,1.107021450996399,1.0538642406463623
1629795346373,0.4830692112445831,1.5544999837875366,1.1039719581604004,1.0538642406463623
1629795346388,0.4830692112445831,1.3956856727600098,1.034215807914734,1.0538642406463623
1629795346919,0.4830692112445831,1.093418836593628,1.07215678691864,1.0538642406463623
1629795346935,0.4830692112445831,1.124717354774475,1.0699939727783203,1.0538642406463623
1629795346966,0.4830692112445831,1.1274322271347046,1.1005988121032717,1.0538642406463623
1629795347044,0.4830692112445831,1.2645827531814575,1.1339091062545776,1.0538642406463623
1629795347060,0.4830692112445831,1.2845721244812012,1.156871676445007,1.0538642406463623
1629795347250,0.4830692112445831,1.2242991924285889,1.248741865158081,1.0538642406463623
1629795347265,0.4830692112445831,1.268637776374817,1.2993863821029663,1.0538642406463623
1629795347312,0.4830692112445831,1.290746808052063,1.2809159755706787,1.0538642406463623
1629795347453,0.4830692112445831,1.290746808052063,1.167154312133789,1.0538642406463623
1629795347624,0.4830692112445831,1.3497110605239868,1.240180253982544,1.0538642406463623
1629795347624,0.4830692112445831,1.290746808052063,1.138769268989563,1.0538642406463623
1629795347624,0.4830692112445831,1.351686716079712,1.1830288171768188,1.0538642406463623
1629795347640,0.4830692112445831,1.490727424621582,1.2195805311203003,1.0538642406463623
1629795347703,0.4830692112445831,1.4950647354125977,1.263178467750549,1.0538642406463623
1629795347703,0.4830692112445831,1.5061147212982178,1.2448770999908447,1.0538642406463623
1629795347781,0.4830692112445831,1.5214813947677612,1.232075810432434,1.0538642406463623
1629795347843,0.4830692112445831,1.5408964157104492,1.240618348121643,1.0538642406463623
1629795347843,0.4830692112445831,1.6057127714157104,1.2315192222595217,1.0538642406463623
1629795347859,0.4830692112445831,1.5302597284317017,1.2295085191726685,1.0538642406463623
1629795347890,0.4830692112445831,1.5116708278656006,1.2159883975982666,1.0538642406463623
1629795348046,0.4830692112445831,1.4462846517562866,1.138158082962036,1.0538642406463623
1629795348109,0.4830692112445831,1.448707938194275,1.0687963962554932,1.0538642406463623
1629795348124,0.4830692112445831,1.3985745906829834,1.0697826147079468,1.0538642406463623
1629795348268,0.4830692112445831,1.3538070917129517,1.0706502199172974,1.0538642406463623
1629795348533,0.4830692112445831,1.313665747642517,1.06083345413208,1.0538642406463623
1629795348658,0.4830692112445831,1.219223141670227,0.934836447238922,1.0538642406463623
1629795348705,0.4830692112445831,1.194072961807251,0.9328653216362,1.0538642406463623
1629795349080,0.4830692112445831,0.8992148041725159,0.8749872446060181,1.0538642406463623
1629795349239,0.4830692112445831,0.8926126956939697,0.8658844232559204,1.0538642406463623
1629795349302,0.4830692112445831,0.9606776237487792,0.8892661929130554,1.0538642406463623
1629795349317,0.4830692112445831,1.1761186122894287,1.0074498653411863,1.0538642406463623
1629795349364,0.4830692112445831,1.1455944776535034,0.9445183873176576,1.0538642406463623
1629795349739,0.4830692112445831,1.117066502571106,0.9048648476600648,1.0538642406463623
1629795349802,0.4830692112445831,1.080615520477295,0.8461913466453552,1.0538642406463623
1629795349817,0.4830692112445831,1.076358675956726,0.8375310897827148,1.0538642406463623
1629795349833,0.4830692112445831,1.0758867263793943,0.835450291633606,1.0538642406463623
1629795349864,0.4830692112445831,0.9999412894248962,0.8333247900009155,1.0538642406463623
1629795350145,0.4830692112445831,1.0320091247558594,0.8314149975776672,1.0538642406463623
1629795350257,0.4830692112445831,1.1372748613357544,0.8298565149307251,1.0538642406463623
1629795350273,0.4830692112445831,1.4674052000045776,0.8569941520690918,1.0538642406463623
1629795350288,0.4830692112445831,1.49655020236969,0.886577844619751,1.0538642406463623
1629795350335,0.4830692112445831,1.5148009061813354,0.8696080446243286,1.0538642406463623
1629795350335,0.4830692112445831,1.5155446529388428,0.8705993294715881,1.0538642406463623
1629795350382,0.4830692112445831,1.504132866859436,0.8189738392829895,1.0538642406463623
1629795350585,0.4830692112445831,1.4901118278503418,0.7187412977218628,1.0538642406463623
1629795350694,0.4830692112445831,1.4003688097000122,0.4003267288208008,1.0538642406463623
1629795350804,0.4830692112445831,1.4007107019424438,0.3953928351402282,1.0538642406463623
1629795350866,0.4830692112445831,1.4346115589141846,0.3961687982082367,1.0538642406463623
1629795351040,0.4830692112445831,1.471709132194519,0.4246364831924438,1.0538642406463623
1629795351150,0.4830692112445831,1.4984004497528076,0.2680136561393738,1.0538642406463623
1629795351306,0.4830692112445831,1.5434578657150269,0.3060614466667175,1.0538642406463623
1629795351478,0.4830692112445831,1.5565590858459473,0.3159006237983703,1.0538642406463623
1629795351525,0.4830692112445831,1.5410648584365845,0.3239040076732635,1.0538642406463623
1629795351712,0.4830692112445831,1.501327395439148,0.332099050283432,1.0538642406463623
1629795351743,0.4830692112445831,0.7565903067588806,0.303934633731842,1.0538642406463623
1629795351853,0.4830692112445831,0.8024097681045532,0.4789997637271881,1.0538642406463623
1629795351884,0.4830692112445831,0.825947105884552,0.5601119995117188,1.0538642406463623
1629795351915,0.4830692112445831,0.8523789644241333,0.6042826175689697,1.0538642406463623
1629795352058,0.4830692112445831,0.8568305969238281,0.6124378442764282,1.0538642406463623
1629795352181,0.4830692112445831,0.8019109964370728,0.5186474323272705,1.0538642406463623
1629795352462,0.4830692112445831,0.8415742516517639,0.4818144738674164,1.0538642406463623
1629795352478,0.4830692112445831,0.9060725569725036,0.488852858543396,1.0538642406463623
1629795352681,0.4830692112445831,0.874387264251709,0.4902979135513305,1.0538642406463623
1629795353105,0.4830692112445831,0.8650388717651367,0.4653429090976715,1.0538642406463623
1629795353152,0.4830692112445831,0.8383813500404358,0.4428543746471405,1.0538642406463623
1629795353183,0.4830692112445831,0.8140320181846619,0.4246202111244201,1.0538642406463623
1629795353464,0.4830692112445831,0.841080904006958,0.5724696516990662,1.0538642406463623
1629795353511,0.4830692112445831,0.943425714969635,0.7435945272445679,1.0538642406463623
1629795353527,0.4830692112445831,1.0312480926513672,0.9345844984054564,1.0538642406463623
1629795353667,0.4830692112445831,1.0310908555984497,0.9345123767852784,1.0538642406463623
1629795353823,0.4830692112445831,1.1898988485336304,0.928842544555664,1.0538642406463623
1629795353823,0.4830692112445831,1.051713228225708,0.923011839389801,1.0538642406463623
1629795353839,0.4830692112445831,1.2107579708099363,1.13531756401062,1.0538642406463623
1629795353870,0.4830692112445831,1.241093993186951,1.1333012580871582,1.0538642406463623
1629795354107,0.4830692112445831,1.2736883163452148,1.131349802017212,1.0538642406463623
1629795354388,0.4830692112445831,1.2773152589797974,1.1294735670089722,1.0538642406463623
1629795354482,0.4830692112445831,1.2492527961730957,1.1530028581619265,1.0538642406463623
1629795354653,0.4830692112445831,1.3133940696716309,1.2466371059417725,1.0538642406463623
1629795354794,0.4830692112445831,1.304015874862671,1.2460651397705078,1.0538642406463623
1629795354841,0.4830692112445831,1.3030775785446167,1.245377540588379,1.0538642406463623
1629795355091,0.4830692112445831,1.724917769432068,1.2596572637557983,1.0538642406463623
1629795355328,0.4830692112445831,1.7538987398147583,1.2764496803283691,1.0538642406463623
1629795355656,0.4830692112445831,1.7774324417114258,1.2525185346603394,1.0538642406463623
1629795355672,0.4830692112445831,1.767061471939087,1.2028528451919556,1.0538642406463623
1629795355890,0.4830692112445831,1.7899194955825806,1.2291827201843262,1.0538642406463623
1629795355968,0.4830692112445831,1.7832924127578735,1.232427954673767,1.0538642406463623
1629795356047,0.4830692112445831,1.729572892189026,1.2728534936904907,1.0538642406463623
1629795356062,0.4830692112445831,1.668561577796936,1.1562789678573608,1.0538642406463623
1629795356062,0.4830692112445831,1.692609190940857,1.131632685661316,1.0538642406463623
1629795356140,0.4830692112445831,1.690867900848389,1.156141757965088,1.0538642406463623
1629795356172,0.4830692112445831,1.828761339187622,1.1559659242630005,1.0538642406463623
1629795356250,0.4830692112445831,1.8634250164031985,1.173952341079712,1.0538642406463623
1629795356500,0.4830692112445831,1.884884595870972,1.0891417264938354,1.0538642406463623
1629795356546,0.4830692112445831,1.9259787797927856,1.118522882461548,1.0538642406463623
1629795356562,0.4830692112445831,1.8924009799957275,1.1248021125793457,1.0538642406463623
1629795356562,0.4830692112445831,2.0279908180236816,1.144507884979248,1.0538642406463623
1629795356578,0.4830692112445831,1.8924009799957275,1.0987379550933838,1.0538642406463623
1629795356593,0.4830692112445831,1.8924009799957275,1.0699020624160769,1.0538642406463623
1629795356593,0.4830692112445831,2.088934421539306,1.1126712560653689,1.0538642406463623
1629795356609,0.4830692112445831,2.1236202716827397,1.07711923122406,1.0538642406463623
1629795356640,0.4830692112445831,2.150465488433838,1.1348034143447876,1.0538642406463623
1629795356640,0.4830692112445831,2.1982076168060303,1.0493955612182615,1.0538642406463623
1629795356671,0.4830692112445831,2.252789258956909,1.0784099102020264,1.0538642406463623
1629795356734,0.4830692112445831,2.312719821929932,1.090767502784729,1.0538642406463623
1629795357171,0.4830692112445831,2.3642265796661377,1.1183784008026123,1.0538642406463623
1629795357392,0.4830692112445831,2.24959659576416,1.118863224983215,1.0538642406463623
1629795357392,0.4830692112445831,2.2478742599487305,1.0941047668457031,1.0538642406463623
1629795357408,0.4830692112445831,2.2798609733581543,1.2574622631072998,1.0538642406463623
1629795357595,0.4830692112445831,2.2219839096069336,1.262871503829956,1.0538642406463623
1629795357986,0.4830692112445831,2.200117826461792,1.2433481216430664,1.0538642406463623
1629795358317,0.4830692112445831,2.200117826461792,1.262676239013672,1.0538642406463623
1629795358582,0.4830692112445831,2.200117826461792,1.2836066484451294,1.0538642406463623
1629795358582,0.4830692112445831,2.200117826461792,1.2526302337646484,1.0538642406463623
1629795358613,0.4830692112445831,2.0501558780670166,1.2795298099517822,1.0538642406463623
1629795358707,0.4830692112445831,2.0851290225982666,1.2195721864700315,1.0538642406463623
1629795358707,0.4830692112445831,2.043274402618408,1.2793357372283936,1.0538642406463623
1629795358723,0.4830692112445831,2.0549421310424805,1.2744284868240356,1.0538642406463623
1629795358754,0.4830692112445831,1.996354460716248,1.249311447143555,1.0538642406463623
1629795358801,0.4830692112445831,1.9767329692840576,1.2382985353469849,1.0538642406463623
1629795358816,0.4830692112445831,1.9354379177093504,1.2458500862121582,1.0538642406463623
1629795358910,0.4830692112445831,1.9454442262649536,1.2705421447753906,1.0538642406463623
1629795359051,0.4830692112445831,2.058278083801269,1.333474040031433,1.0538642406463623
1629795359066,0.4830692112445831,1.9763567447662356,1.4776272773742676,1.0538642406463623
1629795359098,0.4830692112445831,2.034146547317505,1.4696320295333862,1.0538642406463623
1629795359381,0.4830692112445831,2.034146547317505,1.4694620370864868,1.0538642406463623
1629795359412,0.4830692112445831,2.034146547317505,1.4879995584487915,1.0538642406463623
1629795359428,0.4830692112445831,1.9761866331100464,1.479007363319397,1.0538642406463623
1629795359444,0.4830692112445831,1.9657694101333616,1.5530599355697632,1.0538642406463623
1629795359444,0.4830692112445831,1.9542365074157717,1.4804723262786863,1.0538642406463623
1629795359475,0.4830692112445831,1.9657694101333616,1.5563242435455322,1.0538642406463623
1629795359943,0.4830692112445831,1.9381530284881592,1.5860439538955688,1.0538642406463623
1629795360193,0.4830692112445831,1.9468810558319087,1.5910601615905762,1.0538642406463623
1629795360226,0.4830692112445831,1.9966777563095093,1.6230567693710327,1.0538642406463623
1629795360242,0.4830692112445831,2.0215654373168945,1.6281815767288208,1.0538642406463623
1629795360274,0.4830692112445831,2.088588237762451,1.6226544380187988,1.0538642406463623
1629795360290,0.4830692112445831,2.158276319503784,1.6168619394302368,1.0538642406463623
1629795360321,0.4830692112445831,2.158276319503784,1.656425714492798,1.0538642406463623
1629795360462,0.4830692112445831,1.6743873357772827,1.4726431369781494,1.0538642406463623
1629795360509,0.4830692112445831,1.6117944717407229,1.48028302192688,1.0538642406463623
1629795360524,0.4830692112445831,1.6098843812942505,1.521142840385437,1.0538642406463623
1629795360555,0.4830692112445831,1.6098843812942505,1.49868905544281,1.0538642406463623
1629795360602,0.4830692112445831,1.6889662742614746,1.4986567497253418,1.0538642406463623
1629795360805,0.4830692112445831,1.6804111003875732,1.389075756072998,1.0538642406463623
1629795360805,0.4830692112445831,1.6804111003875732,1.488613247871399,1.0538642406463623
1629795360821,0.4830692112445831,1.365523338317871,1.3834024667739868,1.0538642406463623
1629795360915,0.4830692112445831,1.3223392963409424,1.367555022239685,1.0538642406463623
1629795360946,0.4830692112445831,1.2439204454421997,1.3107292652130127,1.0538642406463623
1629795361118,0.4830692112445831,1.17802894115448,1.281354904174805,1.0538642406463623
1629795361165,0.4830692112445831,1.17802894115448,1.2949302196502686,1.0538642406463623
1629795361368,0.4830692112445831,1.17802894115448,1.2987271547317505,1.0538642406463623
1629795361383,0.4830692112445831,1.17802894115448,1.2869247198104858,1.0538642406463623
1629795361399,0.4830692112445831,1.1864558458328247,1.0923547744750977,1.0538642406463623
1629795361461,0.4830692112445831,1.3146624565124512,1.1148563623428345,1.0538642406463623
1629795361477,0.4830692112445831,1.3005285263061523,1.08963143825531,1.0538642406463623
1629795361618,0.4830692112445831,1.1787532567977903,0.9872410893440248,1.0538642406463623
1629795361633,0.4830692112445831,1.130650758743286,0.9572963118553162,1.0538642406463623
1629795361711,0.4830692112445831,1.1397470235824585,0.957871437072754,1.0538642406463623
1629795361930,0.4830692112445831,1.1006147861480713,0.9178799390792848,1.0538642406463623
1629795362039,0.4830692112445831,1.0646177530288696,0.7832674384117126,1.0538642406463623
1629795362245,0.4830692112445831,1.047951579093933,0.8273191452026367,1.0538642406463623
1629795362557,0.4830692112445831,1.008743166923523,0.775282084941864,1.0538642406463623
1629795362807,0.4830692112445831,1.011031985282898,0.7769066691398621,1.0538642406463623
1629795362869,0.4830692112445831,1.0647541284561155,0.8467617034912109,1.0538642406463623
1629795363026,0.4830692112445831,1.033016800880432,0.7260840535163879,1.0538642406463623
1629795363418,0.4830692112445831,1.03272545337677,0.6556984186172485,1.0538642406463623
1629795363434,0.4830692112445831,1.0059099197387695,0.6543445587158203,1.0538642406463623
1629795363653,0.4830692112445831,1.018871545791626,0.5499712228775024,1.0538642406463623
1629795363653,0.4830692112445831,0.9885956645011902,0.6530176997184753,1.0538642406463623
1629795363731,0.4830692112445831,0.9921768307685852,0.5172404646873474,1.0538642406463623
1629795363746,0.4830692112445831,1.050896406173706,0.6093397736549377,1.0538642406463623
1629795363746,0.4830692112445831,1.0499871969223022,0.6126960515975952,1.0538642406463623
1629795363965,0.4830692112445831,1.0186022520065308,0.616343080997467,1.0538642406463623
1629795363981,0.4830692112445831,1.0190767049789429,0.6192367672920227,1.0538642406463623
1629795363996,0.4830692112445831,1.050930738449097,0.6206312775611877,1.0538642406463623
1629795364012,0.4830692112445831,1.2257091999053955,0.7441534399986267,1.0538642406463623
1629795364012,0.4830692112445831,1.2545464038848877,0.7706189155578613,1.0538642406463623
1629795364059,0.4830692112445831,1.2852932214736938,0.7993102073669434,1.0538642406463623
1629795364137,0.4830692112445831,1.2905611991882324,0.7603122591972351,1.0538642406463623
1629795364264,0.4830692112445831,1.3659495115280151,0.7594610452651978,1.0538642406463623
1629795364405,0.4830692112445831,1.3681650161743164,0.7585896849632263,1.0538642406463623
1629795364577,0.4830692112445831,1.3667820692062378,0.7586017847061157,1.0538642406463623
1629795364749,0.4830692112445831,1.368480920791626,0.7595444917678833,1.0538642406463623
1629795364858,0.4830692112445831,1.234494924545288,0.6501966714859009,1.0538642406463623
1629795365014,0.4830692112445831,1.4321740865707395,0.6801169514656067,1.0538642406463623
1629795365030,0.4830692112445831,1.4383444786071775,0.7742799520492554,1.0538642406463623
1629795365155,0.4830692112445831,1.4541200399398804,0.7729290723800659,1.0538642406463623
1629795365264,0.4830692112445831,1.6299127340316772,0.8516317009925842,1.0538642406463623
1629795365373,0.4830692112445831,1.640204668045044,0.9242340922355652,1.0538642406463623
1629795365405,0.4830692112445831,1.6514081954956057,0.9597787857055664,1.0538642406463623
1629795365811,0.4830692112445831,1.5574935674667358,0.9067686796188354,1.0538642406463623
1629795365811,0.4830692112445831,1.5726475715637207,0.8528350591659546,1.0538642406463623
1629795365951,0.4830692112445831,1.5258522033691406,0.8787280917167664,1.0538642406463623
1629795365967,0.4830692112445831,1.496500015258789,0.8452088236808777,1.0538642406463623
1629795365967,0.4830692112445831,1.4655606746673584,0.8926658034324646,1.0538642406463623
1629795366376,0.4830692112445831,1.4797697067260742,0.8942887783050537,1.0538642406463623
1629795366813,0.4830692112445831,1.5069063901901243,0.8957401514053345,1.0538642406463623
1629795366907,0.4830692112445831,1.5055047273635864,0.9378809928894044,1.0538642406463623
1629795366922,0.4830692112445831,1.6785870790481567,0.9759178757667542,1.0538642406463623
1629795366922,0.4830692112445831,1.5820232629776,0.9379629492759703,1.0538642406463623
1629795366938,0.4830692112445831,1.6827011108398438,1.0042002201080322,1.0538642406463623
1629795366938,0.4830692112445831,1.6784623861312866,0.9435096979141236,1.0538642406463623
1629795366985,0.4830692112445831,1.5623810291290283,0.9560266733169556,1.0538642406463623
1629795367206,0.4830692112445831,1.5519801378250122,0.8967386484146118,1.0538642406463623
1629795367285,0.4830692112445831,1.5729126930236816,0.9536691904067992,1.0538642406463623
1629795367410,0.4830692112445831,1.6400539875030518,1.045819878578186,1.0538642406463623
1629795367425,0.4830692112445831,1.6266993284225464,0.9916343092918396,1.0538642406463623
1629795367441,0.4830692112445831,1.7178577184677124,1.026891589164734,1.0538642406463623
1629795367503,0.4830692112445831,1.789101481437683,1.0277464389801023,1.0538642406463623
1629795367519,0.4830692112445831,1.789098024368286,1.0288654565811155,1.0538642406463623
1629795367534,0.4830692112445831,1.77659273147583,1.0296469926834106,1.0538642406463623
1629795367566,0.4830692112445831,1.7699167728424072,1.0709855556488037,1.0538642406463623
1629795368034,0.4830692112445831,1.7645646333694458,1.041594624519348,1.0538642406463623
1629795368050,0.4830692112445831,1.7157994508743286,1.041913986206055,1.0538642406463623
1629795368128,0.4830692112445831,1.5887601375579834,1.0842539072036743,1.0538642406463623
1629795368145,0.4830692112445831,1.6236110925674438,1.0733168125152588,1.0538642406463623
1629795368693,0.4830692112445831,1.7249656915664673,1.0211992263793943,1.0538642406463623
1629795368756,0.4830692112445831,1.744869589805603,1.0621789693832395,1.0538642406463623
1629795368897,0.4830692112445831,1.7640434503555298,1.089829683303833,1.0538642406463623
1629795369022,0.4830692112445831,1.793183445930481,1.052213191986084,1.0538642406463623
1629795369037,0.4830692112445831,1.7747093439102173,1.0339605808258057,1.0538642406463623
1629795369053,0.4830692112445831,1.8064318895339968,1.0618716478347778,1.0538642406463623
1629795369084,0.4830692112445831,1.7556096315383911,1.028210997581482,1.0538642406463623
1629795369193,0.4830692112445831,1.693629026412964,1.027668833732605,1.0538642406463623
1629795369240,0.4830692112445831,1.7107250690460205,1.0387096405029297,1.0538642406463623
1629795369240,0.4830692112445831,1.7198486328125,1.0694760084152222,1.0538642406463623
1629795369256,0.4830692112445831,1.7732077836990356,1.1269110441207886,1.0538642406463623
1629795369256,0.4830692112445831,1.7319694757461548,1.098991870880127,1.0538642406463623
1629795369271,0.4830692112445831,1.818751692771912,1.1264489889144895,1.0538642406463623
1629795369740,0.4830692112445831,1.8198496103286743,1.473154902458191,1.0538642406463623
1629795369912,0.4830692112445831,1.8112215995788572,1.5502654314041138,1.0538642406463623
1629795369928,0.4830692112445831,1.599448561668396,1.5591825246810913,1.0538642406463623
1629795370084,0.4830692112445831,1.5369151830673218,1.5454931259155271,1.0538642406463623
1629795370336,0.4830692112445831,1.4633526802062988,1.5351464748382568,1.0538642406463623
1629795370945,0.4830692112445831,1.1653721332550049,1.535588622093201,1.0538642406463623
1629795371119,0.4830692112445831,1.7859086990356443,1.5426244735717771,1.0538642406463623
1629795371338,0.4830692112445831,1.7859086990356443,1.535800814628601,1.0538642406463623
1629795371369,0.4830692112445831,1.7859086990356443,1.57891583442688,1.0538642406463623
1629795371369,0.4830692112445831,1.888059377670288,1.7103878259658811,1.0538642406463623
1629795371400,0.4830692112445831,1.9168955087661743,1.7307254076004028,1.0538642406463623
1629795371447,0.4830692112445831,1.9666008949279783,1.7557131052017212,1.0538642406463623
1629795371463,0.4830692112445831,2.0115222930908203,1.7734702825546265,1.0538642406463623
1629795371619,0.4830692112445831,1.95919930934906,1.7657581567764282,1.0538642406463623
1629795371635,0.4830692112445831,1.9076595306396484,1.771309494972229,1.0538642406463623
1629795371635,0.4830692112445831,1.8595125675201416,1.5746829509735107,1.0538642406463623
1629795371666,0.4830692112445831,1.8222129344940183,1.4887043237686155,1.0538642406463623
1629795371681,0.4830692112445831,1.8610329627990725,1.832456469535828,1.0538642406463623
1629795371681,0.4830692112445831,1.9120495319366453,1.9733805656433103,1.0538642406463623
1629795371697,0.4830692112445831,2.028709650039673,2.0142464637756348,1.0538642406463623
1629795371697,0.4830692112445831,1.96985387802124,2.0110905170440674,1.0538642406463623
1629795371713,0.4830692112445831,1.7072187662124634,2.0047969818115234,1.0538642406463623
1629795372121,0.4830692112445831,1.7072187662124634,1.9980396032333372,1.0538642406463623
1629795372183,0.4830692112445831,1.7072187662124634,1.975898265838623,1.0538642406463623
1629795372387,0.4830692112445831,1.2789517641067505,1.890459895133972,1.0538642406463623
1629795372402,0.4830692112445831,1.658578395843506,1.861444354057312,1.0538642406463623
1629795372637,0.4830692112445831,1.6839739084243774,1.861444354057312,1.0538642406463623
1629795373027,0.4830692112445831,1.6431430578231812,1.861444354057312,1.0538642406463623
1629795373105,0.4830692112445831,1.6742693185806274,1.8991540670394895,1.0538642406463623
1629795373105,0.4830692112445831,1.7285044193267822,1.89458429813385,1.0538642406463623
1629795373168,0.4830692112445831,1.8015679121017456,1.9003148078918457,1.0538642406463623
1629795373199,0.4830692112445831,1.880545139312744,1.9076085090637207,1.0538642406463623
1629795373215,0.4830692112445831,1.880545139312744,1.6381430625915527,1.0538642406463623
1629795373230,0.4830692112445831,1.880545139312744,1.1889625787734983,1.0538642406463623
1629795373277,0.4830692112445831,1.880545139312744,1.1764758825302124,1.0538642406463623
1629795373308,0.4830692112445831,1.880545139312744,1.1838960647583008,1.0538642406463623
1629795373355,0.4830692112445831,1.8053791522979736,1.1527633666992188,1.0538642406463623
1629795373386,0.4830692112445831,1.7685410976409912,1.1833451986312866,1.0538642406463623
1629795373386,0.4830692112445831,1.714560866355896,1.206135392189026,1.0538642406463623
1629795373418,0.4830692112445831,1.7243667840957642,1.1693942546844482,1.0538642406463623
1629795373418,0.4830692112445831,1.9345630407333372,1.1519989967346191,1.0538642406463623
1629795373433,0.4830692112445831,1.9520859718322756,1.2340688705444336,1.0538642406463623
1629795373464,0.4830692112445831,2.0201101303100586,1.2311995029449463,1.0538642406463623
1629795373808,0.4830692112445831,2.0201101303100586,1.231783390045166,1.0538642406463623
1629795373855,0.4830692112445831,2.0201101303100586,1.231669306755066,1.0538642406463623
1629795373949,0.4830692112445831,1.9491121768951416,1.2212902307510376,1.0538642406463623
1629795373980,0.4830692112445831,1.902886152267456,1.2192058563232422,1.0538642406463623
1629795374121,0.4830692112445831,1.8582464456558228,1.16560161113739,1.0538642406463623
1629795374136,0.4830692112445831,1.8582464456558228,1.224323272705078,1.0538642406463623
1629795374136,0.4830692112445831,1.8582464456558228,1.2277731895446775,1.0538642406463623
1629795374699,0.4830692112445831,1.8582464456558228,1.2092190980911257,1.0538642406463623
1629795374824,0.4830692112445831,1.904340744018555,1.2275201082229614,1.0538642406463623
1629795374933,0.4830692112445831,1.878579378128052,1.1892908811569214,1.0538642406463623
1629795375058,0.4830692112445831,1.87008273601532,1.170947790145874,1.0538642406463623
1629795375198,0.4830692112445831,1.8216936588287356,1.17107355594635,1.0538642406463623
1629795375233,0.4830692112445831,1.0421797037124634,1.1930912733078003,1.0538642406463623
1629795375249,0.4830692112445831,1.3590540885925293,1.083613395690918,1.0538642406463623
1629795375264,0.4830692112445831,1.3590540885925293,1.341852068901062,1.0538642406463623
1629795375264,0.4830692112445831,1.3590540885925293,1.1686997413635254,1.0538642406463623
1629795375311,0.4830692112445831,1.3590540885925293,1.3634811639785769,1.0538642406463623
1629795375373,0.4830692112445831,1.392719864845276,1.3517186641693115,1.0538642406463623
1629795375467,0.4830692112445831,1.3886646032333374,1.317463755607605,1.0538642406463623
1629795375920,0.4830692112445831,1.365200757980347,1.2936545610427856,1.0538642406463623
1629795376014,0.4830692112445831,1.2987666130065918,1.2364364862442017,1.0538642406463623
1629795376061,0.4830692112445831,2.02656364440918,1.2594352960586548,1.0538642406463623
1629795376139,0.4830692112445831,2.02656364440918,1.4841324090957642,1.0538642406463623
1629795376139,0.4830692112445831,2.02656364440918,1.2660938501358032,1.0538642406463623
1629795376326,0.4830692112445831,2.084368705749512,1.5143789052963257,1.0538642406463623
1629795376405,0.4830692112445831,2.151102066040039,1.5249934196472168,1.0538642406463623
1629795376405,0.4830692112445831,2.2299420833587646,1.536665916442871,1.0538642406463623
1629795376592,0.4830692112445831,2.315359592437744,1.518242120742798,1.0538642406463623
1629795376639,0.4830692112445831,2.2664332389831543,1.5183253288269043,1.0538642406463623
1629795376826,0.4830692112445831,2.169776439666748,1.4677963256835938,1.0538642406463623
1629795377079,0.4830692112445831,2.090775966644287,1.3227089643478394,1.0538642406463623
1629795377391,0.4830692112445831,2.0297372341156006,1.2993358373641968,1.0538642406463623
1629795377469,0.4830692112445831,1.9879376888275144,1.3286728858947754,1.0538642406463623
1629795377578,0.4830692112445831,1.9370474815368648,1.360390543937683,1.0538642406463623
1629795377688,0.4830692112445831,1.9318628311157229,1.3948404788970947,1.0538642406463623
1629795377766,0.4830692112445831,1.9848870038986208,1.4207717180252075,1.0538642406463623
1629795377828,0.4830692112445831,1.2956559658050537,1.420902967453003,1.0538642406463623
1629795377875,0.4830692112445831,1.2956559658050537,1.4364107847213743,1.0538642406463623
1629795378143,0.4830692112445831,1.2956559658050537,0.958970546722412,1.0538642406463623
1629795378174,0.4830692112445831,1.2956559658050537,0.743109405040741,1.0538642406463623
1629795378190,0.4830692112445831,1.5163291692733765,0.6272130608558655,1.0538642406463623
1629795378205,0.4830692112445831,1.5163291692733765,0.6545177102088928,1.0538642406463623
1629795378205,0.4830692112445831,1.5163291692733765,0.6530397534370422,1.0538642406463623
1629795378237,0.4830692112445831,1.540754795074463,0.6507859230041504,1.0538642406463623
1629795378471,0.4830692112445831,1.5401890277862549,0.6474034786224365,1.0538642406463623
1629795378534,0.4830692112445831,1.763408064842224,0.643134593963623,1.0538642406463623
1629795378580,0.4830692112445831,1.7906259298324585,0.7530370950698853,1.0538642406463623
1629795378612,0.4830692112445831,1.7928436994552612,0.82204669713974,1.0538642406463623
1629795378690,0.4830692112445831,1.8504244089126587,0.8552592396736145,1.0538642406463623
1629795378705,0.4830692112445831,1.9169203042984009,0.9439887404441832,1.0538642406463623
1629795378846,0.4830692112445831,1.898138165473938,0.8629364967346191,1.0538642406463623
1629795379002,0.4830692112445831,1.898138165473938,0.8309668898582458,1.0538642406463623
1629795379192,0.4830692112445831,1.847926378250122,0.8760516047477722,1.0538642406463623
1629795379239,0.4830692112445831,1.796762466430664,0.8489977121353149,1.0538642406463623
1629795379317,0.4830692112445831,1.7391479015350342,0.8466920852661133,1.0538642406463623
1629795379348,0.4830692112445831,1.5904220342636108,0.8863957524299622,1.0538642406463623
1629795379379,0.4830692112445831,1.5405316352844238,0.8262422680854797,1.0538642406463623
1629795379426,0.4830692112445831,1.7003986835479736,0.8691430687904358,1.0538642406463623
1629795379801,0.4830692112445831,1.6931947469711304,0.9500480890274048,1.0538642406463623
1629795379817,0.4830692112445831,1.734532356262207,1.0024877786636353,1.0538642406463623
1629795379832,0.4830692112445831,1.55220365524292,1.0039290189743042,1.0538642406463623
1629795379926,0.4830692112445831,1.5011205673217771,0.9696508646011353,1.0538642406463623
1629795380179,0.4830692112445831,1.4725308418273926,0.9556590914726256,1.0538642406463623
1629795380225,0.4830692112445831,1.4317764043807983,0.9156273007392884,1.0538642406463623
1629795380382,0.4830692112445831,1.418529033660889,0.8800767660140991,1.0538642406463623
1629795380491,0.4830692112445831,1.4319959878921509,0.9342565536499025,1.0538642406463623
1629795380507,0.4830692112445831,1.4014606475830078,0.9352816939353944,1.0538642406463623
1629795380522,0.4830692112445831,1.3685104846954346,0.8766287565231323,1.0538642406463623
1629795380569,0.4830692112445831,1.3489999771118164,0.8766013979911804,1.0538642406463623
1629795380741,0.4830692112445831,1.3663322925567627,0.9200270771980286,1.0538642406463623
1629795380913,1.199021816253662,1.3531229496002195,0.923244059085846,1.0538642406463623
1629795381069,1.199021816253662,1.374441385269165,0.9193178415298462,1.0538642406463623
1629795381290,1.199021816253662,1.0436276197433472,0.9214974641799928,1.0538642406463623
1629795381305,1.199021816253662,0.9125108122825624,0.8349071145057678,1.0538642406463623
1629795381477,1.199021816253662,1.0535374879837036,0.777251124382019,1.0538642406463623
1629795381587,1.199021816253662,1.0780597925186155,0.7753123641014099,1.0538642406463623
1629795381618,1.199021816253662,1.1073145866394043,0.8299919962882996,1.0538642406463623
1629795381634,1.199021816253662,1.1115056276321411,0.8339755535125732,1.0538642406463623
1629795381634,1.199021816253662,1.0839462280273438,0.7818795442581177,1.0538642406463623
1629795381805,1.199021816253662,1.1195522546768188,0.8489749431610107,1.0538642406463623
1629795381837,1.199021816253662,1.1572675704956057,0.9901397228240968,1.0538642406463623
1629795381868,1.199021816253662,1.1790848970413208,0.9887174963951112,1.0538642406463623
1629795381883,1.199021816253662,1.1982730627059937,1.016216516494751,1.0538642406463623
1629795382055,1.199021816253662,1.1963999271392822,1.0155317783355713,1.0538642406463623
1629795382261,1.199021816253662,1.171999216079712,0.9767584800720216,1.0538642406463623
1629795382558,1.199021816253662,1.171582818031311,0.9376707673072816,1.0538642406463623
1629795382729,1.199021816253662,1.1585919857025146,0.9694549441337584,1.0538642406463623
1629795382745,1.199021816253662,1.1596100330352783,0.974158763885498,1.0538642406463623
1629795382932,1.199021816253662,1.1604499816894531,0.9761698246002196,1.0538642406463623
1629795382995,1.199021816253662,1.125971794128418,1.0756944417953491,1.0538642406463623
1629795382995,1.199021816253662,1.1822524070739746,1.16509211063385,1.0538642406463623
1629795383011,1.199021816253662,1.195859670639038,1.1604021787643433,1.0538642406463623
1629795383104,1.199021816253662,1.203663349151611,1.1707358360290527,1.0538642406463623
1629795383120,1.199021816253662,1.2373230457305908,1.1693602800369265,1.0538642406463623
1629795383167,1.199021816253662,1.201450228691101,1.1262218952178955,1.0538642406463623
1629795383310,1.199021816253662,1.088728666305542,0.9736884236335754,1.0538642406463623
1629795383482,1.199021816253662,1.0872451066970823,0.975169003009796,1.0538642406463623
1629795383701,1.199021816253662,1.0852172374725342,0.981592297554016,1.0538642406463623
1629795383716,1.199021816253662,1.0853538513183594,0.9841479659080504,1.0538642406463623
1629795383888,1.199021816253662,1.1425822973251345,1.0566238164901731,1.0538642406463623
1629795383951,1.199021816253662,1.143140435218811,1.0598963499069214,1.0538642406463623
1629795383982,1.199021816253662,1.258481502532959,1.0789141654968262,1.0538642406463623
1629795383982,1.199021816253662,1.1557703018188477,1.0790071487426758,1.0538642406463623
1629795384047,1.199021816253662,1.277246356010437,1.1080663204193115,1.0538642406463623
1629795384156,1.199021816253662,1.2153297662734983,1.0131185054779053,1.0538642406463623
1629795384281,1.199021816253662,1.1432629823684692,0.8914843201637268,1.0538642406463623
1629795384531,1.199021816253662,1.0997772216796875,0.8531996607780457,1.0538642406463623
1629795384625,1.199021816253662,1.0890793800354004,0.8337002396583557,1.0538642406463623
1629795385172,1.199021816253662,1.0100839138031006,0.7860002517700195,1.0538642406463623
1629795385172,1.199021816253662,1.008738994598389,0.7858224511146545,1.0538642406463623
1629795385234,1.199021816253662,1.0233982801437378,0.7872841358184814,1.0538642406463623
1629795385471,1.199021816253662,1.0777043104171753,0.8168718218803406,1.0538642406463623
1629795385471,1.199021816253662,1.0613754987716677,0.7887444496154785,1.0538642406463623
1629795385565,1.199021816253662,1.1473119258880615,0.8790698051452637,1.0538642406463623
1629795385846,1.199021816253662,1.1178900003433228,0.767946720123291,1.0538642406463623
1629795385878,1.199021816253662,1.208091139793396,0.7640076279640198,1.0538642406463623
1629795385925,1.199021816253662,1.195859670639038,0.7291784286499023,1.0538642406463623
1629795385940,1.199021816253662,1.1819586753845217,0.9457460641860962,1.0538642406463623
1629795385956,1.199021816253662,1.4892632961273191,0.928964138031006,1.0538642406463623
1629795386003,1.199021816253662,1.4887056350708008,0.9573965668678284,1.0538642406463623
1629795386034,1.199021816253662,1.5040810108184814,0.9896115064620972,1.0538642406463623
1629795386049,1.199021816253662,1.512712001800537,1.023041844367981,1.0538642406463623
1629795386159,1.199021816253662,1.516100525856018,1.036664366722107,1.0538642406463623
1629795386190,1.199021816253662,1.7581535577774048,1.108945369720459,1.0538642406463623
1629795386190,1.199021816253662,1.5250955820083618,1.0371708869934082,1.0538642406463623
1629795386206,1.199021816253662,1.5999268293380735,1.0715179443359375,1.0538642406463623
1629795386237,1.199021816253662,1.774632453918457,1.1508010625839231,1.0538642406463623
1629795386253,1.199021816253662,1.7975995540618896,1.194271683692932,1.0538642406463623
1629795386409,1.199021816253662,1.78607439994812,1.1572275161743164,1.0538642406463623
1629795386487,1.199021816253662,1.7795295715332031,1.1567199230194092,1.0538642406463623
1629795386784,1.199021816253662,1.753534197807312,1.156267523765564,1.0538642406463623
1629795387049,1.199021816253662,1.7575446367263794,1.1214215755462646,1.0538642406463623
1629795387223,1.199021816253662,1.71994948387146,0.7849486470222473,1.0538642406463623
1629795387239,1.199021816253662,1.7065879106521606,0.7459852695465088,1.0538642406463623
1629795387411,0.9068732857704164,1.741134762763977,0.7436612248420715,1.0538642406463623
1629795387458,0.9068732857704164,1.7673929929733276,0.7804824709892273,1.0538642406463623
1629795387473,0.9068732857704164,1.7700345516204834,0.828006386756897,1.0538642406463623
1629795387551,0.9068732857704164,1.7682242393493652,0.8115517497062683,1.0538642406463623
1629795387598,0.9068732857704164,1.769659399986267,0.8139944672584534,1.0538642406463623
1629795387614,0.9068732857704164,1.7352092266082764,0.9054459929466248,1.0538642406463623
1629795387739,0.9068732857704164,1.4782127141952517,0.8775768876075745,1.0538642406463623
1629795387786,0.9068732857704164,1.4410251379013062,0.8517052531242371,1.0538642406463623
1629795388129,0.9068732857704164,1.4069217443466189,0.7071847915649414,1.0538642406463623
1629795388241,0.892827570438385,1.394218921661377,0.6832045316696167,1.0538642406463623
1629795388288,0.8778645396232605,1.3946781158447266,0.6818673014640808,1.0538642406463623
1629795388444,0.8572314977645874,1.3948408365249634,0.6803823113441467,1.0538642406463623
1629795388506,0.694343626499176,1.3913426399230957,0.7271936535835266,1.0538642406463623
1629795388522,0.7171273827552795,1.4307518005371094,0.7262967824935913,1.0538642406463623
1629795388694,0.7739176154136658,1.0500909090042114,0.8284698724746704,1.0538642406463623
1629795388725,0.7739176154136658,1.021403670310974,0.8739355206489563,1.0538642406463623
1629795388788,0.7739176154136658,0.9950246214866638,0.8288095593452454,1.0538642406463623
1629795388897,0.7839758396148682,0.9552872776985168,0.7445768117904663,1.0538642406463623
1629795389006,0.7985604405403137,0.9529626369476318,0.7394245266914368,1.0538642406463623
1629795389209,0.92396879196167,0.9521852731704712,0.7970269918441772,1.0538642406463623
1629795389256,0.906096875667572,0.7751883864402771,0.6621912717819214,1.0538642406463623
1629795389366,0.8853440284729004,0.848926305770874,0.6658013463020325,1.0538642406463623
1629795389459,0.8853440284729004,1.0835614204406738,0.7401997447013855,1.0538642406463623
1629795389741,0.8853440284729004,1.1100033521652222,0.7436240911483765,1.0538642406463623
1629795389928,0.892505407333374,1.1333401203155518,0.7674548625946045,1.0538642406463623
1629795390053,0.9069285988807678,1.1342862844467163,0.7708253264427185,1.0538642406463623
1629795390115,0.937811315059662,1.1352181434631348,0.7742048501968384,1.0538642406463623
1629795390194,1.0180140733718872,1.140613675117493,0.7342643737792969,1.0538642406463623
1629795390321,1.0180140733718872,1.0977967977523804,0.7938021421432495,1.0538642406463623
1629795390337,1.0180140733718872,1.0931799411773682,0.787385106086731,1.0538642406463623
1629795390493,1.0180140733718872,1.114036202430725,0.7722792029380798,1.0538642406463623
1629795390493,1.0180140733718872,1.0917500257492063,0.7056884169578552,1.0538642406463623
1629795390509,1.0517337322235107,1.1128907203674316,0.7744596600532532,1.0538642406463623
1629795390555,1.0899572372436523,1.1119394302368164,0.7758516669273376,1.0538642406463623
1629795390774,1.0899572372436523,1.1110962629318235,0.7746760249137878,1.0538642406463623
1629795390883,1.0899572372436523,1.109647274017334,0.7727446556091309,1.0538642406463623
1629795390993,1.0899572372436523,1.0706640481948853,0.769450843334198,1.0538642406463623
1629795391024,1.0899572372436523,0.8275274038314819,0.7001844048500061,1.0538642406463623
1629795391258,1.0899572372436523,0.7772256135940552,0.6963681578636169,1.0538642406463623
1629795391274,1.0899572372436523,0.7246168851852417,0.7555978894233704,1.0538642406463623
1629795391323,1.0899572372436523,0.8288682699203491,0.809738039970398,1.0538642406463623
1629795391339,1.0899572372436523,0.8781781196594238,0.8581889867782593,1.0538642406463623
1629795391386,1.0899572372436523,0.8140600323677063,0.8569831252098083,1.0538642406463623
1629795391479,1.0899572372436523,0.8076878786087036,0.8492609858512878,1.0538642406463623
1629795391604,1.0899572372436523,0.7945700287818909,0.8367101550102234,1.0538642406463623
1629795391776,1.0899572372436523,0.8625775575637817,0.8389009237289429,1.0538642406463623
1629795391807,1.0899572372436523,0.8215041756629944,0.7862692475318909,1.0538642406463623
1629795391870,1.0899572372436523,0.8238254189491272,0.7874265909194946,1.0538642406463623
1629795392089,1.0899572372436523,0.826447606086731,0.7882922291755676,1.0538642406463623
1629795392214,1.0899572372436523,0.9292632937431335,0.7896741032600403,1.0538642406463623
1629795392325,1.0899572372436523,0.9311489462852478,0.7906217575073242,1.0538642406463623
1629795392403,1.0899572372436523,0.932402729988098,0.791248619556427,1.0538642406463623
1629795392434,1.0899572372436523,0.9327746629714966,0.7915908694267273,1.0538642406463623
1629795392575,1.0899572372436523,0.93244606256485,0.7924076318740845,1.0538642406463623
1629795392700,1.0899572372436523,0.945688009262085,0.7368471622467041,1.0538642406463623
1629795392840,0.9203903675079346,0.8685517311096191,0.672312319278717,1.0538642406463623
1629795392965,0.8425803780555725,0.8197357058525085,0.5990665555000305,1.0538642406463623
1629795392965,0.8859191536903381,0.8187676072120667,0.5960904359817505,1.0538642406463623
1629795393108,0.8060703277587891,0.7747130393981934,0.5233970880508423,1.0538642406463623
1629795393124,0.8803706169128418,0.7428889870643616,0.4857456088066101,1.0538642406463623
1629795393140,0.8803706169128418,0.7112051248550415,0.5225774049758911,1.0538642406463623
1629795393249,0.8803706169128418,0.7110714316368103,0.5220336318016052,1.0538642406463623
1629795393483,0.8803706169128418,0.7124203443527222,0.5213860273361206,1.0538642406463623
1629795393639,0.8598583340644836,0.7139268517494202,0.520287275314331,1.0538642406463623
1629795393764,0.8549842238426208,0.419869065284729,0.3984780609607696,1.0538642406463623
1629795393811,0.8569860458374023,0.4192286729812622,0.3987806439399719,1.0538642406463623
1629795393843,0.8548658490180969,0.4183381497859955,0.4027126133441925,1.0538642406463623
1629795393921,0.9108721613883972,0.5362606048583984,0.5294092297554016,1.0538642406463623
1629795393921,0.8910751342773438,0.7547816038131714,0.5335381627082825,1.0538642406463623
1629795394093,0.8443092107772827,0.7333057522773743,0.5005013346672058,1.0538642406463623
1629795394188,0.9066043496131896,0.8141309022903442,0.6336184740066528,1.0538642406463623
1629795394220,0.9060013890266418,0.8112777471542358,0.6320476531982422,1.0538642406463623
1629795394454,0.9159692525863647,0.8084930181503296,0.6297200322151184,1.0538642406463623
1629795394782,0.9247855544090272,0.807171106338501,0.6267536878585815,1.0538642406463623
1629795394891,0.8693932890892029,0.7563076615333557,0.5280681848526001,1.0538642406463623
1629795394938,0.8475965261459351,0.7047034502029419,0.4876887202262878,1.0538642406463623
1629795395001,0.8475965261459351,0.7046648263931274,0.485589325428009,1.0538642406463623
1629795395048,0.8475965261459351,0.8511897325515747,0.574556291103363,1.0538642406463623
1629795395048,0.8607625365257263,0.8999846577644348,0.5753551721572876,1.0538642406463623
1629795395063,0.8652187585830688,1.0869101285934448,0.6510714292526245,1.0538642406463623
1629795395191,0.8640730381011963,1.0877681970596311,0.6528147459030151,1.0538642406463623
1629795395316,0.8676140308380127,1.088219404220581,0.6531295776367188,1.0538642406463623
1629795395331,0.7889735102653503,1.0579285621643066,0.5637011528015137,1.0538642406463623
1629795395456,0.8167380690574646,0.962008535861969,0.5596485137939453,1.0538642406463623
1629795396034,0.853805422782898,0.9612221121788024,0.5556374192237854,1.0538642406463623
1629795396097,0.6470422148704529,0.9038676619529724,0.3877080380916595,1.0538642406463623
1629795396128,0.6326589584350586,0.9046209454536438,0.3922323882579803,1.0538642406463623
1629795396256,0.6326589584350586,0.9055757522583008,0.4029515385627746,1.0538642406463623
1629795396349,0.6326589584350586,1.0320597887039185,0.4160563051700592,1.0538642406463623
1629795396412,0.6326589584350586,1.0628235340118408,0.5420572757720947,1.0538642406463623
1629795396412,0.6326589584350586,1.1275286674499512,0.7347778677940369,1.0538642406463623
1629795396427,0.6326589584350586,1.290140986442566,1.1175159215927124,1.0538642406463623
1629795396427,0.6326589584350586,1.3344027996063232,1.1386014223098757,1.0538642406463623
1629795396584,0.6326589584350586,1.269278645515442,1.1181676387786863,1.0538642406463623
1629795396630,0.6326589584350586,1.1539369821548462,1.0936137437820437,1.0538642406463623
1629795396662,0.6326589584350586,1.1517914533615112,1.0915716886520386,1.0538642406463623
1629795396958,0.6326589584350586,1.1505738496780396,1.0891231298446655,1.0538642406463623
1629795397130,0.6326589584350586,1.1507805585861206,1.0871806144714355,1.0538642406463623
1629795397146,0.6326589584350586,1.1758254766464231,1.112010836601257,1.0538642406463623
1629795397273,0.6326589584350586,1.2046149969100952,1.1396983861923218,1.0538642406463623
1629795397382,0.6326589584350586,1.2353729009628296,1.1691306829452517,1.0538642406463623
1629795397554,0.6326589584350586,1.2685792446136477,1.2002696990966797,1.0538642406463623
1629795397601,0.6326589584350586,1.2784264087677002,1.200744867324829,1.0538642406463623
1629795397648,0.6326589584350586,1.1951206922531128,1.200899600982666,1.0538642406463623
1629795397695,0.6326589584350586,1.168573975563049,1.172101974487305,1.0538642406463623
1629795397789,0.6326589584350586,1.0951151847839355,1.0960074663162231,1.0538642406463623
1629795397976,0.6326589584350586,0.3463250994682312,0.319954514503479,1.0538642406463623
1629795397992,0.5367845892906189,0.3569689691066742,0.3132437765598297,1.0538642406463623
1629795398338,0.5391874313354492,0.3719798922538757,0.3141461312770843,1.0538642406463623
1629795398635,0.5292297601699829,0.3892154693603515,0.324039101600647,1.0538642406463623
1629795398775,0.5096235871315002,0.4036056399345398,0.3393670320510864,1.0538642406463623
1629795398822,0.696419894695282,0.41195148229599,0.5517327785491943,1.0538642406463623
1629795398900,0.8104345202445984,0.5969427227973938,0.5582690834999084,1.0538642406463623
1629795399153,0.7834926247596741,0.5690191984176636,0.4309286475181579,1.0538642406463623
1629795399168,0.7834926247596741,0.8761454224586487,0.4538594782352447,1.0538642406463623
1629795399231,0.7834926247596741,1.352900505065918,0.636444628238678,1.0538642406463623
1629795399231,0.7834926247596741,1.367429494857788,0.5473656058311462,1.0538642406463623
1629795399231,0.7834926247596741,1.3387515544891355,0.5248116850852966,1.0538642406463623
1629795399293,0.8081236481666565,1.364291429519653,0.6977730989456177,1.0538642406463623
1629795399293,0.7834926247596741,1.3659495115280151,0.7002744078636169,1.0538642406463623
1629795399527,0.8332449197769165,1.3627710342407229,0.6964147686958313,1.0538642406463623
1629795399699,0.8605844378471375,1.3766677379608154,0.7606257200241089,1.0538642406463623
1629795399731,0.8937186002731323,1.375705003738403,0.9056316018104552,1.0538642406463623
1629795399746,0.9389004707336426,1.404227375984192,0.9557134509086608,1.0538642406463623
1629795399793,1.0048357248306274,1.4348524808883667,1.0044080018997192,1.0538642406463623
1629795399887,1.0048357248306274,1.4681817293167114,1.0318138599395752,1.0538642406463623
1629795400155,1.0048357248306274,1.4678338766098022,0.9855839014053344,1.0538642406463623
1629795400201,1.0048357248306274,1.462141752243042,0.9837265014648438,1.0538642406463623
1629795400217,1.0048357248306274,1.4895079135894775,1.0298627614974976,1.0538642406463623
1629795400451,1.0048357248306274,1.423015832901001,1.0198616981506348,1.0538642406463623
1629795400576,1.0048357248306274,0.8757323026657104,0.9878347516059875,1.0538642406463623
1629795400670,1.0048357248306274,0.922960877418518,1.0707441568374634,1.0538642406463623
1629795400858,1.0048357248306274,0.8480100035667419,1.0417366027832031,1.0538642406463623
1629795401045,1.0048357248306274,0.8530228734016418,1.0127757787704468,1.0538642406463623
1629795401108,1.0048357248306274,0.9338778257369996,1.0597381591796875,1.0538642406463623
1629795401125,1.0048357248306274,1.0697033405303955,1.0612252950668335,1.0538642406463623
1629795401172,1.0048357248306274,1.0679861307144165,1.0307211875915527,1.0538642406463623
1629795401235,1.0048357248306274,1.155341625213623,0.9259098768234252,1.0538642406463623
1629795401391,1.0048357248306274,1.1321682929992676,0.8861904144287109,1.0538642406463623
1629795401438,1.0048357248306274,1.1008750200271606,0.8182500004768372,1.0538642406463623
1629795401438,1.0048357248306274,1.1005796194076538,0.8443115949630737,1.0538642406463623
1629795401516,1.0048357248306274,1.0998069047927856,0.8447751998901367,1.0538642406463623
1629795401547,1.0048357248306274,1.0709271430969238,0.8453308343887329,1.0538642406463623
1629795401688,1.0048357248306274,1.018331527709961,0.771111011505127,1.0538642406463623
1629795401688,1.0048357248306274,1.1012438535690308,0.8294995427131653,1.0538642406463623
1629795401813,1.0048357248306274,1.1012811660766602,0.8274599313735962,1.0538642406463623
1629795402094,1.0048357248306274,1.1032809019088743,0.7385528087615967,1.0538642406463623
1629795402229,1.0048357248306274,1.1378576755523682,0.793904185295105,1.0538642406463623
1629795402354,1.0048357248306274,1.1126536130905151,0.7942574620246887,1.0538642406463623
1629795402526,1.0048357248306274,1.0747326612472534,0.7055781483650208,1.0538642406463623
1629795402651,1.0048357248306274,1.0294142961502075,0.7713749408721924,1.0538642406463623
1629795402667,1.0048357248306274,1.1551042795181274,0.900597095489502,1.0538642406463623
1629795402729,1.0048357248306274,1.088779091835022,0.902701735496521,1.0538642406463623
1629795402745,1.0048357248306274,1.0798927545547483,0.8898082375526428,1.0538642406463623
1629795402776,1.0048357248306274,1.1187832355499268,0.9501301050186156,1.0538642406463623
1629795402792,1.0048357248306274,1.091290831565857,0.8930578827857971,1.0538642406463623
1629795403174,1.0048357248306274,1.0911564826965332,0.8924869894981384,1.0538642406463623
1629795403189,1.0048357248306274,1.0908282995224,0.8923242688179016,1.0538642406463623
1629795403209,1.0048357248306274,1.061351299285889,0.894620954990387,1.0538642406463623
1629795403330,1.0048357248306274,0.9697492122650146,0.8494696617126465,1.0538642406463623
1629795403550,1.0048357248306274,1.0644564628601074,0.8762679100036621,1.0538642406463623
1629795403730,1.0048357248306274,1.0502629280090332,0.8010820150375366,1.0538642406463623
1629795403730,1.0048357248306274,1.0879616737365725,0.8518525958061218,1.0538642406463623
1629795404010,1.0048357248306274,1.0502028465270996,0.8297218680381775,1.0538642406463623
1629795404069,1.0048357248306274,1.049216628074646,0.8234205842018127,1.0538642406463623
1629795404089,1.0048357248306274,1.0375195741653442,0.7332242131233215,1.0538642406463623
1629795404330,1.0048357248306274,0.8166393637657166,0.4036760926246643,1.0538642406463623
1629795404330,1.0048357248306274,0.9149035215377808,0.6823156476020813,1.0538642406463623
1629795404430,1.0048357248306274,0.927271604537964,0.7067043781280518,1.0538642406463623
1629795404505,1.0048357248306274,0.9731967449188232,0.7940325140953064,1.0538642406463623
1629795404529,1.0048357248306274,1.2687242031097412,1.2641361951828003,1.0538642406463623
1629795404569,1.0048357248306274,1.292837142944336,1.296189785003662,1.0538642406463623
1629795404795,1.0048357248306274,1.2925885915756226,1.2954387664794922,1.0538642406463623
1629795404880,1.0048357248306274,1.2920184135437012,1.2935879230499268,1.0538642406463623
1629795404990,1.0048357248306274,1.2913851737976074,1.2900251150131226,1.0538642406463623
1629795405164,1.0048357248306274,1.2572236061096191,1.253077268600464,1.0538642406463623
1629795405190,1.0048357248306274,1.2586466073989868,1.2602890729904177,1.0538642406463623
1629795405230,1.0048357248306274,1.283902645111084,1.2561147212982178,1.0538642406463623
1629795405329,1.0048357248306274,1.4604483842849731,1.4129470586776731,1.0538642406463623
1629795405410,1.0048357248306274,1.4893649816513062,1.4455771446228027,1.0538642406463623
1629795405579,1.0048357248306274,1.5053540468215942,1.45015287399292,1.0538642406463623
1629795405679,1.0048357248306274,1.5070656538009644,1.4628589153289795,1.0538642406463623
1629795405699,1.0048357248306274,1.4811891317367554,1.43619966506958,1.0538642406463623
1629795405900,1.0048357248306274,1.4954631328582764,1.448017954826355,1.0538642406463623
1629795406118,1.0048357248306274,1.46177339553833,1.415943622589111,1.0538642406463623
1629795406159,1.0048357248306274,1.2845540046691897,1.233668327331543,1.0538642406463623
1629795406179,1.0048357248306274,1.2640942335128784,1.2066079378128052,1.0538642406463623
1629795406239,1.0048357248306274,1.264800786972046,1.2236037254333496,1.0538642406463623
1629795406279,1.0048357248306274,1.2657232284545898,1.224281907081604,1.0538642406463623
1629795406589,1.0048357248306274,1.3386300802230835,1.2695631980895996,1.0538642406463623
1629795406604,1.0048357248306274,1.2936551570892334,1.2500290870666504,1.0538642406463623
1629795406619,1.0048357248306274,1.3203368186950684,1.2683805227279663,1.0538642406463623
1629795406919,1.0048357248306274,1.2934436798095703,1.244287610054016,1.0538642406463623
1629795407070,1.0048357248306274,0.9302456974983216,0.932651937007904,1.0538642406463623
1629795407109,1.0048357248306274,0.9674437046051024,0.8495674729347229,1.0538642406463623
1629795407119,1.0048357248306274,0.9443901181221008,0.8651471734046936,1.0538642406463623
1629795407209,1.0048357248306274,1.0126198530197144,0.7965213060379028,1.0538642406463623
1629795407229,1.0048357248306274,1.0084445476531982,0.7963443398475647,1.0538642406463623
1629795407249,1.0048357248306274,1.039112567901611,0.7420526146888733,1.0538642406463623
1629795407309,1.0048357248306274,1.1016863584518433,0.7422860264778137,1.0538642406463623
1629795407349,1.0048357248306274,1.0658661127090454,0.7441737055778503,1.0538642406463623
1629795407359,1.0048357248306274,1.0757266283035278,0.7429819107055664,1.0538642406463623
1629795407439,1.0048357248306274,1.0656791925430298,0.6944521069526672,1.0538642406463623
1629795407499,1.0048357248306274,1.0650447607040403,0.6956682801246643,1.0538642406463623
1629795407559,1.0048357248306274,1.0238465070724487,0.5982255339622498,1.0538642406463623
1629795407639,1.0048357248306274,0.8976051807403564,0.4986743927001953,1.0538642406463623
1629795407719,1.0048357248306274,0.9020325541496276,0.3994494676589966,1.0538642406463623
1629795407819,1.0048357248306274,1.129618763923645,0.3948091268539428,1.0538642406463623
1629795407899,1.0048357248306274,1.1540865898132324,0.5527087450027466,1.0538642406463623
1629795408079,1.0048357248306274,1.1305471658706665,0.4448748826980591,1.0538642406463623
1629795408309,1.0048357248306274,1.0974847078323364,0.4406960606575012,1.0538642406463623
1629795408369,1.0048357248306274,1.0578563213348389,0.437852531671524,1.0538642406463623
1629795408449,1.0048357248306274,1.0588059425354004,0.4359687268733978,1.0538642406463623
1629795408699,1.0048357248306274,0.9816202521324158,0.3874488770961761,1.0538642406463623
1629795408900,1.0048357248306274,0.8965439200401306,0.3872561156749725,1.0538642406463623
1629795409026,1.0048357248306274,0.8970656991004944,0.3885672390460968,1.0538642406463623
1629795409232,1.0048357248306274,0.8976479768753052,0.3911108076572418,1.0538642406463623
1629795409349,1.0048357248306274,0.8990389108657837,0.3939608335494995,1.0538642406463623
1629795409389,1.0048357248306274,0.9015188217163086,0.3964965641498565,1.0538642406463623
1629795409552,1.0048357248306274,0.9566973447799684,0.5479084253311157,1.0538642406463623
1629795409649,1.0048357248306274,0.9585212469100952,0.5496091246604919,1.0538642406463623
1629795409689,1.0048357248306274,0.9533321857452391,0.5382900834083557,1.0538642406463623
1629795409769,1.0048357248306274,0.5401849746704102,0.5390009880065918,1.0538642406463623
1629795409909,1.0048357248306274,0.428252100944519,0.3684071898460388,1.0538642406463623
1629795410139,1.0048357248306274,0.4264720976352691,0.3675938248634338,1.0538642406463623
1629795410219,1.0048357248306274,0.4237620830535888,0.3679941296577453,1.0538642406463623
1629795410239,1.0048357248306274,0.4181576073169708,0.4797426462173462,1.0538642406463623
1629795410239,1.0048357248306274,0.4208377003669739,0.3707442283630371,1.0538642406463623
1629795410434,1.0048357248306274,0.415334552526474,0.4839899241924286,1.0538642406463623
1629795410664,1.0048357248306274,0.5313945412635803,0.6460486650466919,1.0538642406463623
1629795410689,1.0048357248306274,0.8197507858276367,0.8841838240623474,1.0538642406463623
1629795410699,1.0048357248306274,0.7491269111633301,0.8234204053878784,1.0538642406463623
1629795410764,1.0048357248306274,0.818669855594635,0.8822223544120789,1.0538642406463623
1629795410909,1.0048357248306274,0.8166952133178711,0.8795618414878845,1.0538642406463623
1629795411200,1.0048357248306274,0.7392967939376831,0.8133038878440857,1.0538642406463623
1629795411329,1.0048357248306274,0.7360021471977234,0.8108433485031128,1.0538642406463623
1629795411330,1.0048357248306274,0.7428581714630127,0.7646469473838806,1.0538642406463623
1629795411349,1.0048357248306274,0.7414880990982056,0.7643595933914185,1.0538642406463623
1629795411409,1.0048357248306274,0.7404037714004517,0.7655096650123596,1.0538642406463623
1629795411449,1.0048357248306274,0.8754210472106934,0.8937435746192932,1.0538642406463623
1629795411704,1.0048357248306274,0.89060378074646,0.9095281958580016,1.0538642406463623
1629795411789,1.0048357248306274,0.9270853996276855,0.9503532648086548,1.0538642406463623
1629795411809,1.0048357248306274,0.9280778169631958,0.9710032939910888,1.0538642406463623
1629795411849,1.0048357248306274,0.9296738505363464,0.9698772430419922,1.0538642406463623
1629795411889,1.0048357248306274,0.8875669836997986,0.900756299495697,1.0538642406463623
1629795411949,1.0048357248306274,0.7410942316055298,0.7574082612991333,1.0538642406463623
1629795412139,1.0048357248306274,0.6793021559715271,0.6963440775871277,1.0538642406463623
1629795412179,1.0048357248306274,0.6808000206947327,0.6961718201637268,1.0538642406463623
1629795412209,1.0048357248306274,0.6831369400024414,0.6971051096916199,1.0538642406463623
1629795412419,1.0048357248306274,0.7679181098937988,0.6990007162094116,1.0538642406463623
1629795412439,1.0048357248306274,0.7699106931686401,0.7011503577232361,1.0538642406463623
1629795412534,1.0048357248306274,0.7671903371810913,0.7687005996704102,1.0538642406463623
1629795412619,1.0048357248306274,0.7678544521331787,0.7908403277397156,1.0538642406463623
1629795412696,1.0048357248306274,0.7687434554100037,0.7939727306365967,1.0538642406463623
1629795412759,1.0048357248306274,0.5893808603286743,0.6342569589614868,1.0538642406463623
1629795412814,1.0048357248306274,0.5643574595451355,0.613483190536499,1.0538642406463623
1629795412879,1.0048357248306274,0.5866557955741882,0.6506685018539429,1.0538642406463623
1629795412989,1.0048357248306274,0.5912700891494751,0.5338225960731506,1.0538642406463623
1629795413279,1.0048357248306274,0.5915685296058655,0.535898745059967,1.0538642406463623
1629795413434,0.3531261086463928,0.5893245339393616,0.5351701974868774,1.0538642406463623
1629795413629,0.3481447696685791,0.5874654650688171,0.5333762764930725,1.0538642406463623
1629795413744,0.3462664484977722,0.556729257106781,0.4959276914596557,1.0538642406463623
1629795413770,0.340167373418808,0.5567143559455872,0.495875209569931,0.759407639503479
1629795413995,0.3289985060691833,0.5557316541671753,0.4969810545444488,0.7551329731941223
1629795414160,0.4078736901283264,0.4524637460708618,0.5356075763702393,0.7551329731941223
1629795414213,0.4078736901283264,0.449116975069046,0.5394906997680664,0.7551329731941223
1629795414276,0.4078736901283264,0.5086653828620911,0.5796774625778198,0.7551329731941223
1629795414445,0.4078736901283264,0.5057335495948792,0.5504807233810425,0.7551329731941223
1629795414746,0.4015504419803619,0.501096248626709,0.5493517518043518,0.7551329731941223
1629795414831,0.649079442024231,0.4932743608951568,0.5425950288772583,0.7551329731941223
1629795414978,0.8265792727470398,0.4826489090919494,0.5328314900398254,0.7551329731941223
1629795414997,0.9014390110969543,0.3341602683067322,0.3499007821083069,0.7551329731941223
1629795415194,0.932566225528717,0.3235687911510467,0.3432422578334808,0.7551329731941223
1629795415316,0.932566225528717,0.318187952041626,0.343080997467041,0.7551329731941223
1629795415363,0.967681348323822,0.6561689376831055,0.5974961519241333,0.7301485538482666
1629795415379,1.007637619972229,0.7120949625968933,0.6622255444526672,0.7301485538482666
1629795415448,1.0538896322250366,0.7766158580780029,0.6907439827919006,0.7301485538482666
1629795415595,1.1097190380096436,0.8322245478630066,0.6927902102470398,0.7301485538482666
1629795415664,1.1789822578430176,0.878259539604187,0.756101667881012,0.7301485538482666
1629795415733,1.2402037382125854,0.8641706109046936,0.7339786887168884,0.7301485538482666
1629795415795,1.2402037382125854,0.8653424382209778,0.7318288683891296,0.7301485538482666
1629795415833,1.2402037382125854,0.8362893462181091,0.6895686984062195,0.7301485538482666
1629795415896,1.2402037382125854,0.8530091643333435,0.6870365142822266,0.7301485538482666
1629795415918,1.2402037382125854,0.9878675937652588,0.6865315437316895,0.7301485538482666
1629795415933,1.2402037382125854,0.9890087246894836,0.6879384517669678,0.7301485538482666
1629795415980,1.2402037382125854,1.034989595413208,0.8323003053665161,0.7301485538482666
1629795416018,1.2402037382125854,1.101741909980774,0.8332675099372864,0.7301485538482666
1629795416018,1.2402037382125854,1.0788819789886477,0.8331784009933472,0.7301485538482666
1629795416133,1.2402037382125854,1.1012852191925049,0.832730770111084,0.7301485538482666
1629795416180,1.2402037382125854,1.0067651271820068,0.7036323547363281,0.7301485538482666
1629795416218,1.2402037382125854,0.9794682860374452,0.6461194157600403,0.7301485538482666
1629795416334,1.2402037382125854,0.941563606262207,0.6156337857246399,0.7301485538482666
1629795416550,1.2402037382125854,0.9582509398460388,0.6153501272201538,0.7301485538482666
1629795416820,1.2402037382125854,0.9575955271720886,0.5292118191719055,0.7301485538482666
1629795416882,1.2402037382125854,0.9587929248809814,0.5342386364936829,0.7301485538482666
1629795416955,1.2402037382125854,0.9893317222595216,0.6124160289764404,0.7301485538482666
1629795416977,1.2402037382125854,0.9601091146469116,0.5394936203956604,0.7301485538482666
1629795417021,1.2402037382125854,0.9476557970046996,0.5386689901351929,0.7301485538482666
1629795417114,0.7100714445114136,0.7976989150047302,0.5361520051956177,0.7301485538482666
1629795417164,0.6545168161392212,0.7966465353965759,0.5346301198005676,0.7301485538482666
1629795417469,0.6211538910865784,0.714942455291748,0.1862521469593048,0.7301485538482666
1629795417523,0.605679988861084,0.6078838109970093,0.1941245347261428,0.8361889719963074
1629795417859,0.5977917909622192,0.5353744626045227,0.201274037361145,0.8359975218772888
1629795417957,0.5890604257583618,0.5408974885940552,0.2049154490232467,0.86518394947052
1629795418095,0.5771251320838928,0.5460877418518066,0.207319900393486,0.9077835083007812
1629795418195,0.5663767457008362,0.548146665096283,0.2122417390346527,0.9436206221580504
1629795418273,0.5606151819229126,0.5453777313232422,0.2190580368041992,0.9639854431152344
1629795418327,0.5589519143104553,0.3692846000194549,0.2241208404302597,0.9708310961723328
1629795418427,0.6798357367515564,0.4310014843940735,0.4472491443157196,0.9700730443000792
1629795418458,0.6697465181350708,0.4206023216247558,0.4457510411739349,0.9700730443000792
1629795418543,0.6045297384262085,0.2908588051795959,0.331551730632782,0.9700730443000792
1629795418643,0.6116906404495239,0.2901738584041595,0.3314918875694275,0.9700730443000792
1629795418876,0.6250888109207153,0.2951665222644806,0.3328877985477447,0.9700730443000792
1629795419163,0.6429663896560669,0.3021755516529083,0.3344534039497375,0.9692440629005432
1629795419195,0.6599522233009338,0.3073343634605407,0.3350328803062439,0.9810861945152284
1629795419304,0.6706464886665344,0.3082431554794311,0.3336360454559326,1.003732442855835
1629795419523,0.6736445426940918,0.4418372809886932,0.3313111960887909,1.0313725471496582
1629795419616,0.6715579032897949,0.4364758133888244,0.3301475048065185,1.0569113492965698
1629795419757,0.6944014430046082,0.4717912673950195,0.3822942078113556,1.069572925567627
1629795419944,0.6935321092605591,0.5606986880302429,0.3828238844871521,1.061327576637268
1629795419991,0.6977635025978088,0.5599567890167236,0.3807813823223114,1.061327576637268
1629795420101,0.7100135087966919,0.5612468719482422,0.375867635011673,1.061327576637268
1629795420210,0.720019519329071,0.6469503045082092,0.4926185607910156,1.061327576637268
1629795420231,0.615058183670044,0.8034140467643738,0.291856974363327,1.061327576637268
1629795420244,0.6236229538917542,0.803954541683197,0.2873066961765289,1.061327576637268
1629795420275,0.6328793168067932,0.8554837703704834,0.4372317492961883,1.061327576637268
1629795420322,0.6376227736473083,0.9168633222579956,0.4357354640960693,1.061327576637268
1629795420338,0.6299031972885132,1.0246959924697876,0.5814841985702515,1.061327576637268
1629795420338,0.6359935402870178,1.0268774032592771,0.5798516869544983,1.061327576637268
1629795420385,0.6238303184509277,1.0549812316894531,0.5829168558120728,1.061327576637268
1629795420400,0.6235804557800293,1.0537253618240356,0.5827274918556213,1.061327576637268
1629795420603,0.6642487049102783,1.0781306028366089,0.6540700793266296,1.061327576637268
1629795420603,0.6350176930427551,1.023121953010559,0.5805507898330688,1.061327576637268
1629795420650,0.6642487049102783,1.068466305732727,0.7209421992301941,1.061327576637268
1629795420759,0.6642487049102783,1.042101502418518,0.7202214002609253,1.061327576637268
1629795420822,0.6642487049102783,1.0739078521728516,0.7813021540641785,1.061327576637268
1629795421119,0.6642487049102783,1.137994647026062,0.7823304533958435,1.061327576637268
1629795421212,0.6642487049102783,1.1135250329971311,0.7252165079116821,1.061327576637268
1629795421309,0.6642487049102783,0.9995744824409484,0.7270323038101196,1.061327576637268
1629795421371,0.3088407218456268,1.0009106397628784,0.7290421724319458,1.061327576637268
1629795421512,0.3319925665855407,0.9653891921043396,0.6595118641853333,1.061327576637268
1629795421559,0.3552491962909698,0.9105566740036012,0.6601801514625549,1.061327576637268
1629795421793,0.3727679848670959,0.7587726712226868,0.5421545505523682,0.917450487613678
1629795421824,0.3829947412014007,0.7609440684318542,0.5369683504104614,0.8963174819946289
1629795421965,0.3873273730278015,0.6972465515136719,0.5307134389877319,0.8567532300949097
1629795422121,0.3857684135437011,0.6988412141799927,0.5258744955062866,0.8153783082962036
1629795422246,0.3800695538520813,0.7003246545791626,0.5238389372825623,0.7838035821914673
1629795422311,0.3740527927875519,0.5564907789230347,0.4171405434608459,0.7666565179824829
1629795422561,0.3715894520282745,0.5581810474395752,0.1981077343225479,0.7611905932426453
1629795422811,0.3723968267440796,0.5591984391212463,0.1999263167381286,0.7606955766677856
1629795422811,0.3747336864471435,0.446467250585556,-0.092036098241806,0.7603086233139038
1629795422905,0.3800029158592224,-0.039788294583559,-0.0792127326130867,0.7572293877601624
1629795422951,0.3860326111316681,0.226316288113594,0.2200488001108169,0.7572293877601624
1629795422967,0.3927094936370849,0.2215081602334976,0.2300822734832763,0.7572293877601624
1629795423297,0.3964414894580841,0.2844980657100677,0.3013772368431091,0.7563956379890442
1629795423423,0.4471994042396545,0.2859578132629394,0.3092068135738373,0.7383626103401184
1629795423548,0.4464030861854553,0.2896521389484405,0.3197754621505737,0.7018968462944031
1629795423719,0.4444764852523803,0.2941692769527435,0.3347372114658355,0.6612410545349121
1629795423735,0.444022536277771,0.2992791533470154,0.3529473841190338,0.6403622031211853
1629795423751,0.4468734860420227,0.425672709941864,0.483739823102951,0.6489041447639465
1629795424001,0.456650048494339,0.526841402053833,0.4962515532970428,0.6777969002723694
1629795424032,0.4759320914745331,0.530606210231781,0.5073075890541077,0.7110083103179932
1629795424063,0.5037275552749634,0.6224769353866577,0.6105120778083801,0.7352389693260193
1629795424141,0.5364150404930115,0.7204357981681824,0.6183870434761047,0.7352389693260193
1629795424173,0.5364150404930115,0.7803345918655396,0.7264267206192017,0.7352389693260193
1629795424266,0.5364150404930115,0.7783234715461731,0.7300712466239929,0.7352389693260193
1629795424579,0.5364150404930115,0.8193522095680237,0.7519025802612305,0.7352389693260193
1629795424626,0.5364150404930115,0.7624130845069885,0.6853453516960144,0.7352389693260193
1629795424797,0.9305443167686462,0.7615094184875488,0.6822109222412109,0.7352389693260193
1629795424907,0.8871053457260132,0.7403122186660767,0.6523151993751526,0.7352389693260193
1629795424969,1.0197714567184448,0.8221712112426758,0.6461184024810791,0.7352389693260193
1629795424985,1.0197714567184448,0.9206226468086244,0.69936203956604,0.7352389693260193
1629795425016,1.0197714567184448,0.9511919021606444,0.9300442934036256,0.7352389693260193
1629795425063,1.0197714567184448,0.980484127998352,0.9580287933349608,0.7352389693260193
1629795425094,1.0197714567184448,1.0007754564285278,0.974452555179596,0.7352389693260193
1629795425110,1.0197714567184448,0.9714125990867616,0.970735728740692,0.7352389693260193
1629795425394,1.0197714567184448,1.007141351699829,1.0035005807876587,0.7352389693260193
1629795425409,1.0197714567184448,0.9730697274208068,0.9643443822860718,0.7352389693260193
1629795425659,1.0197714567184448,0.9219786524772644,0.9609883427619934,0.7352389693260193
1629795425706,1.0197714567184448,0.879742443561554,0.901938796043396,0.7352389693260193
1629795425893,1.0197714567184448,0.9547841548919678,0.8998811841011047,0.7352389693260193
1629795425972,0.9795712232589722,0.9239272475242616,1.0047489404678345,0.7352389693260193
1629795426097,0.9795712232589722,0.9782626628875732,1.051273226737976,0.7352389693260193
1629795426143,0.9795712232589722,1.006927728652954,1.0752744674682615,0.7352389693260193
1629795426271,0.9795712232589722,1.0188764333724976,1.0876141786575315,0.7352389693260193
1629795426474,0.9795712232589722,1.028256893157959,1.0895439386367798,0.7352389693260193
1629795426505,0.9795712232589722,0.9538928270339966,1.0677614212036133,0.7352389693260193
1629795426583,0.9795712232589722,0.923418402671814,0.9107808470726012,0.7352389693260193
1629795426927,0.9795712232589722,0.8892014026641846,0.8767257928848267,0.7352389693260193
1629795427021,0.9795712232589722,0.8216657042503357,0.8088933229446411,0.7352389693260193
1629795427083,0.9795712232589722,0.8374260663986206,0.8306570053100586,0.7352389693260193
1629795427130,1.1701809167861938,0.7830058932304382,0.783558189868927,0.7352389693260193
1629795427161,1.1528220176696775,0.7819852232933044,0.795047402381897,0.7352389693260193
1629795427570,1.1528220176696775,0.9010410904884338,0.8681744933128357,0.7352389693260193
1629795427648,1.1528220176696775,0.9005517363548279,0.8741454482078552,0.7352389693260193
1629795427664,1.1528220176696775,0.9441386461257936,0.91301292181015,0.7352389693260193
1629795427680,1.1528220176696775,0.9442576169967652,0.7586237192153931,0.7352389693260193
1629795427726,1.1528220176696775,0.8852273225784302,0.6602941155433655,0.7352389693260193
1629795428104,1.1528220176696775,0.8461664915084839,0.5947534441947937,0.7352389693260193
1629795428213,1.1528220176696775,0.8880809545516968,0.6665342450141907,0.7352389693260193
1629795428229,1.1528220176696775,0.9430639743804932,0.8530572652816772,0.7352389693260193
1629795428244,1.1528220176696775,1.194048523902893,0.8568438291549683,0.7352389693260193
1629795428432,1.1528220176696775,1.192684769630432,0.8620086908340454,0.7352389693260193
1629795428463,1.1686515808105469,1.191561222076416,0.8667237162590027,0.7352389693260193
1629795428619,1.1686515808105469,1.3373353481292725,0.8693588376045227,0.7352389693260193
1629795428776,1.1686515808105469,1.3699110746383667,0.9105307459831238,0.7352389693260193
1629795428791,1.1686515808105469,1.41504168510437,0.9067245721817015,0.7352389693260193
1629795428807,1.1686515808105469,1.5823029279708862,0.9004448056221008,0.7352389693260193
1629795428885,1.1686515808105469,1.5890754461288452,0.8348454833030701,0.7352389693260193
1629795429028,1.1686515808105469,1.6205532550811768,0.9832638502120972,0.7352389693260193
1629795429137,1.1686515808105469,1.6266705989837646,1.0251959562301636,0.7352389693260193
1629795429184,1.1686515808105469,1.639634609222412,1.0670071840286257,0.7352389693260193
1629795429293,1.1686515808105469,1.6391185522079468,1.0679186582565308,0.7352389693260193
1629795429340,1.1686515808105469,1.63872230052948,1.069164156913757,0.7352389693260193
1629795429512,1.1686515808105469,1.6257330179214478,1.0303906202316284,0.7352389693260193
1629795429715,1.1686515808105469,1.6304097175598145,0.9494842290878296,0.7352389693260193
1629795429762,1.1686515808105469,1.5629273653030396,1.0164164304733276,0.7352389693260193
1629795429793,1.1686515808105469,1.6082912683486938,1.0137858390808103,0.7352389693260193
1629795429824,1.1686515808105469,1.628393530845642,1.0118787288665771,0.7352389693260193
1629795429856,1.1686515808105469,1.5070456266403198,1.0112028121948242,0.7352389693260193
1629795429965,1.1686515808105469,1.4762037992477417,0.9964939951896667,0.7352389693260193
1629795429965,1.1686515808105469,1.4276142120361328,1.031704068183899,0.7352389693260193
1629795429981,1.1686515808105469,0.9647846817970276,1.095378279685974,0.7352389693260193
1629795430029,1.1686515808105469,1.1262738704681396,1.1294609308242798,0.7352389693260193
1629795430358,1.1686515808105469,1.0885272026062012,1.0255284309387207,0.7352389693260193
1629795430778,1.1686515808105469,1.0540399551391602,0.9510167241096495,0.7352389693260193
1629795430997,1.1686515808105469,1.01567804813385,0.9096081852912904,0.7352389693260193
1629795431028,1.1686515808105469,1.0501998662948608,0.9416841268539428,0.7352389693260193
1629795431311,1.1686515808105469,1.0512129068374634,0.9411571621894836,0.7352389693260193
1629795431327,1.1686515808105469,1.1006150245666504,0.9905384182929992,0.7352389693260193
1629795431389,1.1686515808105469,1.0990780591964722,0.9608823657035828,0.7352389693260193
1629795431498,1.1686515808105469,1.248399257659912,1.0205601453781128,0.7352389693260193
1629795431498,1.1686515808105469,1.121550679206848,0.9237988591194152,0.7352389693260193
1629795431514,1.1686515808105469,1.500421166419983,1.2698886394500732,0.7352389693260193
1629795431530,1.1686515808105469,1.5155781507492063,1.269196629524231,0.7352389693260193
1629795431780,1.1686515808105469,1.5066856145858765,1.2529046535491943,0.7352389693260193
1629795432014,1.1686515808105469,1.4970355033874512,1.2317023277282717,0.7352389693260193
1629795432264,1.1686515808105469,1.47227680683136,1.1854171752929688,0.7352389693260193
1629795432498,1.1686515808105469,1.4245007038116455,1.209621548652649,0.7352389693260193
1629795432529,1.1686515808105469,1.4555867910385132,1.2101463079452517,0.7352389693260193
1629795432639,1.1686515808105469,1.4554767608642578,1.2114413976669312,0.7352389693260193
1629795432654,1.1686515808105469,1.4807204008102417,1.4148969650268557,0.7352389693260193
1629795432670,1.1686515808105469,1.502068042755127,1.4327187538146973,0.7352389693260193
1629795432858,1.1686515808105469,1.5362406969070437,1.463233232498169,0.7352389693260193
1629795432889,1.1686515808105469,1.5275473594665527,1.443679690361023,0.7352389693260193
1629795432904,1.1686515808105469,1.5528995990753174,1.4427886009216309,0.7352389693260193
1629795432920,1.1686515808105469,1.5679086446762085,1.4284372329711914,0.7352389693260193
1629795432920,1.1686515808105469,1.5134587287902832,1.5025718212127686,0.7352389693260193
1629795432936,1.1686515808105469,1.04373037815094,1.3831126689910889,0.7352389693260193
1629795432982,1.1686515808105469,1.0110812187194824,1.4191083908081057,0.7352389693260193
1629795433029,1.1686515808105469,1.1312901973724363,1.4198613166809082,0.7352389693260193
1629795433029,1.1686515808105469,1.066256046295166,1.4195400476455688,0.7352389693260193
1629795433045,1.1686515808105469,1.2090517282485962,1.420141100883484,0.7352389693260193
1629795433092,1.1686515808105469,1.2649927139282229,1.399307131767273,0.7352389693260193
1629795433469,1.1686515808105469,1.6170281171798706,1.398457169532776,0.7352389693260193
1629795433563,1.1686515808105469,1.6768718957901,1.3971883058547974,0.7352389693260193
1629795433594,1.1686515808105469,1.6062551736831665,1.054816961288452,0.7352389693260193
1629795433751,1.1686515808105469,1.9887505769729612,1.1010348796844482,0.7352389693260193
1629795434000,1.1686515808105469,1.9887505769729612,1.071508526802063,0.7352389693260193
1629795434032,1.1686515808105469,2.0616886615753174,1.240631341934204,0.7352389693260193
1629795434032,1.1686515808105469,2.050215244293213,1.1533282995224,0.7352389693260193
1629795434047,1.1686515808105469,2.00754976272583,1.2612870931625366,0.7352389693260193
1629795434204,1.1686515808105469,1.950256824493408,1.0368186235427856,0.7352389693260193
1629795434297,1.1686515808105469,1.8997089862823489,1.0093539953231812,0.7352389693260193
1629795434719,1.1686515808105469,1.829099416732788,1.0304497480392456,0.7352389693260193
1629795434719,1.1686515808105469,1.870016932487488,1.031606674194336,0.7352389693260193
1629795434766,1.1686515808105469,1.7918182611465454,1.0297884941101074,0.7352389693260193
1629795434875,1.1686515808105469,1.7575533390045166,1.0292766094207764,0.7352389693260193
1629795435328,1.1686515808105469,1.7488294839859009,0.9855454564094543,0.7352389693260193
1629795435406,1.1686515808105469,1.6778379678726196,1.08368980884552,0.7352389693260193
1629795435422,1.1686515808105469,1.738772988319397,1.1170566082000732,0.7352389693260193
1629795435422,1.1686515808105469,1.707124948501587,1.082194685935974,0.7352389693260193
1629795435438,1.1686515808105469,1.2966995239257812,1.24677836894989,0.7352389693260193
1629795435609,1.1686515808105469,1.2966995239257812,1.2445878982543943,0.7352389693260193
1629795435750,1.1686515808105469,1.2966995239257812,1.206695795059204,0.7352389693260193
1629795435954,1.1686515808105469,1.2040812969207764,1.149773359298706,0.7352389693260193
1629795436002,1.1686515808105469,1.5113821029663086,1.2411409616470337,0.7352389693260193
1629795436002,1.1686515808105469,1.237584114074707,1.1585241556167605,0.7352389693260193
1629795436018,1.1686515808105469,1.5111984014511108,1.2396286725997925,0.7352389693260193
1629795436033,1.1686515808105469,1.5185325145721436,1.230817198753357,0.7352389693260193
1629795436221,1.1686515808105469,1.563220739364624,1.2308157682418823,0.7352389693260193
1629795436236,1.1686515808105469,1.6132270097732544,1.2732893228530884,0.7352389693260193
1629795436283,1.1686515808105469,1.6348133087158203,1.2735884189605713,0.7352389693260193
1629795436377,1.1686515808105469,1.6347525119781494,1.2741113901138306,0.7352389693260193
1629795436424,1.1686515808105469,1.6042640209197998,1.2132861614227295,0.7352389693260193
1629795436533,1.1686515808105469,1.5474787950515747,1.2486929893493652,0.7352389693260193
1629795436986,1.1686515808105469,1.5474787950515747,1.3080816268920898,0.7352389693260193
1629795437002,1.1686515808105469,1.5474787950515747,1.1663155555725098,0.7352389693260193
1629795437017,1.1686515808105469,1.5054550170898438,1.1464217901229858,0.7352389693260193
1629795437017,1.1686515808105469,1.5104610919952393,1.1665648221969604,0.7352389693260193
1629795437096,1.1686515808105469,1.5054917335510254,1.1208122968673706,0.7352389693260193
1629795437127,1.1686515808105469,1.4659098386764526,1.106441617012024,0.7352389693260193
1629795437142,1.1686515808105469,1.2234026193618774,1.1251094341278076,0.7352389693260193
1629795437314,1.1686515808105469,1.2572029829025269,1.1525033712387085,0.7352389693260193
1629795437502,1.1686515808105469,1.2673567533493042,1.1274642944335938,0.7352389693260193
1629795437642,1.1686515808105469,1.228073239326477,1.1267262697219849,0.7352389693260193
1629795437986,1.1686515808105469,1.1917723417282104,1.06440532207489,0.7352389693260193
1629795438207,1.1686515808105469,1.1499745845794678,1.0623708963394165,0.7352389693260193
1629795438410,1.1686515808105469,1.1493531465530396,1.060674071311951,0.7352389693260193
1629795438457,1.1686515808105469,1.144922971725464,1.0595965385437012,0.7352389693260193
1629795438473,1.1686515808105469,1.1116876602172852,1.0042513608932495,0.7352389693260193
1629795438504,1.1686515808105469,1.1645292043685913,0.9918293952941896,0.7352389693260193
1629795438551,1.1686515808105469,1.169723391532898,1.013556718826294,0.7352389693260193
1629795438613,1.1686515808105469,1.2173010110855105,1.0486208200454712,0.7352389693260193
1629795438629,1.1686515808105469,1.35932195186615,1.3304928541183472,0.7352389693260193
1629795438629,1.1686515808105469,1.3460617065429688,1.1177809238433838,0.7352389693260193
1629795438645,1.1686515808105469,1.378140568733215,1.340446710586548,0.7352389693260193
1629795438660,1.1686515808105469,1.3272913694381714,1.2607645988464355,0.7352389693260193
1629795438707,1.1686515808105469,1.3963080644607544,1.2723660469055176,0.7352389693260193
1629795438707,1.1686515808105469,1.3423025608062744,1.2581344842910769,0.7352389693260193
1629795438754,1.1686515808105469,1.3952324390411377,1.27183997631073,0.7352389693260193
1629795438941,1.1686515808105469,1.3949438333511353,1.2721043825149536,0.7352389693260193
1629795439162,1.1686515808105469,1.4356049299240112,1.2729268074035645,0.7352389693260193
1629795439194,1.1686515808105469,1.4806691408157349,1.3022141456604004,0.7352389693260193
1629795439287,1.1686515808105469,1.5145236253738403,1.333467960357666,0.7352389693260193
1629795439303,1.1686515808105469,1.5715348720550537,1.3670623302459717,0.7352389693260193
1629795439756,1.1686515808105469,1.5733299255371094,1.299708604812622,0.7352389693260193
1629795439803,1.1686515808105469,1.540499210357666,1.269080638885498,0.7352389693260193
1629795439912,1.1686515808105469,1.5060501098632812,1.2440837621688845,0.7352389693260193
1629795440586,1.1686515808105469,1.116740584373474,1.1810144186019895,0.7352389693260193
1629795440789,1.1686515808105469,1.112423062324524,0.6849073767662048,0.7352389693260193
1629795440805,1.1686515808105469,1.2349838018417358,0.7426173090934753,0.7352389693260193
1629795440930,0.9063434600830078,1.186113357543945,0.7440516352653503,0.7352389693260193
1629795441039,0.8427088260650635,1.1426949501037598,0.665816068649292,0.7352389693260193
1629795441101,0.8025701642036438,0.9301167726516724,0.589402973651886,0.7352389693260193
1629795441226,0.8025701642036438,1.0049933195114136,0.5973466634750366,0.7352389693260193
1629795441351,0.8025701642036438,1.2884600162506104,0.6956130862236023,0.7352389693260193
1629795441398,0.8025701642036438,1.2884600162506104,0.7617607116699219,0.7352389693260193
1629795441414,0.8025701642036438,1.2884600162506104,0.978758692741394,0.7352389693260193
1629795441429,0.8025701642036438,1.2884600162506104,0.9491493105888368,0.7352389693260193
1629795441445,0.8025701642036438,1.2884600162506104,1.0698097944259644,0.7352389693260193
1629795441476,0.8025701642036438,1.2884600162506104,1.0819250345230105,0.7352389693260193
1629795441492,0.8025701642036438,1.340625524520874,1.0784279108047483,0.7352389693260193
1629795441492,0.8025701642036438,1.332231521606445,1.0798109769821167,0.7352389693260193
1629795441523,0.8600366711616516,1.3395004272460938,1.0778671503067017,0.7352389693260193
1629795441726,0.9373000264167786,1.362892746925354,1.0780644416809082,0.7352389693260193
1629795441851,0.9373000264167786,1.2939893007278442,1.0129777193069458,0.7352389693260193
1629795442039,0.9373000264167786,1.358647346496582,1.0403831005096436,0.7352389693260193
1629795442101,0.9373000264167786,1.435457468032837,1.069615602493286,0.7352389693260193
1629795442291,0.9373000264167786,1.5303497314453125,1.1009764671325684,0.7352389693260193
1629795442588,0.9373000264167786,1.5303497314453125,1.1129719018936155,0.7352389693260193
1629795442651,0.9373000264167786,1.5303497314453125,1.0790680646896362,0.7352389693260193
1629795442729,0.9373000264167786,1.1615773439407349,1.0479567050933838,0.7352389693260193
1629795442901,0.9373000264167786,1.1697449684143066,0.8244765996932983,0.7352389693260193
1629795442916,0.9373000264167786,1.276982069015503,0.9238574504852296,0.7352389693260193
1629795442947,0.9373000264167786,1.6276404857635498,1.103958010673523,0.7352389693260193
1629795443150,0.9373000264167786,1.5843333005905151,1.0881794691085815,0.7352389693260193
1629795443166,0.9373000264167786,1.6254806518554688,1.1867923736572266,0.7352389693260193
1629795443622,0.9373000264167786,1.5954211950302124,1.1874639987945557,0.7352389693260193
1629795443715,0.9373000264167786,1.613993525505066,1.187148928642273,0.7352389693260193
1629795443778,0.9373000264167786,1.6123425960540771,1.2122666835784912,0.7352389693260193
1629795443793,0.9373000264167786,1.5711889266967771,1.211168646812439,0.7352389693260193
1629795444061,0.9373000264167786,1.5380192995071411,1.1873468160629272,0.7352389693260193
1629795444218,0.9373000264167786,1.622151017189026,1.3391433954238892,0.7352389693260193
1629795444280,0.9373000264167786,1.6985023021697998,1.3391433954238892,0.7352389693260193
1629795444296,0.9373000264167786,1.6985023021697998,1.3634428977966309,0.7352389693260193
1629795444311,0.9373000264167786,1.7240931987762451,1.3879305124282837,0.7352389693260193
1629795444327,0.9373000264167786,1.7449498176574707,1.4057376384735107,0.7352389693260193
1629795444358,0.9373000264167786,1.847618818283081,1.4065743684768677,0.7352389693260193
1629795444358,0.9373000264167786,1.8631609678268437,1.3936054706573486,0.7352389693260193
1629795444405,0.9373000264167786,1.7988524436950684,1.2269554138183594,0.7352389693260193
1629795444530,0.9373000264167786,1.833789348602295,1.2071901559829712,0.7352389693260193
1629795444561,0.9373000264167786,1.984474539756775,1.162516474723816,0.7352389693260193
1629795444702,0.9373000264167786,2.030064582824707,1.184101104736328,0.7352389693260193
1629795444780,0.9373000264167786,2.074172258377075,1.248649001121521,0.7352389693260193
1629795444796,0.9373000264167786,2.061594009399414,1.2277133464813232,0.7352389693260193
1629795444811,0.9373000264167786,2.2334794998168945,1.2792563438415527,0.7352389693260193
1629795444874,0.9373000264167786,2.3134143352508545,1.0772238969802856,0.7352389693260193
1629795444874,0.9373000264167786,2.2900798320770264,1.3005555868148804,0.7352389693260193
1629795444889,0.9373000264167786,2.2634711265563965,1.0809122323989868,0.7352389693260193
1629795444952,0.9373000264167786,2.199924230575561,1.0641582012176514,0.7352389693260193
1629795444983,0.9373000264167786,2.1420466899871826,1.0186339616775513,0.7352389693260193
1629795445108,0.9373000264167786,2.1198501586914062,0.9808194041252136,0.7352389693260193
1629795445170,0.9373000264167786,2.0431501865386963,0.9796197414398192,0.7352389693260193
1629795445561,0.9373000264167786,2.0005927085876465,0.9979579448699952,0.7352389693260193
1629795445717,0.9373000264167786,1.9853535890579224,0.998052716255188,0.7352389693260193
1629795445811,0.9373000264167786,1.9488316774368288,1.0103437900543213,0.7352389693260193
1629795445967,0.9373000264167786,1.7534767389297483,0.9612652063369752,0.7352389693260193
1629795446092,0.9373000264167786,1.7168240547180176,0.930172085762024,0.7352389693260193
1629795446172,0.9373000264167786,1.683238506317139,0.8739499449729919,0.7352389693260193
1629795446188,0.9373000264167786,1.6979334354400637,0.9540136456489564,0.7352389693260193
1629795446204,0.9373000264167786,1.2122225761413574,0.8943078517913818,0.7352389693260193
1629795446485,0.9373000264167786,1.1827049255371094,0.8301188945770264,0.7352389693260193
1629795446516,0.9373000264167786,1.178667426109314,0.8299617767333984,0.7352389693260193
1629795446610,0.9373000264167786,1.139026165008545,0.7728748917579651,0.7352389693260193
1629795446828,0.9373000264167786,1.1544073820114136,0.7504738569259644,0.7352389693260193
1629795446875,0.9373000264167786,1.1549137830734253,0.7489116787910461,0.7352389693260193
1629795446907,0.9373000264167786,1.155599594116211,0.7484742999076843,0.7352389693260193
1629795447078,0.9373000264167786,1.0823979377746582,0.749254047870636,0.7352389693260193
1629795447125,0.9373000264167786,1.1045856475830078,0.6534542441368103,0.7352389693260193
1629795447316,0.9373000264167786,0.9241804480552672,0.6560090184211731,0.7352389693260193
1629795447441,0.9373000264167786,0.944502294063568,0.7249380946159363,0.7352389693260193
1629795447472,0.9373000264167786,1.1810117959976196,0.7269598841667175,0.7352389693260193
1629795447534,0.9373000264167786,1.2024600505828855,0.7276284098625183,0.7352389693260193
1629795447722,0.9373000264167786,1.2005293369293213,0.6291992664337158,0.7352389693260193
1629795447878,0.9373000264167786,1.1542779207229614,0.5236445069313049,0.7352389693260193
1629795447987,0.9373000264167786,1.1672319173812866,0.5779846906661987,0.7352389693260193
1629795448050,0.9373000264167786,1.19656503200531,0.5760128498077393,0.7352389693260193
1629795448222,0.9373000264167786,1.206787347793579,0.5789191722869873,0.7352389693260193
1629795448284,0.9373000264167786,1.2096104621887207,0.5860912203788757,0.7352389693260193
1629795448409,0.9373000264167786,1.1917306184768677,0.6238074898719788,0.7352389693260193
1629795448425,0.9373000264167786,1.2573407888412476,0.6284002065658569,0.7352389693260193
1629795448550,0.9373000264167786,1.2580729722976685,0.6295958757400513,0.7352389693260193
1629795448612,0.9373000264167786,1.2519911527633667,0.628716766834259,0.7352389693260193
1629795448659,0.9373000264167786,1.2279709577560425,0.700332760810852,0.7352389693260193
1629795448753,0.9373000264167786,1.2994935512542725,0.9017349481582642,0.7352389693260193
1629795448956,0.9373000264167786,1.2896549701690674,0.8786236643791199,0.7352389693260193
1629795449112,0.9373000264167786,1.1588441133499146,0.9222955703735352,0.7352389693260193
1629795449143,0.9373000264167786,1.1321134567260742,0.9217552542686462,0.7352389693260193
1629795449302,0.9373000264167786,1.1314572095870972,0.9218903183937072,0.7352389693260193
1629795449458,0.9373000264167786,1.1472724676132202,0.9471502304077148,0.7352389693260193
1629795449567,0.9373000264167786,1.180417537689209,0.8867007493972778,0.7352389693260193
1629795449598,0.9373000264167786,1.148975491523743,0.8847277760505676,0.7352389693260193
1629795449614,0.9373000264167786,1.1109298467636108,0.8813982605934143,0.7352389693260193
1629795449708,0.9373000264167786,1.1857751607894895,1.000722885131836,0.7352389693260193
1629795449739,0.9373000264167786,1.1755677461624146,0.9851311445236206,0.7352389693260193
1629795449801,0.9373000264167786,1.1425460577011108,1.042719841003418,0.7352389693260193
1629795449848,0.9373000264167786,1.1664321422576904,1.0715802907943726,0.7352389693260193
1629795450148,0.9373000264167786,1.1844490766525269,1.0928659439086914,0.7352389693260193
1629795450179,0.9373000264167786,1.1792494058609009,1.0637933015823364,0.7352389693260193
1629795450288,0.9373000264167786,1.1685234308242798,0.933218777179718,0.7352389693260193
1629795450382,0.9373000264167786,1.1798807382583618,0.9529956579208374,0.7352389693260193
1629795450491,0.9373000264167786,1.1391478776931765,0.9098359942436218,0.7352389693260193
1629795450679,0.9373000264167786,1.1600779294967651,0.9411200881004332,0.7352389693260193
1629795450726,0.9373000264167786,1.1873358488082886,0.953950583934784,0.7352389693260193
1629795450773,0.9373000264167786,1.2048585414886477,0.9811787009239196,0.7352389693260193
1629795450944,0.9373000264167786,1.139919638633728,0.9814801216125488,0.7352389693260193
1629795451243,0.9373000264167786,1.1398990154266355,1.025341272354126,0.7352389693260193
1629795451290,0.9373000264167786,1.1728655099868774,1.068222999572754,0.7352389693260193
1629795451493,0.9373000264167786,1.112696409225464,0.9635796546936036,0.7352389693260193
1629795451540,0.9373000264167786,1.11262047290802,0.9627631306648254,0.7352389693260193
1629795451571,0.9373000264167786,1.091760277748108,0.9332956075668336,0.7352389693260193
1629795451634,0.9373000264167786,1.137307047843933,0.952018976211548,0.7352389693260193
1629795451712,0.9373000264167786,1.116793870925903,0.974105417728424,0.7352389693260193
1629795451759,0.9373000264167786,1.1327955722808838,1.0348440408706665,0.7352389693260193
1629795451775,0.9373000264167786,1.037294626235962,1.0354772806167605,0.7352389693260193
1629795451946,0.9373000264167786,1.006085991859436,1.0190186500549316,0.7352389693260193
1629795451993,0.9373000264167786,1.0407346487045288,1.0491749048233032,0.7352389693260193
1629795452040,0.9373000264167786,1.0150254964828491,1.052691102027893,0.7352389693260193
1629795452184,0.9373000264167786,1.022812843322754,1.074982762336731,0.7352389693260193
1629795452293,0.9373000264167786,0.9462593197822572,1.0184943675994873,0.7352389693260193
1629795452387,0.9373000264167786,1.0368648767471311,1.0620684623718262,0.7352389693260193
1629795452418,0.9373000264167786,1.0488312244415283,1.041798710823059,0.7352389693260193
1629795452496,0.9373000264167786,1.0307250022888184,1.0059798955917358,0.7352389693260193
1629795452543,0.9373000264167786,1.0741900205612185,1.0708134174346924,0.7352389693260193
1629795452653,0.9373000264167786,1.0744163990020752,1.1473506689071655,0.7352389693260193
1629795452871,0.9373000264167786,1.0859835147857666,1.1557557582855225,0.7352389693260193
1629795452934,0.9373000264167786,1.0307190418243408,1.1557557582855225,0.7352389693260193
1629795453184,0.9373000264167786,1.030838966369629,1.1557557582855225,0.7352389693260193
1629795453252,0.9373000264167786,0.9836480617523192,1.1557557582855225,0.7352389693260193
1629795453486,0.9373000264167786,1.032070517539978,1.1557557582855225,0.7352389693260193
1629795453486,0.9373000264167786,1.108617901802063,1.1644670963287354,0.7352389693260193
1629795453658,0.9373000264167786,1.1082550287246704,1.0754717588424685,0.7352389693260193
1629795453705,0.9373000264167786,1.108506441116333,1.003767490386963,0.7352389693260193
1629795453752,1.1666667461395264,1.141723871231079,0.9710870981216432,0.7352389693260193
1629795453986,1.1666667461395264,1.1605485677719116,0.9191620349884032,0.7352389693260193
1629795454114,1.1666667461395264,1.0929465293884275,0.875285804271698,0.7352389693260193
1629795454129,1.1445438861846924,1.1175804138183594,0.8386399149894714,0.7352389693260193
1629795454145,1.1445438861846924,1.2717492580413818,0.8725135326385498,0.7352389693260193
1629795454161,1.1445438861846924,1.5663676261901855,0.8923729658126831,0.7352389693260193
1629795454504,1.1445438861846924,1.5879907608032229,0.9728039503097534,0.7352389693260193
1629795454614,1.1445438861846924,1.5747145414352417,0.943925142288208,0.7352389693260193
1629795454629,1.1445438861846924,1.578719139099121,0.917113959789276,0.7352389693260193
1629795454754,1.1363824605941772,1.6054699420928955,0.9175437688827516,0.7352389693260193
1629795454864,1.0894874334335327,1.6169462203979492,0.9196522831916808,0.7352389693260193
1629795454942,0.8696601986885071,1.6048998832702637,0.8592274188995361,0.7352389693260193
1629795454973,0.8696601986885071,1.585627555847168,0.7326923608779907,0.7352389693260193
1629795455147,0.8696601986885071,1.6902488470077517,0.9811684489250184,0.7352389693260193
1629795455257,0.8696601986885071,1.7025023698806765,0.9840846657752992,0.7352389693260193
1629795455272,0.8470727801322937,1.6839895248413086,0.9739859104156494,0.7352389693260193
1629795455382,0.8470727801322937,1.6850556135177612,0.974923610687256,0.7352389693260193
1629795455507,0.7960588932037354,1.6850976943969729,0.9746205806732178,0.7352389693260193
1629795455647,0.703930139541626,1.6816145181655884,0.97381329536438,0.7352389693260193
1629795455725,0.703930139541626,1.6346973180770874,0.9962552785873412,0.7352389693260193
1629795455741,0.703930139541626,1.448765754699707,1.0162153244018557,0.7352389693260193
1629795455772,0.703930139541626,1.4184768199920654,0.9353287816047668,0.7352389693260193
1629795455819,0.703930139541626,1.4547227621078491,1.0410146713256836,0.7352389693260193
1629795455897,0.703930139541626,1.4506977796554563,1.074877142906189,0.7352389693260193
1629795455960,0.703930139541626,1.4161566495895386,1.0760445594787598,0.7352389693260193
1629795456165,0.703930139541626,1.397955060005188,1.0763955116271973,0.7352389693260193
1629795456212,0.703930139541626,1.4130841493606567,1.1032041311264038,0.7352389693260193
1629795456368,0.703930139541626,1.4044674634933472,1.0816813707351685,0.7352389693260193
1629795456399,0.703930139541626,1.150684833526611,0.8992475271224976,0.7352389693260193
1629795456509,0.703930139541626,1.1706492900848389,0.9411219954490662,0.7352389693260193
1629795456727,0.703930139541626,1.1795203685760498,0.955643117427826,0.7352389693260193
1629795456852,0.703930139541626,1.1572962999343872,0.9588649868965148,0.7352389693260193
1629795456977,0.703930139541626,1.1583222150802612,0.9629872441291808,0.7352389693260193
1629795456993,0.703930139541626,1.1704778671264648,1.0107678174972534,0.7352389693260193
1629795457105,0.703930139541626,1.1656663417816162,0.9542235136032104,0.7352389693260193
1629795457120,0.703930139541626,1.0193493366241455,0.92904394865036,0.7352389693260193
1629795457198,0.703930139541626,1.0200538635253906,0.926975965499878,0.7352389693260193
1629795457292,0.703930139541626,0.9563103914260864,0.785301148891449,0.7352389693260193
1629795457339,0.703930139541626,0.9164483547210692,0.7178465723991394,0.7352389693260193
1629795457511,0.9777178168296814,0.903270661830902,0.7141156792640686,0.7352389693260193
1629795457558,0.9612563252449036,0.902296781539917,0.7095451354980469,0.7352389693260193
1629795457761,0.9403610825538636,0.85182785987854,0.6335647106170654,0.7352389693260193
1629795457917,0.9403610825538636,0.8459014892578125,0.6297342777252197,0.7352389693260193
1629795458057,0.9403610825538636,0.8404995203018188,0.6279422640800476,0.7352389693260193
1629795458169,0.9403610825538636,0.685541570186615,0.5306300520896912,0.7352389693260193
1629795458185,0.9403610825538636,0.7469422221183777,0.6114059686660767,0.7352389693260193
1629795458185,0.9802004098892212,0.844563364982605,0.6808644533157349,0.7352389693260193
1629795458201,0.9802004098892212,1.160239338874817,0.8900879621505737,0.7352389693260193
1629795458294,0.8972872495651245,1.1279376745224,0.8233866691589355,0.7352389693260193
1629795458607,0.9152758717536926,1.089387059211731,0.8182558417320251,0.7352389693260193
1629795458732,0.8643901348114014,1.0647945404052734,0.769784152507782,0.7352389693260193
1629795458935,0.8643901348114014,1.0637738704681396,0.7662898302078247,0.7352389693260193
1629795459075,0.8643901348114014,1.0317144393920898,0.7639288902282715,0.7352389693260193
1629795459171,0.8877418041229248,1.0320212841033936,0.7628008127212524,0.7352389693260193
1629795459265,0.83460533618927,1.2528873682022097,0.7641252279281616,0.7352389693260193
1629795459265,0.8459009528160095,1.0333648920059204,0.762912392616272,0.7352389693260193
1629795459421,0.83460533618927,1.3103294372558594,0.9193809032440186,0.7352389693260193
1629795459421,0.83460533618927,1.3596805334091189,1.033004879951477,0.7352389693260193
1629795459515,0.83460533618927,1.3601090908050537,1.0324671268463137,0.7352389693260193
1629795459609,0.83460533618927,1.3599250316619873,1.0313148498535156,0.7352389693260193
1629795459640,0.9610532522201538,1.339179515838623,0.9863035082817078,0.7352389693260193
1629795459781,0.9502167105674744,1.3093079328536987,0.9480627179145812,0.7352389693260193
1629795459812,0.9560322165489196,1.1466410160064695,0.7638649344444275,0.7352389693260193
1629795460062,0.9291424751281738,1.1469415426254272,0.7672150731086731,0.7352389693260193
1629795460109,0.8930505514144897,1.148181676864624,0.772511899471283,0.7352389693260193
1629795460236,0.9374409914016724,1.15006422996521,0.7778657078742981,0.7352389693260193
1629795460283,0.9374409914016724,1.206894040107727,0.8992807865142822,0.7352389693260193
1629795460361,0.9374409914016724,1.2082780599594116,0.9002461433410645,0.7352389693260193
1629795460439,0.9374409914016724,1.2090023756027222,0.9006636738777161,0.7352389693260193
1629795460455,0.987097442150116,1.208974003791809,0.9016351103782654,0.7352389693260193
1629795460502,0.987097442150116,0.9591546654701232,0.9031460285186768,0.7352389693260193
1629795460502,0.987097442150116,0.8186919689178467,0.7443443536758423,0.7352389693260193
1629795461048,0.987097442150116,0.6789193749427795,0.490433931350708,0.7352389693260193
1629795461173,0.987097442150116,0.676906943321228,0.4928210973739624,0.7352389693260193
1629795461395,0.987097442150116,0.6771188974380493,0.4959085285663605,0.7352389693260193
1629795461441,0.912890613079071,0.6795496940612793,0.4992910027503967,0.7352389693260193
1629795461520,0.912890613079071,0.6830836534500122,0.5015367865562439,0.7352389693260193
1629795461598,0.912890613079071,0.7345606088638306,0.5798794031143188,0.7352389693260193
1629795461644,0.912890613079071,0.7352665066719055,0.5766099095344543,0.7352389693260193
1629795461644,0.912890613079071,0.8256942629814148,0.6473557949066162,0.7352389693260193
1629795461738,0.912890613079071,0.6709657907485962,0.4029803872108459,0.7352389693260193
1629795461738,0.912890613079071,0.8229933381080627,0.6446917057037354,0.7352389693260193
1629795461926,0.912890613079071,0.6654800772666931,0.40683314204216,0.7352389693260193
1629795462035,0.912890613079071,0.6605002880096436,0.4094821512699127,0.7352389693260193
1629795462285,0.912890613079071,0.6571728587150574,0.4076765179634094,0.7352389693260193
1629795462316,0.912890613079071,0.6559861302375793,0.4026882648468017,0.7352389693260193
1629795462441,0.912890613079071,1.0353399515151978,0.3990056812763214,0.7352389693260193
1629795462457,0.912890613079071,1.0519955158233645,0.4001429378986358,0.7352389693260193
1629795462472,0.912890613079071,1.0516207218170166,0.4063138663768768,0.7352389693260193
1629795462519,0.912890613079071,1.1011663675308228,0.5944380164146423,0.7352389693260193
1629795462535,0.912890613079071,1.100216031074524,0.6023814678192139,0.7352389693260193
1629795462613,0.912890613079071,1.0991281270980835,0.6117056012153625,0.7352389693260193
1629795462629,0.912890613079071,1.034408688545227,0.5498923659324646,0.7352389693260193
1629795462738,0.912890613079071,1.0328445434570312,0.5576596856117249,0.7352389693260193
1629795462754,0.998162806034088,0.9763959050178528,0.4664762914180755,0.7352389693260193
1629795462847,1.0284395217895508,0.9751752018928528,0.465412974357605,0.7352389693260193
1629795463113,1.0185664892196655,0.9747102856636048,0.4632807374000549,0.7352389693260193
1629795463287,1.0185664892196655,1.002327561378479,0.4630827009677887,0.7352389693260193
1629795463428,1.0185664892196655,1.002397060394287,0.4656667411327362,0.7352389693260193
1629795463506,1.0185664892196655,1.0021051168441772,0.4703526198863983,0.7352389693260193
1629795463599,0.9642667174339294,1.0016814470291138,0.4749747812747955,0.7352389693260193
1629795463771,0.931775450706482,0.5707969665527344,0.4767097234725952,0.7352389693260193
1629795463849,0.8901821374893188,0.427705705165863,0.4740180075168609,0.7352389693260193
1629795463881,0.8540125489234924,0.4318171739578247,0.4676206707954407,0.7352389693260193
1629795464130,0.8208683133125305,0.1286040842533111,0.1920380890369415,0.7352389693260193
1629795464146,0.7904780507087708,0.1343722641468048,0.1764307469129562,0.82428377866745
1629795464209,0.7630802989006042,0.139785498380661,0.1594984829425811,0.8620985746383667
1629795464305,0.728742241859436,0.1473617553710937,0.142967090010643,0.8668079972267151
1629795464493,0.6595717668533325,0.1583407819271087,0.1308929324150085,0.8536297082901001
1629795464602,0.5496250987052917,0.1707605719566345,0.1255218088626861,0.8367686867713928
1629795464742,0.4156691133975982,0.1808917224407196,0.1241679340600967,0.8233227729797363
1629795464852,0.3025958240032196,0.187357485294342,0.1207269728183746,0.8124746084213257
1629795464961,0.3009156584739685,-0.0251921657472848,0.1122527122497558,0.8030907511711121
1629795465071,0.3012005388736725,-0.0084074772894382,0.1007862463593483,0.7921531200408936
1629795465149,0.305940181016922,0.0157929565757513,0.0934611335396766,0.7782143354415894
1629795465274,0.3169825375080108,0.0397333055734634,0.0970643609762191,0.7633677124977112
1629795465307,0.3275246918201446,0.3513367772102356,0.1112397089600563,0.7531571984291077
1629795465495,0.3393234312534332,0.3540505170822143,0.1294050514698028,0.7655912041664124
1629795465745,0.3536654412746429,0.3536458313465118,0.1451524496078491,0.7679772973060608
1629795465776,0.3586200177669525,0.3548713326454162,0.1551408320665359,0.7543050050735474
1629795465932,0.3670951724052429,0.361243337392807,0.1582469940185547,0.7241040468215942
1629795465995,0.3776047527790069,0.5004536509513855,0.1553496867418289,0.6863627433776855
1629795466010,0.387864738702774,0.6359698176383972,0.1476596444845199,0.6565639972686768
1629795466075,0.3952065110206604,0.6383440494537354,0.1381333172321319,0.6409102082252502
1629795466091,0.3998393714427948,0.637653112411499,0.1284819841384887,0.6324636936187744
1629795466169,0.4051927030086517,0.6359150409698486,0.1196498870849609,0.6206139326095581
1629795466200,0.4164803922176361,0.6611674427986145,0.1126570105552673,0.6027604341506958
1629795466497,0.4355470240116119,0.6598913073539734,0.1062523797154426,0.5759276747703552
1629795466528,0.457547515630722,0.6573547124862671,0.0970297008752822,0.5759276747703552
1629795466747,0.4774412810802459,0.6531514525413513,0.0796975120902061,0.5759276747703552
1629795466903,0.4774412810802459,0.6482221484184265,0.0515949055552482,0.5759276747703552
1629795467044,0.4774412810802459,0.6165468096733093,0.0176173038780689,0.5759276747703552
1629795467156,0.4774412810802459,0.6421259045600891,-0.0120705990120768,0.5759276747703552
1629795467202,0.4774412810802459,0.7031958103179932,0.2007610201835632,0.5759276747703552
1629795467234,0.4774412810802459,0.7024453282356262,0.194606676697731,0.5759276747703552
1629795467281,0.4774412810802459,0.7817029356956482,0.4105046987533569,0.5759276747703552
1629795467312,0.4774412810802459,0.7748097777366638,0.4102446436882019,0.5759276747703552
1629795467327,0.4774412810802459,0.7311445474624634,0.5092707276344299,0.5759276747703552
1629795467515,0.4774412810802459,0.7264053821563721,0.5109717845916748,0.5759276747703552
1629795467546,0.4774412810802459,0.7241631150245667,0.5118706226348877,0.5759276747703552
1629795467593,0.4774412810802459,0.7231714129447937,0.5116118788719177,0.5759276747703552
1629795467718,0.4774412810802459,0.6992776989936829,0.5109893679618835,0.5759276747703552
1629795467937,0.4774412810802459,0.6979996562004089,0.5114787220954895,0.5759276747703552
1629795467984,0.4774412810802459,0.6963933110237122,0.5138170719146729,0.5759276747703552
1629795468204,0.4774412810802459,0.6942172646522522,0.5175800323486328,0.5759276747703552
1629795468439,0.6125911474227905,0.6914386749267578,0.521554172039032,0.5759276747703552
1629795468486,0.5595889091491699,0.6066951155662537,0.5240973830223083,0.5759276747703552
1629795468767,0.431616872549057,0.5732730627059937,0.5238769054412842,0.5759276747703552
1629795468876,0.4302358031272888,0.4859421849250793,0.4261542856693268,0.5759276747703552
1629795468954,0.4191692471504211,0.5702452063560486,0.4251199066638946,0.5759276747703552
1629795469110,0.4191692471504211,0.4293719530105591,0.3623921573162079,0.5759276747703552
1629795469205,0.4191692471504211,0.2850724458694458,0.3690133392810821,0.5759276747703552
1629795469222,0.4191692471504211,0.32695472240448,0.2355462163686752,0.5759276747703552
1629795469300,0.4191692471504211,0.3297749757766723,0.2399123758077621,0.5759276747703552
1629795469378,0.4191692471504211,0.3302542865276336,0.2426180988550186,0.5759276747703552
1629795469425,0.4191692471504211,0.3303248882293701,0.2447133362293243,0.5759276747703552
1629795469550,0.4191692471504211,0.3307928740978241,0.245389923453331,0.5759276747703552
1629795469675,0.4191692471504211,0.3315372169017792,0.244254931807518,0.5759276747703552
1629795469972,0.4191692471504211,0.3324981927871704,0.2415404170751571,0.5759276747703552
1629795470146,0.3793368637561798,0.5001722574234009,0.2374286353588104,0.5759276747703552
1629795470162,0.3920038342475891,0.7606281638145447,0.5376352667808533,0.5759276747703552
1629795470193,0.3920038342475891,0.7612932920455933,0.5377721786499023,0.5759276747703552
1629795470334,0.3920038342475891,0.8221077919006348,0.541078507900238,0.5759276747703552
1629795470365,0.3920038342475891,0.8622229695320129,0.6245098114013672,0.5759276747703552
1629795470459,0.3920038342475891,0.9240527153015136,0.7797375917434692,0.5759276747703552
1629795470474,0.3920038342475891,1.0337738990783691,0.893620491027832,0.5759276747703552
1629795470537,0.3920038342475891,1.0323160886764526,0.8916527628898621,0.5759276747703552
1629795470553,0.3920038342475891,1.0670872926712036,0.8897231817245483,0.5759276747703552
1629795470568,0.3920038342475891,1.066048264503479,0.8882009387016296,0.5759276747703552
1629795470615,0.3920038342475891,1.1240321397781372,0.8869054913520813,0.5759276747703552
1629795470678,0.3920038342475891,1.1233021020889282,0.8858321905136108,0.5759276747703552
1629795470927,0.3920038342475891,1.1227123737335205,0.8852950930595398,0.5759276747703552
1629795471271,0.3920038342475891,1.1479521989822388,0.8853988647460938,0.5759276747703552
1629795471302,0.3920038342475891,1.1481952667236328,0.8858596682548523,0.5759276747703552
1629795471443,0.3920038342475891,1.174233078956604,1.054779887199402,0.5759276747703552
1629795471662,0.3920038342475891,1.0923506021499634,1.0110312700271606,0.5759276747703552
1629795471693,0.3920038342475891,1.328482747077942,1.112665057182312,0.5759276747703552
1629795471693,0.3920038342475891,1.1986924409866333,1.0376760959625244,0.5759276747703552
1629795471709,0.3920038342475891,1.315208911895752,1.085410237312317,0.5759276747703552
1629795471771,0.3920038342475891,1.2759500741958618,1.010150671005249,0.5759276747703552
1629795472195,0.3920038342475891,1.215566635131836,0.8803277611732483,0.5759276747703552
1629795472445,0.3920038342475891,1.2151530981063845,0.8797270059585571,0.5759276747703552
1629795472445,0.3920038342475891,1.166695475578308,0.878965437412262,0.5759276747703552
1629795472523,0.3920038342475891,1.166629672050476,0.8790051341056824,0.5759276747703552
1629795472570,0.3920038342475891,1.1140515804290771,0.8804173469543457,0.5759276747703552
1629795472617,0.3920038342475891,1.168494462966919,0.9792242050170898,0.5759276747703552
1629795472633,0.3920038342475891,1.2614192962646484,0.994179904460907,0.5759276747703552
1629795472664,0.3920038342475891,1.2735129594802856,1.0270236730575562,0.5759276747703552
1629795472711,0.3920038342475891,1.2906920909881592,1.0278533697128296,0.5759276747703552
1629795472836,0.3920038342475891,1.2462985515594482,0.8305889964103699,0.5759276747703552
1629795472836,0.3920038342475891,1.279304265975952,0.8836901783943176,0.5759276747703552
1629795472867,0.3920038342475891,1.1922969818115234,0.8591589331626892,0.5759276747703552
1629795473008,0.3920038342475891,0.963110089302063,0.7244086265563965,0.5759276747703552
1629795473054,0.3920038342475891,0.9624518752098083,0.7245331406593323,0.5759276747703552
1629795473086,0.3920038342475891,1.190398097038269,0.897538959980011,0.5759276747703552
1629795473276,0.3920038342475891,1.219958782196045,0.9482042789459229,0.5759276747703552
1629795473323,0.3920038342475891,1.2413434982299805,0.9465199112892152,0.5759276747703552
1629795473323,0.3920038342475891,1.2214902639389038,0.946928858757019,0.5759276747703552
1629795473588,0.3920038342475891,1.2422255277633667,0.9463210701942444,0.5759276747703552
1629795473698,0.3920038342475891,1.2847474813461304,1.0225406885147097,0.5759276747703552
1629795473963,0.3920038342475891,1.2441389560699463,0.9416075348854064,0.5759276747703552
1629795473994,0.3920038342475891,1.1473711729049685,0.92697411775589,0.5759276747703552
1629795474088,0.3920038342475891,1.104798436164856,0.8897276520729065,0.5759276747703552
1629795474119,0.3920038342475891,1.0779865980148315,0.8912363648414612,0.5759276747703552
1629795474247,0.3920038342475891,1.0791079998016355,0.8939023017883301,0.5759276747703552
1629795474357,0.3350720703601837,1.0251708030700684,0.807590663433075,0.5759276747703552
1629795474466,0.3135547339916229,1.0268158912658691,0.8082652688026428,0.5759276747703552
1629795474685,0.2926204204559326,1.0283236503601074,0.8084465265274048,0.5759276747703552
1629795474732,0.2728166282176971,1.0294053554534912,0.8109894394874573,0.5759276747703552
1629795474763,0.2540881633758545,0.6420388221740723,0.5949817299842834,0.5759276747703552
1629795474935,0.2384283691644668,0.5204421281814575,0.4833188056945801,0.5759276747703552
1629795474950,0.2375791817903518,0.5166140198707581,0.5009963512420654,0.5759276747703552
1629795475060,0.2375791817903518,0.5603190660476685,0.6443284749984741,0.5759276747703552
1629795475122,0.2375791817903518,0.5594793558120728,0.6522940993309021,0.5759276747703552
1629795475153,0.2375791817903518,0.265644758939743,0.4539065957069397,0.5759276747703552
1629795475297,0.4512232840061188,0.2671969532966614,0.4598913788795471,0.5759276747703552
1629795475422,0.5560532808303833,0.268945962190628,0.4624710381031036,0.5759276747703552
