timestamp,TP9,AF7,AF8,TP10
1630059083658,0.6011108756065369,0.6608707904815674,-0.0239512883126735,0.570339560508728
1630059083738,0.6011108756065369,0.6963724493980408,-0.0152712324634194,0.570339560508728
1630059083912,0.6011108756065369,0.721196711063385,-0.0061259348876774,0.570339560508728
1630059083943,0.6011108756065369,0.7294014096260071,0.002536260522902,0.570339560508728
1630059084103,0.6011108756065369,0.7316136956214905,0.0069621377624571,0.570339560508728
1630059084149,0.6011108756065369,0.743833065032959,0.0090883579105138,0.570339560508728
1630059084212,0.6011108756065369,0.7638949155807495,0.0124067943543195,0.570339560508728
1630059084418,0.6011108756065369,0.7806828618049622,0.0139051806181669,0.570339560508728
1630059084480,0.6011108756065369,0.7806828618049622,0.0115198725834488,0.570339560508728
1630059084590,0.6011108756065369,0.795884907245636,0.0125903896987438,0.570339560508728
1630059084636,0.6011108756065369,0.8079232573509216,0.0114174960181117,0.570339560508728
1630059084791,0.6011108756065369,0.8287979364395142,0.0190067794173955,0.570339560508728
1630059084854,0.6011108756065369,0.8287979364395142,0.0336255207657814,0.570339560508728
1630059084999,0.6011108756065369,0.8287979364395142,0.0471728891134262,0.570339560508728
1630059085077,0.6011108756065369,0.8287979364395142,0.0569588989019393,0.570339560508728
1630059085187,0.6011108756065369,0.8287979364395142,0.0598355829715728,0.570339560508728
1630059085266,0.6011108756065369,0.8287979364395142,0.0556476339697837,0.570339560508728
1630059085346,0.6011108756065369,0.8287979364395142,0.0450563095510005,0.570339560508728
1630059085471,0.6011108756065369,0.8287979364395142,0.0304674636572599,0.570339560508728
1630059085612,0.6011108756065369,0.8287979364395142,0.0304674636572599,0.570339560508728
1630059085660,0.6011108756065369,0.8287979364395142,0.0304674636572599,0.570339560508728
1630059085770,0.6011108756065369,0.8287979364395142,0.0304674636572599,0.570339560508728
1630059085879,0.6011108756065369,0.8287979364395142,0.0304674636572599,0.570339560508728
1630059085974,0.6011108756065369,0.8287979364395142,0.0304674636572599,0.570339560508728
1630059086052,0.6011108756065369,0.8287979364395142,0.0304674636572599,0.570339560508728
1630059086179,0.6011108756065369,0.8287979364395142,0.0304674636572599,0.570339560508728
1630059086320,0.6011108756065369,0.8287979364395142,0.0304674636572599,0.570339560508728
1630059086398,0.6011108756065369,0.8287979364395142,0.0304674636572599,0.570339560508728
1630059086461,0.6011108756065369,0.8287979364395142,0.0304674636572599,0.570339560508728
1630059086557,0.6011108756065369,0.8287979364395142,0.0304674636572599,0.570339560508728
1630059086651,0.6011108756065369,0.8287979364395142,0.0304674636572599,0.570339560508728
1630059086841,0.6011108756065369,0.8287979364395142,0.0304674636572599,0.570339560508728
1630059086873,0.6011108756065369,0.8287979364395142,0.1966613978147506,0.570339560508728
1630059086996,0.6011108756065369,0.5578418374061584,0.1703477948904037,0.570339560508728
1630059087089,0.6011108756065369,0.5314392447471619,0.1532953083515167,0.570339560508728
1630059087151,0.6011108756065369,0.5314392447471619,0.1662888377904892,0.570339560508728
1630059087294,0.6011108756065369,0.5314392447471619,0.2023078054189682,0.570339560508728
1630059087388,0.6011108756065369,0.5314392447471619,0.2023078054189682,0.570339560508728
1630059087498,0.6011108756065369,0.5314392447471619,0.2023078054189682,0.570339560508728
1630059087608,0.6011108756065369,0.5314392447471619,0.2023078054189682,0.570339560508728
1630059087687,0.6011108756065369,0.5314392447471619,0.2023078054189682,0.570339560508728
1630059087815,0.6011108756065369,0.5314392447471619,0.2023078054189682,0.570339560508728
1630059087861,0.6011108756065369,0.5314392447471619,0.2023078054189682,0.570339560508728
1630059088033,0.6011108756065369,0.5314392447471619,0.2023078054189682,0.570339560508728
1630059088110,0.6011108756065369,0.5314392447471619,0.2125276923179626,0.570339560508728
1630059088207,0.6011108756065369,0.5055660605430603,0.1523177772760391,0.570339560508728
1630059088301,0.6011108756065369,0.5343889594078064,0.1013320088386535,0.570339560508728
1630059088426,0.6011108756065369,0.6064585447311401,0.1126075983047485,0.570339560508728
1630059088538,0.6011108756065369,0.7459351420402527,0.2089837789535522,0.570339560508728
1630059088632,0.6011108756065369,0.897481381893158,0.3292921483516693,0.570339560508728
1630059088741,0.6011108756065369,0.9410394430160522,0.4081487655639648,0.570339560508728
1630059088820,0.6011108756065369,0.9468178749084472,0.4351221323013305,0.570339560508728
1630059088961,0.6011108756065369,0.924509823322296,0.4227181375026703,0.570339560508728
1630059089041,0.6011108756065369,0.8931833505630493,0.3965324163436889,0.570339560508728
1630059089087,0.6011108756065369,0.8645155429840088,0.3667500913143158,0.570339560508728
1630059089273,0.6011108756065369,0.8422558307647705,0.3369053602218628,0.570339560508728
1630059089351,0.6011108756065369,0.8422558307647705,0.3093775510787964,0.570339560508728
1630059089415,0.6011108756065369,0.8422558307647705,0.2860974371433258,0.570339560508728
1630059089539,0.6011108756065369,0.8422558307647705,0.2696633636951446,0.570339560508728
1630059089632,0.6011108756065369,0.8422558307647705,0.2587457001209259,0.570339560508728
1630059089708,0.6011108756065369,0.8422558307647705,0.274679958820343,0.570339560508728
1630059089835,0.6011108756065369,0.8564490675926208,0.2948464751243591,0.570339560508728
1630059089944,0.6011108756065369,0.8654211163520813,0.2996764183044433,0.570339560508728
1630059090007,0.6011108756065369,0.8521888852119446,0.2740532159805298,0.570339560508728
1630059090133,0.6011108756065369,0.8011061549186707,0.2090524584054947,0.570339560508728
1630059090227,0.6011108756065369,0.71417635679245,0.1172803193330764,0.570339560508728
1630059090353,0.6011108756065369,0.6143360733985901,0.0221624877303838,0.570339560508728
1630059090448,0.6011108756065369,0.6143360733985901,-0.0424644462764263,0.570339560508728
1630059090543,0.6011108756065369,0.6143360733985901,-0.0552239194512367,0.570339560508728
1630059090607,0.6011108756065369,0.6143360733985901,-0.0369700901210308,0.570339560508728
1630059090734,0.6011108756065369,0.6143360733985901,-0.0086863078176975,0.570339560508728
1630059090816,0.6011108756065369,0.6143360733985901,0.0125198829919099,0.570339560508728
1630059090924,0.6011108756065369,0.6143360733985901,0.0202484857290983,0.570339560508728
1630059091052,0.6011108756065369,0.6143360733985901,0.0069652958773076,0.570339560508728
1630059091146,0.6011108756065369,0.6143360733985901,-0.0278060249984264,0.570339560508728
1630059091255,0.6011108756065369,0.6172022819519043,-0.081361323595047,0.570339560508728
1630059091350,0.6011108756065369,0.6282672882080078,-0.1115929782390594,0.570339560508728
1630059091460,0.6011108756065369,0.6259910464286804,-0.1356691867113113,0.570339560508728
1630059091538,0.6011108756065369,0.6156178116798401,-0.1515856385231018,0.570339560508728
1630059091665,0.6011108756065369,0.6049158573150635,-0.1626932471990585,0.570339560508728
1630059091806,0.6011108756065369,0.5987721085548401,-0.1729986369609832,0.570339560508728
1630059091853,0.6011108756065369,0.5986822247505188,-0.1845785230398178,0.570339560508728
1630059091997,0.6011108756065369,0.6025972366333008,-0.2052662670612335,0.570339560508728
1630059092128,0.6011108756065369,0.6056837439537048,-0.2394680827856063,0.570339560508728
1630059092186,0.6011108756065369,0.6041474938392639,-0.2846243977546692,0.570339560508728
1630059092298,0.6011108756065369,0.6041474938392639,-0.332332968711853,0.570339560508728
1630059092392,0.6011108756065369,0.6041474938392639,-0.3687407076358795,0.570339560508728
1630059092486,0.6011108756065369,0.6081375479698181,-0.392363041639328,0.570339560508728
1630059092583,0.6011108756065369,0.6103751063346863,-0.4092912077903747,0.570339560508728
1630059092645,0.6011108756065369,0.6069302558898926,-0.41879802942276,0.570339560508728
1630059092755,0.6011108756065369,0.5859465599060059,-0.4246803820133209,0.570339560508728
1630059092866,0.6011108756065369,0.5692085027694702,-0.4260048568248749,0.570339560508728
1630059093024,0.6011108756065369,0.5653693079948425,-0.4303069710731506,0.570339560508728
1630059093057,0.6011108756065369,0.5763948559761047,-0.4421496391296386,0.570339560508728
1630059093167,0.6011108756065369,0.5942601561546326,-0.4550385475158691,0.570339560508728
1630059093311,0.6011108756065369,0.6086050868034363,-0.4640260636806488,0.570339560508728
1630059093372,0.6011108756065369,0.6129306554794312,-0.4632981121540069,0.570339560508728
1630059093495,0.6011108756065369,0.609946608543396,-0.4514968693256378,0.570339560508728
1630059093558,0.6011108756065369,0.607750415802002,-0.4334738254547119,0.570339560508728
1630059093682,0.6011108756065369,0.610177218914032,-0.4174459278583526,0.570339560508728
1630059093776,0.6011108756065369,0.610177218914032,-0.4085599482059479,0.570339560508728
1630059093871,0.6011108756065369,0.610177218914032,-0.4082755148410797,0.570339560508728
1630059094014,0.6011108756065369,0.610177218914032,-0.4114319384098053,0.570339560508728
1630059094124,0.6011108756065369,0.610177218914032,-0.4058811962604522,0.570339560508728
1630059094187,0.6011108756065369,0.610177218914032,-0.3887368738651275,0.570339560508728
1630059094297,0.6011108756065369,0.6260700821876526,-0.3638612031936645,0.570339560508728
1630059094391,0.6011108756065369,0.6406208276748657,-0.3399921655654907,0.570339560508728
1630059094531,0.6011108756065369,0.6177217364311218,-0.3202838599681854,0.570339560508728
1630059094611,0.6011108756065369,0.5801592469215393,-0.3065170049667358,0.570339560508728
1630059094722,0.6011108756065369,0.5321934223175049,-0.2979399263858795,0.570339560508728
1630059094816,0.6011108756065369,0.4829427897930145,-0.2937324345111847,0.570339560508728
1630059094929,0.6011108756065369,0.4402025938034057,-0.294874757528305,0.570339560508728
1630059095007,0.6011108756065369,0.4000021517276764,-0.3022072613239288,0.570339560508728
1630059095084,0.6011108756065369,0.3578265905380249,-0.3137400448322296,0.570339560508728
1630059095227,0.6011108756065369,0.3745717704296112,-0.3248617649078369,0.570339560508728
1630059095403,0.6011108756065369,0.4013475775718689,-0.3322503864765167,0.570339560508728
1630059095464,0.6011108756065369,0.4318625926971435,-0.3358646929264068,0.570339560508728
1630059095510,1.1378849744796753,0.4548697769641876,-0.3373803496360779,0.570339560508728
1630059095619,1.1563493013381958,0.4651386439800262,-0.3426997363567352,0.7947866916656494
1630059095703,1.1609821319580078,0.465871661901474,-0.3548772633075714,0.7709670662879944
1630059095812,1.1593213081359863,0.4646440744400024,-0.3698785305023193,0.7614544034004211
1630059095951,1.1591300964355469,0.4668539464473724,-0.3823769986629486,0.7597845196723938
1630059096032,1.1598964929580688,0.4799101054668426,-0.3891601860523224,0.763706624507904
1630059096173,1.156002402305603,0.4975048303604126,-0.3906105458736419,0.7720552682876587
1630059096251,1.144709229469299,0.5168434381484985,-0.3942306935787201,0.7819088697433472
1630059096329,1.1295182704925537,0.5354393124580383,-0.3989185392856598,0.7893307209014893
1630059096422,1.1159534454345703,0.5516278147697449,-0.4038560688495636,0.7907512784004211
1630059096579,1.1065670251846311,0.5645656585693359,-0.4055219888687134,0.7856405973434448
1630059096699,1.1007260084152222,0.5732653141021729,-0.4045561850070953,0.7775043845176697
1630059096731,1.100398063659668,0.5763914585113525,-0.4049426019191742,0.7722944021224976
1630059096840,1.0957423448562622,0.5730858445167542,-0.4087094068527221,0.761823832988739
1630059096980,1.0830360651016235,0.5639541149139404,-0.4186262190341949,0.7594601511955261
1630059097019,1.0615702867507937,0.5546165704727173,-0.4302955269813537,0.7635049223899841
1630059097160,1.0357083082199097,0.5505148768424988,-0.4404441118240356,0.7681971192359924
1630059097285,1.0132304430007937,0.5533932447433472,-0.4480267763137817,0.7711865305900574
1630059097363,0.9967544078826904,0.5604895949363708,-0.4557187855243683,0.7751701474189758
1630059097457,0.9830878973007202,0.5686585307121277,-0.4678469598293304,0.7801576256752014
1630059097550,0.9707301259040833,0.5774445533752441,-0.4823122322559356,0.782331645488739
1630059097629,0.9613835215568542,0.5848293900489807,-0.4945037364959717,0.777717649936676
1630059097800,0.95573228597641,0.5872213244438171,-0.4981772005558014,0.7656927704811096
1630059097910,0.9513169527053832,0.5833291411399841,-0.4953196048736572,0.7487363219261169
1630059098003,0.9459476470947266,0.5759917497634888,-0.4891970157623291,0.7312418222427368
1630059098100,0.9420082569122314,0.5693511962890625,-0.4852587878704071,0.7162498235702515
1630059098147,0.9441187381744384,0.5655686259269714,-0.484086662530899,0.7032861709594727
1630059098225,0.952989101409912,0.5648217797279358,-0.4828462600708008,0.6886687278747559
1630059098428,0.9668256640434264,0.5672542452812195,-0.4797626137733459,0.6700330376625061
1630059098459,0.9826331734657288,0.5734949707984924,-0.4725452661514282,0.6496163010597229
1630059098555,0.9885234832763672,0.5814655423164368,-0.4656303226947784,0.6377645134925842
1630059098680,0.9987334609031676,0.5884451270103455,-0.4612318873405456,0.630518913269043
1630059098772,1.0092390775680542,0.5924242734909058,-0.4577879607677459,0.6227613687515259
1630059098851,1.0164135694503784,0.592214047908783,-0.4543810784816742,0.6059205532073975
1630059098975,1.0189833641052246,0.5872336030006409,-0.448454350233078,0.5768232345581055
1630059099119,1.0182408094406128,0.5774814486503601,-0.4425720274448395,0.5387850999832153
1630059099182,1.0195585489273071,0.5660504698753357,-0.4380914270877838,0.4993762075901031
1630059099246,1.0310115814208984,0.5582463145256042,-0.4358848333358764,0.4654498696327209
1630059099370,1.0566072463989258,0.5566021800041199,-0.4361131191253662,0.4417552351951599
1630059099470,1.0928105115890503,0.5576690435409546,-0.4382377564907074,0.4318289160728454
1630059099626,1.1299948692321775,0.5572918057441711,-0.4410962164402008,0.4400575757026672
1630059099737,1.1299948692321775,0.5538116693496704,-0.4441356360912323,0.4400575757026672
1630059099790,1.1299948692321775,0.5474771857261658,-0.4440048336982727,0.4400575757026672
1630059099899,1.1299948692321775,0.5394505858421326,-0.437843769788742,0.4400575757026672
1630059099946,1.1299948692321775,0.531462550163269,-0.4256943166255951,0.4400575757026672
1630059100055,1.1299948692321775,0.5265588164329529,-0.410254418849945,0.4400575757026672
1630059100212,1.1299948692321775,0.5263649225234985,-0.3948315978050232,0.6706143021583557
1630059100321,1.1299948692321775,0.5282474756240845,-0.3831916153430938,0.655205488204956
1630059100399,1.0006157159805298,0.5289496183395386,-0.3796941637992859,0.6458781957626343
1630059100478,1.0294849872589111,0.5265570878982544,-0.3845874965190887,0.6410178542137146
1630059100606,1.0458588600158691,0.5212495923042297,-0.3935880064964294,0.6327409744262695
1630059100668,1.0474542379379272,0.5126808285713196,-0.4020582735538482,0.6206890344619751
1630059100840,1.037279725074768,0.5006934404373169,-0.4060587584972381,0.6111316680908203
1630059100919,1.022002100944519,0.4863371551036834,-0.4079310894012451,0.6085008382797241
1630059101014,1.022002100944519,0.4730928540229797,-0.4090398550033569,0.6085008382797241
1630059101110,1.022002100944519,0.4646627604961395,-0.407138466835022,0.6085008382797241
1630059101250,1.022002100944519,0.464637815952301,-0.4021680653095245,0.6085008382797241
1630059101315,1.022002100944519,0.4739543497562408,-0.3949454426765442,0.6085008382797241
1630059101408,1.022002100944519,0.4885703027248382,-0.389590322971344,0.6021004319190979
1630059101517,1.022002100944519,0.5021533370018005,-0.3891691565513611,0.5905513763427734
1630059101646,1.0355327129364014,0.5102806687355042,-0.3966784179210663,0.5770406723022461
1630059101740,1.045700192451477,0.5123695731163025,-0.4083828926086426,0.5685624480247498
1630059101848,1.0485210418701172,0.5115740895271301,-0.4121897518634796,0.5653344988822937
1630059101942,1.0383838415145874,0.5121334791183472,-0.3931152820587158,0.558937668800354
1630059102049,1.0124635696411133,0.5170882344245911,-0.3536554872989654,0.544985294342041
1630059102154,1.0124635696411133,0.5266910195350647,-0.3107776343822479,0.544985294342041
1630059102248,1.0124635696411133,0.5395928025245667,-0.2770281136035919,0.544985294342041
1630059102334,1.0124635696411133,0.5545012354850769,-0.2558148801326751,0.544985294342041
1630059102397,1.0124635696411133,0.5719872117042542,-0.2429935932159423,0.544985294342041
1630059102520,1.0124635696411133,0.5914359092712402,-0.2362628877162933,0.544985294342041
1630059102648,1.0124635696411133,0.6090173721313477,-0.2353880256414413,0.544985294342041
1630059102726,1.0124635696411133,0.6198644638061523,-0.2369722574949264,0.544985294342041
1630059102823,1.0124635696411133,0.6208032965660095,-0.2400740385055542,0.544985294342041
1630059102935,0.5957069396972656,0.613064169883728,-0.2441928833723068,0.7392538785934448
1630059103015,0.6605947613716125,0.60004723072052,-0.2500065863132477,0.7070759534835815
1630059103126,0.7123153209686279,0.585814893245697,-0.2540282011032104,0.6754434108734131
1630059103262,0.742347240447998,0.573881208896637,-0.2559327483177185,0.6524118781089783
1630059103344,0.7504467368125916,0.5653381943702698,-0.2629825174808502,0.6437590718269348
1630059103440,0.743302583694458,0.5589103102684021,-0.2840218842029571,0.6449861526489258
1630059103552,0.7321885228157043,0.5529429912567139,-0.3204992711544037,0.6469624042510986
1630059103630,0.7298378944396973,0.546855628490448,-0.3634710013866424,0.6423889398574829
1630059103723,0.7412455081939697,0.5406172275543213,-0.4010112881660461,0.6317138671875
1630059103864,0.7605717182159424,0.5326629877090454,-0.4268146455287933,0.6203643083572388
1630059103956,0.7801989316940308,0.5207484364509583,-0.4430444538593292,0.6119898557662964
1630059104079,0.7969940304756165,0.5055942535400391,-0.4518064260482788,0.6074193120002747
1630059104159,0.8209752440452576,0.4916016757488251,-0.4540583193302154,0.5851841568946838
1630059104252,0.8422410488128662,0.4818083345890045,-0.4574094414710998,0.57185298204422
1630059104368,0.8535667061805725,0.4770708382129669,-0.4659432470798492,0.5673770904541016
1630059104461,0.8531287312507629,0.4760757088661194,-0.4779041409492492,0.570996880531311
1630059104574,0.853183388710022,0.4783651232719421,-0.4875005781650543,0.5805600881576538
1630059104653,0.8488574028015137,0.483012706041336,-0.4908314347267151,0.5953395366668701
1630059104844,0.8453615307807922,0.4887653887271881,-0.4858939945697784,0.6129404306411743
1630059104925,0.8363939523696899,0.4948552250862121,-0.473228394985199,0.6287750005722046
1630059105005,0.8347367644309998,0.4998972415924072,-0.4563070237636566,0.6396224498748779
1630059105085,0.8367357850074768,0.5017080307006836,-0.4407348036766052,0.6464875340461731
1630059105181,0.8340476751327515,0.4995914697647095,-0.4316339790821075,0.6545892357826233
1630059105261,0.8225749135017395,0.4947101175785064,-0.430824875831604,0.6674465537071228
1630059105341,0.806343138217926,0.4889072775840759,-0.4379129707813263,0.6837674975395203
1630059105449,0.7918814420700073,0.4828958511352539,-0.4492267966270447,0.6998759508132935
1630059105562,0.7810089588165283,0.476182222366333,-0.4604954719543457,0.7135016322135925
1630059105669,0.7716809511184692,0.468881756067276,-0.4698484539985657,0.7282669544219971
1630059105786,0.7573925256729126,0.4637535810470581,-0.472400039434433,0.7497954964637756
1630059105915,0.7586075067520142,0.4639495015144348,-0.46753790974617,0.7818975448608398
1630059105959,0.7655798196792603,0.4698267579078674,-0.4574965536594391,0.8222358226776123
1630059106076,0.7646230459213257,0.4786339998245239,-0.4456093609333038,0.8625339865684509
1630059106149,0.7593536376953125,0.4865036606788635,-0.4376369118690491,0.8929623365402222
1630059106306,0.7522265911102295,0.4900690019130707,-0.4377548098564148,0.9083372354507446
1630059106390,0.7527062296867371,0.4880937933921814,-0.4459570348262787,0.9118566513061525
1630059106484,0.7579472064971924,0.4823909103870392,-0.4588978588581085,0.9125230312347412
1630059106625,0.764406144618988,0.4763317108154297,-0.4694914519786834,0.9178857803344728
1630059106703,0.7690451741218567,0.4726233780384063,-0.471036285161972,0.9274648427963256
1630059106765,0.7700473666191101,0.4719598591327667,-0.4605580568313598,0.9357457160949708
1630059106969,0.7662479877471924,0.4739638864994049,-0.4418902397155761,0.9392604231834412
1630059107039,0.7572181224822998,0.4778892397880554,-0.4204375147819519,0.9392949938774108
1630059107101,0.74433833360672,0.4823609590530395,-0.399413138628006,0.940146267414093
1630059107180,0.7354915738105774,0.4852363169193268,-0.3814215958118438,0.9426794648170472
1630059107323,0.7462109327316284,0.4842539429664612,-0.3709459006786346,0.942934513092041
1630059107391,0.7572616934776306,0.478731632232666,-0.3708166778087616,0.935218870639801
1630059107500,0.7697342038154602,0.4706019461154938,-0.3813089430332184,0.9156436324119568
1630059107595,0.7790263295173645,0.4633067548274994,-0.3949664235115051,0.8873996138572693
1630059107704,0.7861996293067932,0.4589945077896118,-0.4010544121265411,0.8602677583694458
1630059107801,0.7924304008483887,0.4568715989589691,-0.3962955474853515,0.8526026606559753
1630059107926,0.7958623766899109,0.4551863670349121,-0.3860020637512207,0.8493067026138306
1630059108000,0.7932921051979065,0.4531994462013244,-0.377549409866333,0.8392965793609619
1630059108126,0.7872774004936218,0.4540413916110992,-0.3743847012519836,0.8169791102409363
1630059108205,0.7832895517349243,0.4600182175636291,-0.3743183016777038,0.7889994382858276
1630059108301,0.7860150337219238,0.4710183143615722,-0.3737688064575195,0.7697155475616455
1630059108458,0.7909733653068542,0.484679639339447,-0.3736691176891327,0.7646358609199524
1630059108489,0.7957395315170288,0.4973497986793518,-0.3764476180076599,0.7647399306297302
1630059108617,0.800524115562439,0.5071167349815369,-0.3838467597961426,0.762085497379303
1630059108773,0.8019696474075317,0.5146910548210144,-0.3950693905353546,0.7463732957839966
1630059108851,0.7940940856933594,0.5218907594680786,-0.4031850099563598,0.7100392580032349
1630059108913,0.7744805216789246,0.5303225517272949,-0.4036432802677154,0.7100392580032349
1630059109040,0.7488064765930176,0.5403505563735962,-0.3946085274219513,0.7100392580032349
1630059109116,0.7263770699501038,0.5500821471214294,-0.3816957473754883,0.7100392580032349
1630059109192,0.7114397883415222,0.5580611228942871,-0.3736675083637237,0.7100392580032349
1630059109350,0.700920045375824,0.5634483098983765,-0.3745931386947632,0.6527758240699768
1630059109414,0.6912499666213989,0.5659082531929016,-0.3827549815177917,0.6024407744407654
1630059109559,0.6912499666213989,0.566236138343811,-0.3898493647575378,0.6024407744407654
1630059109619,0.6912499666213989,0.5645202398300171,-0.3915640413761139,0.6024407744407654
1630059109741,0.6912499666213989,0.5604022145271301,-0.3889133930206299,0.6024407744407654
1630059109803,0.6912499666213989,0.5534056425094604,-0.3856478333473205,0.6024407744407654
1630059109930,0.6912499666213989,0.5437028408050537,-0.3775026798248291,0.6024407744407654
1630059110057,0.6912499666213989,0.5332395434379578,-0.3576806187629699,0.8095434308052063
1630059110164,0.582146942615509,0.5249142050743103,-0.3309259414672851,0.7915160059928894
1630059110260,0.5718348026275635,0.5209808349609375,-0.304155558347702,0.777283251285553
1630059110325,0.5728915929794312,0.5212175250053406,-0.2852587401866913,0.7813283801078796
1630059110436,0.5798701047897339,0.5248070359230042,-0.275209367275238,0.8056355714797974
1630059110569,0.5872789025306702,0.5294880867004395,-0.2726910412311554,0.8385381698608398
1630059110646,0.5967581272125244,0.53385990858078,-0.2778652310371399,0.8652093410491943
1630059110743,0.6117551922798157,0.5385293960571289,-0.2896163761615753,0.8796849250793457
1630059110857,0.6296759843826294,0.5465593338012695,-0.3021636009216308,0.8847238421440125
1630059110936,0.6433703303337097,0.5593299269676208,-0.310723215341568,0.8864042162895203
1630059111030,0.6462340950965881,0.5736988186836243,-0.3171107470989227,0.888955295085907
1630059111174,0.6395798921585083,0.5843872427940369,-0.3245968520641327,0.8930246829986572
1630059111279,0.6299934983253479,0.5880361795425415,-0.3390470147132873,0.9042953252792358
1630059111341,0.6179105043411255,0.585727334022522,-0.3630533218383789,0.9102819561958312
1630059111435,0.613429605960846,0.5808440446853638,-0.3958188593387604,0.9119641184806824
1630059111547,0.6132082939147949,0.5768081545829773,-0.4356339275836944,0.9104196429252625
1630059111638,0.6116070747375488,0.5744428038597107,-0.4733133316040039,0.9068832993507384
1630059111819,0.6074197888374329,0.5722368955612183,-0.5033491849899292,0.9008822441101074
1630059111866,0.6061569452285767,0.5695508718490601,-0.5203099846839905,0.8889889121055603
1630059111975,0.6051851511001587,0.5664710998535156,-0.5253955125808716,0.8846288323402405
1630059112071,0.6027318835258484,0.5630974173545837,-0.5216390490531921,0.870219886302948
1630059112166,0.5970233082771301,0.5581783056259155,-0.5119832754135132,0.8510386347770691
1630059112259,0.5829586982727051,0.5487181544303894,-0.5013275742530823,0.8341991305351257
1630059112404,0.5577594041824341,0.5334620475769043,-0.4939862489700317,0.8224939703941345
1630059112466,0.5260481238365173,0.5155901908874512,-0.4899834990501404,0.8121304512023926
1630059112608,0.5024648308753967,0.5007458925247192,-0.4853262603282928,0.7964113354682922
1630059112704,0.4964669942855835,0.4931298792362213,-0.4791755378246307,0.7700505256652832
1630059112797,0.5011450052261353,0.4933701753616333,-0.4704720675945282,0.7301071882247925
1630059112890,0.5031977295875549,0.4983585178852081,-0.4607790112495422,0.6755846738815308
1630059113009,0.4966230392456054,0.5050920844078064,-0.4547894299030304,0.6109201908111572
1630059113108,0.4966230392456054,0.5101529955863953,-0.4563719928264618,0.6109201908111572
1630059113219,0.4966230392456054,0.5116738677024841,-0.4692995548248291,0.6109201908111572
1630059113304,0.4966230392456054,0.5092631578445435,-0.4895753562450409,0.6109201908111572
1630059113399,0.4966230392456054,0.503019392490387,-0.5103878378868103,0.6109201908111572
1630059113492,0.4966230392456054,0.4917633235454559,-0.5209564566612244,0.6109201908111572
1630059113618,0.4966230392456054,0.4752558171749115,-0.5103515386581421,0.6109201908111572
1630059113713,0.7590656876564026,0.456665426492691,-0.4767265021800995,0.9287987351417542
1630059113809,0.7539215087890625,0.4414660930633545,-0.4299938380718231,0.9065062403678894
1630059113903,0.7715539932250977,0.4339095950126648,-0.38778156042099,0.8829349875450134
1630059114028,0.8027176260948181,0.434474766254425,-0.3598000109195709,0.8634226322174072
1630059114107,0.8342083096504211,0.4415275454521179,-0.3453707695007324,0.8515992760658264
1630059114201,0.8342083096504211,0.4529649317264557,-0.3379587531089782,0.8515992760658264
1630059114315,0.8342083096504211,0.464260458946228,-0.3322276175022125,0.8515992760658264
1630059114406,0.8342083096504211,0.4724281430244446,-0.3262747526168823,0.8515992760658264
1630059114500,0.8342083096504211,0.4796079397201538,-0.3214526772499084,0.8515992760658264
1630059114574,0.8342083096504211,0.4924396276473999,-0.3187162578105926,0.8515992760658264
1630059114674,0.8342083096504211,0.5150777697563171,-0.3145068287849426,0.8515992760658264
1630059114848,0.8342083096504211,0.5439209342002869,-0.3063596785068512,0.8515992760658264
1630059114943,0.8413153886795044,0.5732808709144592,-0.2953400015830993,0.8311667442321777
1630059115050,0.8486519455909729,0.6001649498939514,-0.2890954613685608,0.8063697814941406
1630059115129,0.8654406666755676,0.6241000294685364,-0.2984132468700409,0.7815362811088562
1630059115206,0.898247241973877,0.6436640620231628,-0.3273074626922607,0.7576450705528259
1630059115315,0.898247241973877,0.6570031642913818,-0.3714281320571899,0.7576450705528259
1630059115450,0.898247241973877,0.6633604168891907,-0.4176440238952636,0.7576450705528259
1630059115539,0.898247241973877,0.6636483669281006,-0.4527257680892944,0.7576450705528259
1630059115642,0.898247241973877,0.6596571207046509,-0.4746623635292053,0.7576450705528259
1630059115736,0.898247241973877,0.652843713760376,-0.4898208677768707,0.7576450705528259
1630059115808,0.898247241973877,0.6458737850189209,-0.5001732110977173,0.7576450705528259
1630059115910,0.4855133593082428,0.6414371132850647,-0.5054211020469666,0.6003373265266418
1630059116082,0.4752959907054901,0.6383692026138306,-0.5012648105621338,0.599284827709198
1630059116111,0.4807017743587494,0.6319172382354736,-0.4864794015884399,0.6042788624763489
1630059116248,0.4981540143489837,0.616421103477478,-0.4616153538227081,0.613866925239563
1630059116328,0.5195592045783997,0.5915688872337341,-0.4313294291496277,0.6278122067451477
1630059116478,0.534831166267395,0.5614875555038452,-0.4031688868999481,0.640669584274292
1630059116519,0.5383593440055847,0.5308576226234436,-0.3807122111320495,0.647222101688385
1630059116661,0.5323846340179443,0.5030520558357239,-0.3643889129161834,0.6476417183876038
1630059116755,0.5231434106826782,0.4796152412891388,-0.3532090485095978,0.6456242203712463
1630059116885,0.518050491809845,0.4636625945568084,-0.3445665836334228,0.6434897780418396
1630059116940,0.5194584727287292,0.4580398797988891,-0.3342430889606476,0.6426854133605957
1630059117034,0.524156928062439,0.4623974859714508,-0.3189513683319092,0.6440590620040894
1630059117146,0.5221325159072876,0.4729699790477752,-0.2973389029502868,0.6493659615516663
1630059117257,0.5269712805747986,0.4838885068893432,-0.2717526257038116,0.6550580859184265
1630059117404,0.53590327501297,0.4908137321472168,-0.2488140612840652,0.6595550179481506
1630059117493,0.5468155145645142,0.4936048686504364,-0.23193921148777,0.6593928337097168
1630059117580,0.557844340801239,0.4943230450153351,-0.2234335988759994,0.6530179977416992
1630059117685,0.5653724074363708,0.4952657520771026,-0.2224465012550354,0.6417090892791748
1630059117733,0.5651508569717407,0.4990061223506927,-0.2280327826738357,0.6264198422431946
1630059117919,0.5568450093269348,0.5057933926582336,-0.2388693839311599,0.6065788269042969
1630059117968,0.546459436416626,0.5136598944664001,-0.2538411319255829,0.5862058997154236
1630059118087,0.5448123216629028,0.520254909992218,-0.2699686586856842,0.5766099691390991
1630059118165,0.5502181053161621,0.5249195694923401,-0.2822788655757904,0.57024747133255
1630059118258,0.5603312253952026,0.531719982624054,-0.2842539250850677,0.5655679106712341
1630059118339,0.5689772963523865,0.5429227352142334,-0.2750432789325714,0.5605731010437012
1630059118511,0.572016179561615,0.5566388368606567,-0.2600136697292328,0.5527283549308777
1630059118652,0.5705379843711853,0.5670588612556458,-0.2478998005390167,0.538573682308197
1630059118699,0.5684033632278442,0.5705243349075317,-0.2470941245555877,0.5142977833747864
1630059118761,0.5684784054756165,0.5700230002403259,-0.2564840912818908,0.4792594015598297
1630059118873,0.571010947227478,0.5711469650268555,-0.2719247043132782,0.4400602877140045
1630059118967,0.5696002244949341,0.5767083168029785,-0.2873532176017761,0.4079722762107849
1630059119108,0.5592436194419861,0.5840997099876404,-0.2984399199485779,0.3915454149246216
1630059119168,0.5592436194419861,0.5898937582969666,-0.3078371882438659,0.3915454149246216
1630059119262,0.5592436194419861,0.5926215648651123,-0.3203567564487457,0.3915454149246216
1630059119391,0.5592436194419861,0.5928557515144348,-0.3379756510257721,0.3915454149246216
1630059119453,0.5592436194419861,0.5922555923461914,-0.3574158847332001,0.3915454149246216
1630059119569,0.5592436194419861,0.591820478439331,-0.3740594685077667,0.3915454149246216
1630059119673,0.6102651357650757,0.5917773246765137,-0.3859048783779144,0.3915454149246216
1630059119803,0.5884740352630615,0.5903465151786804,-0.3974864780902862,0.3915454149246216
1630059119930,0.5627390146255493,0.585152268409729,-0.4121561348438263,0.7835140228271484
1630059119976,0.5350161194801331,0.5753376483917236,-0.4313002228736877,0.8148372769355774
1630059120104,0.509627640247345,0.5638975501060486,-0.4440853893756866,0.8222036957740784
1630059120185,0.4914318323135376,0.5543045997619629,-0.4346077144145965,0.8076714277267456
1630059120326,0.4838973581790924,0.5473043918609619,-0.407234787940979,0.7835404872894287
1630059120404,0.4842903614044189,0.5409517884254456,-0.3745234310626983,0.7613265514373779
1630059120480,0.4865954220294952,0.5326579809188843,-0.3530534207820892,0.7435999512672424
1630059120606,0.4874470233917236,0.5237975120544434,-0.3460310995578766,0.7271625995635986
1630059120731,0.4892533123493194,0.5167990922927856,-0.3447975218296051,0.7105273008346558
1630059120808,0.4972692131996155,0.51390141248703,-0.3424010276794433,0.6948357820510864
1630059120922,0.501401960849762,0.5161570310592651,-0.3378330767154693,0.6916188597679138
1630059121033,0.507506251335144,0.5226127505302429,-0.3320775628089905,0.7003123760223389
1630059121144,0.5104758143424988,0.5325189828872681,-0.326700896024704,0.7132359743118286
1630059121221,0.5080053210258484,0.5462672710418701,-0.321502149105072,0.7228797674179077
1630059121320,0.5093730688095093,0.5634641051292419,-0.3183006346225738,0.7220341563224792
1630059121382,0.5164771676063538,0.5821491479873657,-0.3217168748378753,0.7070299386978149
1630059121556,0.5296351313591003,0.5987074375152588,-0.3334871232509613,0.6851568222045898
1630059121635,0.5469516515731812,0.6088799238204956,-0.3561594486236572,0.6671895384788513
1630059121755,0.5648705363273621,0.6125273704528809,-0.3880299031734466,0.6632323861122131
1630059121833,0.5791487097740173,0.6127912402153015,-0.4234494268894195,0.6721909642219543
1630059121975,0.5892865061759949,0.6129076480865479,-0.454915851354599,0.6858552694320679
1630059122005,0.5993810892105103,0.6147605180740356,-0.4686605930328369,0.7011137008666992
1630059122135,0.6142539978027344,0.6166917681694031,-0.4629612565040588,0.7221710681915283
1630059122279,0.6320921778678894,0.616951048374176,-0.4450357556343078,0.7532165050506592
1630059122325,0.6406043171882629,0.6155396103858948,-0.4205502569675445,0.7884203791618347
1630059122421,0.6406043171882629,0.6135088205337524,-0.394222229719162,0.8151490688323975
1630059122543,0.6406043171882629,0.6123369932174683,-0.3704403638839721,0.8151490688323975
1630059122637,0.6406043171882629,0.6119920611381531,-0.3553686439990997,0.8151490688323975
1630059122777,0.6406043171882629,0.6097909212112427,-0.3529688417911529,0.8151490688323975
1630059122842,0.6406043171882629,0.6023920178413391,-0.3583554625511169,0.8151490688323975
1630059122940,0.6406043171882629,0.5902248620986938,-0.3622956573963165,0.8151490688323975
1630059123031,0.6406043171882629,0.5781961679458618,-0.3600137233734131,0.8151490688323975
1630059123111,0.4446785151958465,0.5740090608596802,-0.3518944084644317,0.6978297233581543
1630059123204,0.4274016320705414,0.5789051055908203,-0.3439210653305053,0.6978297233581543
1630059123341,0.4275898039340973,0.5867446660995483,-0.3394602835178375,0.6978297233581543
1630059123451,0.4432198703289032,0.5914848446846008,-0.3384082615375519,0.6978297233581543
1630059123544,0.4603643417358398,0.589638888835907,-0.3431446552276611,0.7204576730728149
1630059123649,0.4662896394729614,0.583734929561615,-0.3529393374919891,0.7489674687385559
1630059123793,0.4617524743080139,0.577345609664917,-0.3679827153682709,0.7695317268371582
1630059123840,0.4576227962970733,0.5712789297103882,-0.387322723865509,0.7746936082839966
1630059124018,0.4613555073738098,0.5648855566978455,-0.4053597152233124,0.7656832933425903
1630059124091,0.4738300144672394,0.556649923324585,-0.4163545668125152,0.7474690079689026
1630059124153,0.489745020866394,0.5473993420600891,-0.4119330942630768,0.7255226373672485
1630059124246,0.5045449137687683,0.5393179655075073,-0.3904320001602173,0.7029905319213867
1630059124338,0.517436146736145,0.5343582034111023,-0.3623294830322265,0.681566059589386
1630059124433,0.5271521806716919,0.5322981476783752,-0.3391259908676147,0.6630895733833313
1630059124622,0.5353653430938721,0.532234251499176,-0.3257620334625244,0.6415974497795105
1630059124701,0.5466704368591309,0.534130334854126,-0.3201984763145447,0.6121199131011963
1630059124749,0.5637090802192688,0.5380194783210754,-0.3205535113811493,0.5973716378211975
1630059124855,0.5853817462921143,0.5425355434417725,-0.3232133984565735,0.5870973467826843
1630059124955,0.6096048355102539,0.5467803478240967,-0.3239107131958008,0.5828625559806824
1630059125080,0.6331143379211426,0.5523914694786072,-0.3199663460254669,0.564968466758728
1630059125189,0.6534774303436279,0.5611159205436707,-0.3121784627437591,0.5407593846321106
1630059125314,0.6692787408828735,0.5736434459686279,-0.3026864230632782,0.51442950963974
1630059125423,0.680477499961853,0.5886752009391785,-0.2962644696235657,0.4957845509052276
1630059125517,0.6910690665245056,0.6054666042327881,-0.2957223355770111,0.4910531044006347
1630059125595,0.7032695412635803,0.6233388781547546,-0.3027921617031097,0.4992016553878784
1630059125673,0.7177847623825073,0.6385490298271179,-0.3190524876117706,0.5152254104614258
1630059125814,0.7209042310714722,0.6474773287773132,-0.3423193097114563,0.5263038873672485
1630059125895,0.7255266308784485,0.6495528221130371,-0.3674166798591614,0.539823591709137
1630059125973,0.7338508367538452,0.6469541192054749,-0.3886996805667877,0.5540879368782043
1630059126082,0.7462826371192932,0.6418288350105286,-0.4009675681591034,0.5689746737480164
1630059126176,0.7604795694351196,0.6340730786323547,-0.40045365691185,0.5857066512107849
1630059126284,0.7721025347709656,0.625253438949585,-0.3847774565219879,0.6045258641242981
1630059126393,0.775974452495575,0.619297981262207,-0.3617897033691406,0.6225137710571289
1630059126490,0.7685831785202026,0.6177363991737366,-0.3427011370658874,0.6354995965957642
1630059126567,0.7535869479179382,0.6169543862342834,-0.3323420584201813,0.6407765746116638
1630059126678,0.7432467341423035,0.6125941276550293,-0.3285447657108307,0.6401294469833374
1630059126803,0.7512516379356384,0.6039943099021912,-0.3261923789978027,0.6380628347396851
1630059126881,0.7512516379356384,0.5935125946998596,-0.3229646980762481,0.6380628347396851
1630059127018,0.7512516379356384,0.581912636756897,-0.321195900440216,0.6380628347396851
1630059127083,0.7512516379356384,0.567227303981781,-0.3200143575668335,0.6380628347396851
1630059127205,0.7512516379356384,0.5498499274253845,-0.3169429898262024,0.6380628347396851
1630059127311,0.7512516379356384,0.5333642959594727,-0.3118428289890289,0.6380628347396851
1630059127377,0.7512516379356384,0.5212104320526123,-0.3052013218402862,0.6380628347396851
1630059127536,0.7512516379356384,0.513790488243103,-0.2977024614810943,0.6380628347396851
1630059127663,0.7512516379356384,0.5076860189437866,-0.2909019291400909,0.6380628347396851
1630059127728,0.7512516379356384,0.4999119341373443,-0.2887844443321228,0.6380628347396851
1630059127808,0.7512516379356384,0.4884615242481231,-0.2983970642089844,0.6380628347396851
1630059127931,0.7512516379356384,0.478528082370758,-0.313394546508789,0.6380628347396851
1630059128087,0.7512516379356384,0.4648523032665252,-0.3327521085739136,0.6380628347396851
1630059128152,0.7512516379356384,0.452661782503128,-0.3493151366710663,0.6380628347396851
1630059128245,0.7512516379356384,0.4461016356945038,-0.3605004847049713,0.6380628347396851
1630059128351,0.7512516379356384,0.4434025585651397,-0.3696693181991577,0.6380628347396851
1630059128424,0.7512516379356384,0.4404215812683105,-0.377324104309082,0.6380628347396851
1630059128598,0.7512516379356384,0.4333207905292511,-0.3806740045547485,0.6380628347396851
1630059128627,0.7512516379356384,0.4237508475780487,-0.3789990842342376,0.6380628347396851
1630059128720,0.7512516379356384,0.4161017537117004,-0.3738636076450348,0.6380628347396851
1630059128852,0.7512516379356384,0.4420299828052521,-0.379581093788147,0.6380628347396851
1630059128985,0.7512516379356384,0.4673891365528106,-0.3804744184017181,0.6380628347396851
1630059129048,0.7512516379356384,0.4924333989620209,-0.3722583949565887,0.6380628347396851
1630059129166,0.7512516379356384,0.5145531296730042,-0.359720230102539,0.6380628347396851
1630059129213,1.0653988122940063,0.5315894484519958,-0.3559292554855346,0.6380628347396851
1630059129322,1.0242842435836792,0.5430217385292053,-0.3547478020191192,0.6380628347396851
1630059129464,0.979206085205078,0.5328344702720642,-0.3622293174266815,0.6980041861534119
1630059129557,0.9429806470870972,0.5288252234458923,-0.3721536993980407,0.6705684661865234
1630059129636,0.9207265973091124,0.5291589498519897,-0.374330461025238,0.6609167456626892
1630059129752,0.9098860621452332,0.5291589498519897,-0.3657755553722381,0.6701459288597107
1630059129847,0.9051515460014344,0.5291589498519897,-0.3494828343391418,0.6873122453689575
1630059129940,0.9029032588005066,0.5291589498519897,-0.3322605788707733,0.6985833644866943
1630059130059,0.9005487561225891,0.5291589498519897,-0.3207856714725494,0.6984544396400452
1630059130175,0.8958174586296082,0.5291589498519897,-0.3151365220546722,0.6925207376480103
1630059130277,0.8903096318244934,0.5291589498519897,-0.3135825097560882,0.6925207376480103
1630059130382,0.8875659108161926,0.5189172029495239,-0.3057202994823456,0.6925207376480103
1630059130413,0.8718854784965515,0.5217581391334534,-0.3011320829391479,0.6925207376480103
1630059130533,0.8496604561805725,0.5355122685432434,-0.2993656396865845,0.6925207376480103
1630059130683,0.8262729644775391,0.5331971645355225,-0.2939295470714569,0.6806977391242981
1630059130759,0.8110011219978333,0.5363886952400208,-0.2785018384456634,0.6743948459625244
1630059130861,0.8115900754928589,0.5467232465744019,-0.2516874969005584,0.6764613389968872
1630059130939,0.8258351683616638,0.5611931681632996,-0.242311030626297,0.6893559098243713
1630059131061,0.8435139060020447,0.5753018260002136,-0.2298498302698135,0.7100029587745667
1630059131182,0.8566187620162964,0.5753018260002136,-0.2187087535858154,0.7276394367218018
1630059131274,0.862662672996521,0.5753018260002136,-0.2123542129993438,0.7291004061698914
1630059131393,0.863097608089447,0.5753018260002136,-0.2122565507888794,0.7291004061698914
1630059131498,0.8596877455711365,0.5753018260002136,-0.2162799686193466,0.7291004061698914
1630059131557,0.8560947179794312,0.5753018260002136,-0.218027114868164,0.7291004061698914
1630059131662,0.8560947179794312,0.5753018260002136,-0.2139499932527542,0.7291004061698914
1630059131797,0.8560947179794312,0.5753018260002136,-0.2021509110927581,0.7291004061698914
1630059131902,0.8560947179794312,0.5753018260002136,-0.182436466217041,0.7291004061698914
1630059131993,0.8560947179794312,0.5753018260002136,-0.1524624079465866,0.7291004061698914
1630059132114,0.8560947179794312,0.5753018260002136,-0.1524624079465866,0.7291004061698914
1630059132203,0.8560947179794312,0.5753018260002136,-0.1524624079465866,0.7291004061698914
1630059132278,0.8560947179794312,0.5753018260002136,-0.1524624079465866,0.7291004061698914
1630059132352,0.8560947179794312,0.5753018260002136,-0.1524624079465866,0.7291004061698914
1630059132502,0.8560947179794312,0.5753018260002136,-0.1524624079465866,0.7291004061698914
1630059132594,0.8560947179794312,0.5753018260002136,-0.1524624079465866,0.7291004061698914
1630059132683,0.8560947179794312,0.5753018260002136,-0.1524624079465866,0.7291004061698914
1630059132803,0.8560947179794312,0.5753018260002136,-0.1524624079465866,0.7291004061698914
1630059132922,0.8560947179794312,0.5753018260002136,-0.1524624079465866,0.7291004061698914
1630059132982,0.8560947179794312,0.5753018260002136,-0.1524624079465866,0.7291004061698914
1630059133086,0.8560947179794312,0.5753018260002136,-0.1524624079465866,0.7291004061698914
1630059133253,0.8560947179794312,0.5753018260002136,-0.1524624079465866,0.7291004061698914
1630059133341,0.8560947179794312,0.5753018260002136,-0.1524624079465866,0.7291004061698914
1630059133418,0.8560947179794312,0.5753018260002136,-0.1524624079465866,0.7291004061698914
1630059133492,0.8560947179794312,0.5753018260002136,-0.1524624079465866,0.7291004061698914
1630059133613,0.8560947179794312,0.5753018260002136,-0.1524624079465866,0.7291004061698914
1630059133702,0.8560947179794312,0.5753018260002136,-0.1524624079465866,0.7291004061698914
1630059133821,0.8560947179794312,0.5753018260002136,-0.1524624079465866,0.7291004061698914
1630059133917,0.8560947179794312,0.5753018260002136,-0.1524624079465866,0.7291004061698914
1630059134033,0.8560947179794312,0.5753018260002136,-0.1524624079465866,0.7291004061698914
1630059134109,0.8560947179794312,0.5753018260002136,-0.1524624079465866,0.7291004061698914
1630059134181,0.8560947179794312,0.5753018260002136,-0.1524624079465866,0.7291004061698914
1630059134318,0.8560947179794312,0.5753018260002136,-0.1524624079465866,0.7291004061698914
1630059134439,0.8560947179794312,0.5753018260002136,-0.1524624079465866,0.7291004061698914
1630059134513,0.8560947179794312,0.5753018260002136,-0.5546237826347351,0.7291004061698914
1630059134602,0.8560947179794312,0.5753018260002136,-0.5505586862564087,0.7291004061698914
1630059134748,0.8560947179794312,0.5753018260002136,-0.536431074142456,0.7291004061698914
1630059134814,0.8560947179794312,0.5753018260002136,-0.5275247693061829,0.7291004061698914
1630059134923,0.8560947179794312,0.5753018260002136,-0.5295940041542053,0.7291004061698914
1630059135042,0.8560947179794312,0.5753018260002136,-0.5354573130607605,0.7291004061698914
1630059135117,0.8560947179794312,0.5703546404838562,-0.5385222434997559,0.7291004061698914
1630059135253,0.8560947179794312,0.5629733800888062,-0.5377786755561829,0.7291004061698914
1630059135342,0.8560947179794312,0.5593680143356323,-0.538359522819519,0.7291004061698914
1630059135418,0.8560947179794312,0.5609464049339294,-0.5442577600479126,0.7291004061698914
1630059135553,0.8560947179794312,0.5668505430221558,-0.5532402992248535,0.7291004061698914
1630059135643,0.8560947179794312,0.5736470222473145,-0.5617925524711609,0.7291004061698914
1630059135763,0.8560947179794312,0.5776625275611877,-0.5705214142799377,0.7291004061698914
1630059135822,0.8560947179794312,0.5776625275611877,-0.5661320090293884,0.7291004061698914
1630059135942,0.8560947179794312,0.5776625275611877,-0.5424401164054871,0.7291004061698914
1630059136002,0.8560947179794312,0.5776625275611877,-0.5086432099342346,0.7291004061698914
1630059136155,0.8560947179794312,0.5776625275611877,-0.4777225255966186,0.7291004061698914
1630059136242,0.8560947179794312,0.5776625275611877,-0.4781370162963867,0.7291004061698914
1630059136362,0.8560947179794312,0.5784508585929871,-0.478177398443222,0.7291004061698914
1630059136421,0.8560947179794312,0.5770930647850037,-0.4730916321277618,0.7291004061698914
1630059136530,0.8560947179794312,0.577489972114563,-0.4641834497451782,0.7291004061698914
1630059136641,0.8560947179794312,0.5824670195579529,-0.4551136791706085,0.7291004061698914
1630059136760,0.8560947179794312,0.5822967290878296,-0.4474994540214538,0.7291004061698914
1630059136843,0.8560947179794312,0.5809774398803711,-0.4367374181747436,0.7291004061698914
1630059136968,0.8560947179794312,0.574822187423706,-0.4157013297080993,0.7291004061698914
1630059137048,0.8560947179794312,0.5600202083587646,-0.3829898536205292,0.7291004061698914
1630059137140,0.8560947179794312,0.5371934175491333,-0.3398679196834564,0.7291004061698914
1630059137233,0.8560947179794312,0.5135017037391663,-0.2913441956043243,0.7291004061698914
1630059137395,0.8560947179794312,0.5087817907333374,-0.2913441956043243,0.7291004061698914
1630059137457,0.8560947179794312,0.5052716135978699,-0.2913441956043243,0.7291004061698914
1630059137558,0.8560947179794312,0.5032140016555786,-0.2913441956043243,0.7291004061698914
1630059137636,0.8560947179794312,0.5032563209533691,-0.2913441956043243,0.7291004061698914
1630059137761,0.8560947179794312,0.5044061541557312,-0.4122345149517059,0.7291004061698914
1630059137852,0.8560947179794312,0.5044082999229431,-0.4246111810207367,0.7291004061698914
1630059137974,0.8560947179794312,0.5010280609130859,-0.4206700623035431,0.7291004061698914
1630059138107,0.8560947179794312,0.4934362769126892,-0.3976916670799255,0.7291004061698914
1630059138184,0.8560947179794312,0.4837813973426819,-0.3663603365421295,0.7291004061698914
1630059138248,0.8560947179794312,0.4708308577537536,-0.3416798710823059,0.7291004061698914
1630059138384,0.8560947179794312,0.4602409601211548,-0.3308241069316864,0.7291004061698914
1630059138495,0.8560947179794312,0.4540275931358337,-0.3329264223575592,0.7291004061698914
1630059138624,0.8560947179794312,0.452884316444397,-0.3420117199420929,0.7291004061698914
1630059138687,0.8560947179794312,0.4555140137672424,-0.3542309701442718,0.7291004061698914
1630059138801,0.8560947179794312,0.4581791758537292,-0.3693037927150726,0.7291004061698914
1630059138881,0.8560947179794312,0.456582099199295,-0.3862367272377014,0.7291004061698914
1630059138991,0.8560947179794312,0.4503465294837951,-0.4054250717163086,0.7291004061698914
1630059139086,0.8560947179794312,0.4410818815231323,-0.4204810559749603,0.7291004061698914
1630059139225,0.8560947179794312,0.4314101934432983,-0.4222339689731598,0.7291004061698914
1630059139304,0.8560947179794312,0.425253301858902,-0.4175235331058502,0.7291004061698914
1630059139400,0.8560947179794312,0.4190045595169067,-0.4132038652896881,0.7291004061698914
1630059139464,0.8560947179794312,0.4158319234848022,-0.4141949713230133,0.7291004061698914
1630059139606,0.8560947179794312,0.4186618328094482,-0.4286424815654754,0.7291004061698914
1630059139668,0.8560947179794312,0.4266370236873626,-0.4609329998493194,0.7291004061698914
1630059139842,0.8560947179794312,0.4365592002868652,-0.506561815738678,0.7291004061698914
1630059139904,0.8560947179794312,0.4434983730316162,-0.5542402267456055,0.7291004061698914
1630059140016,0.8560947179794312,0.4434045255184173,-0.5920630693435669,0.7291004061698914
1630059140111,0.8560947179794312,0.4345138669013977,-0.6193141341209412,0.7291004061698914
1630059140221,0.8560947179794312,0.4172644019126892,-0.6380101442337036,0.7291004061698914
1630059140308,0.8560947179794312,0.3952091336250305,-0.6384661197662354,0.7291004061698914
1630059140406,0.8560947179794312,0.3786009848117828,-0.6384661197662354,0.7291004061698914
1630059140530,0.8560947179794312,0.3786009848117828,-0.6384661197662354,0.7291004061698914
1630059140594,0.8560947179794312,0.3786009848117828,-0.6384661197662354,0.7291004061698914
1630059140741,0.8560947179794312,0.3786009848117828,-0.6384661197662354,0.7291004061698914
1630059140823,0.8560947179794312,0.3786009848117828,-0.6384661197662354,0.7291004061698914
1630059140896,0.8560947179794312,0.3786009848117828,-0.6384661197662354,0.7291004061698914
1630059141032,0.8560947179794312,0.3786009848117828,-0.6384661197662354,0.7291004061698914
1630059141174,0.8560947179794312,0.3786009848117828,-0.6384661197662354,0.7291004061698914
1630059141252,0.8560947179794312,0.3786009848117828,-0.6384661197662354,0.7291004061698914
1630059141282,0.8560947179794312,0.3786009848117828,-0.6384661197662354,0.7291004061698914
1630059141406,0.8560947179794312,0.3786009848117828,-0.6384661197662354,0.7291004061698914
1630059141501,0.8560947179794312,0.3786009848117828,-0.6384661197662354,0.7291004061698914
1630059141654,0.8560947179794312,0.3786009848117828,-0.6384661197662354,0.7291004061698914
1630059141734,0.8560947179794312,0.3786009848117828,-0.6384661197662354,0.7291004061698914
1630059141811,0.8560947179794312,0.3786009848117828,-0.6384661197662354,0.7291004061698914
1630059141937,0.8560947179794312,0.3786009848117828,-0.6384661197662354,0.7291004061698914
1630059142017,0.8560947179794312,0.3786009848117828,-0.6384661197662354,0.7291004061698914
1630059142114,0.8560947179794312,0.3786009848117828,-0.6384661197662354,0.7291004061698914
1630059142290,0.8560947179794312,0.3786009848117828,-0.6384661197662354,0.7291004061698914
1630059142370,0.8560947179794312,0.3786009848117828,-0.6384661197662354,0.7291004061698914
1630059142450,0.8560947179794312,0.3786009848117828,-0.6384661197662354,0.7291004061698914
1630059142530,0.8560947179794312,0.3786009848117828,-0.6384661197662354,0.7291004061698914
1630059142673,0.8560947179794312,0.3786009848117828,-0.6384661197662354,0.7291004061698914
1630059142733,0.8560947179794312,0.3786009848117828,-0.6384661197662354,0.7291004061698914
1630059142888,0.8560947179794312,0.3786009848117828,-0.6384661197662354,0.7291004061698914
1630059142969,0.8560947179794312,0.3786009848117828,-0.6384661197662354,0.7291004061698914
1630059143066,0.8560947179794312,0.3786009848117828,-0.6384661197662354,0.7291004061698914
1630059143172,0.8560947179794312,0.3786009848117828,-0.6384661197662354,0.7291004061698914
1630059143264,0.8560947179794312,0.3786009848117828,-0.6384661197662354,0.7291004061698914
1630059143326,0.8560947179794312,0.3786009848117828,-0.6384661197662354,0.7291004061698914
1630059143477,0.8560947179794312,0.3786009848117828,-0.6384661197662354,0.7291004061698914
1630059143586,0.8560947179794312,0.3786009848117828,-0.6384661197662354,0.7291004061698914
1630059143634,0.8560947179794312,0.3786009848117828,-0.5032933354377747,0.7291004061698914
1630059143781,0.8560947179794312,0.3786009848117828,-0.4474717974662781,0.7291004061698914
1630059143856,0.8560947179794312,0.4005365371704101,-0.3999826312065124,0.7291004061698914
1630059143932,0.8560947179794312,0.4200689494609833,-0.3601325750350952,0.7291004061698914
1630059144098,0.8560947179794312,0.4389441609382629,-0.332704097032547,0.7291004061698914
1630059144216,0.8560947179794312,0.4460619986057281,-0.3236379027366638,0.7291004061698914
1630059144320,0.8560947179794312,0.4436034858226776,-0.3326907455921173,0.7291004061698914
1630059144381,0.8560947179794312,0.4380280971527099,-0.3523297607898712,0.7291004061698914
1630059144455,0.8560947179794312,0.4337256550788879,-0.3756832778453827,0.7291004061698914
1630059144532,0.8560947179794312,0.4305167198181152,-0.398671954870224,0.7291004061698914
1630059144741,0.8560947179794312,0.4278393685817718,-0.416960209608078,0.7291004061698914
1630059144800,0.8560947179794312,0.4270821511745453,-0.4306383430957794,0.7291004061698914
1630059144878,0.8560947179794312,0.4303191602230072,-0.4275624454021454,0.7291004061698914
1630059144981,0.8560947179794312,0.4381424188613891,-0.4283451735973358,0.7291004061698914
1630059145070,0.8560947179794312,0.4479613006114959,-0.4372952878475189,0.7291004061698914
1630059145159,0.8560947179794312,0.4609708189964294,-0.4499642550945282,0.7291004061698914
1630059145311,0.8560947179794312,0.4735320210456848,-0.4589630663394928,0.7291004061698914
1630059145400,0.8560947179794312,0.4833572208881378,-0.4598135650157928,0.7291004061698914
1630059145519,0.8560947179794312,0.4921523034572601,-0.4557909071445465,0.530626654624939
1630059145581,0.8560947179794312,0.5056193470954895,-0.4513966739177704,0.5425119400024414
1630059145701,0.8560947179794312,0.5069546699523926,-0.4422242939472198,0.5399165153503418
1630059145821,0.8560947179794312,0.5125995874404907,-0.4201875627040863,0.5262251496315002
1630059145957,0.8560947179794312,0.5213711261749268,-0.3861813843250274,0.5051206350326538
1630059146030,0.8560947179794312,0.5313617587089539,-0.3680129945278168,0.4813733100891113
1630059146119,0.8560947179794312,0.5427634716033936,-0.3459969162940979,0.4813733100891113
1630059146181,0.8560947179794312,0.5562893152236938,-0.3239266574382782,0.4813733100891113
1630059146272,0.8560947179794312,0.5708564519882202,-0.3020530343055725,0.4813733100891113
1630059146391,0.8560947179794312,0.5834895968437195,-0.2795083820819855,0.4813733100891113
1630059146511,0.8560947179794312,0.5910654664039612,-0.254780501127243,0.4813733100891113
1630059146574,0.8560947179794312,0.5943887233734131,-0.2248921394348144,0.4813733100891113
1630059146751,0.8560947179794312,0.6001059412956238,-0.194410964846611,0.4837107956409454
1630059146813,0.8560947179794312,0.6001059412956238,-0.1702683866024017,0.4822039604187011
1630059146917,0.8560947179794312,0.6001059412956238,-0.1599092334508896,0.4684129059314728
1630059147021,0.8560947179794312,0.6001059412956238,-0.16343554854393,0.4375067055225372
1630059147111,0.8560947179794312,0.6001059412956238,-0.16343554854393,0.3904156982898712
1630059147246,0.8560947179794312,0.6001059412956238,-0.16343554854393,0.3904156982898712
1630059147277,0.8560947179794312,0.6001059412956238,-0.16343554854393,0.3904156982898712
1630059147413,0.8560947179794312,0.6001059412956238,-0.16343554854393,0.3904156982898712
1630059147516,0.8560947179794312,0.6001059412956238,-0.16343554854393,0.3904156982898712
1630059147621,0.8560947179794312,0.6001059412956238,-0.16343554854393,0.3904156982898712
1630059147784,0.8560947179794312,0.6001059412956238,-0.16343554854393,0.3904156982898712
1630059147816,0.8560947179794312,0.6001059412956238,-0.16343554854393,0.3904156982898712
1630059148000,0.8560947179794312,0.6001059412956238,-0.16343554854393,0.3904156982898712
1630059148040,0.8560947179794312,0.6001059412956238,-0.16343554854393,0.3904156982898712
1630059148117,0.8560947179794312,0.6001059412956238,-0.16343554854393,0.3904156982898712
1630059148191,0.8560947179794312,0.6001059412956238,-0.16343554854393,0.3904156982898712
1630059148341,0.8560947179794312,0.6001059412956238,-0.16343554854393,0.3904156982898712
1630059148431,0.8560947179794312,0.6001059412956238,-0.16343554854393,0.3904156982898712
1630059148519,0.8560947179794312,0.6001059412956238,-0.16343554854393,0.3904156982898712
1630059148639,0.8560947179794312,0.6001059412956238,-0.16343554854393,0.3904156982898712
1630059148732,0.8560947179794312,0.6001059412956238,-0.16343554854393,0.3904156982898712
1630059148836,0.8560947179794312,0.4602971971035003,-0.4096107184886932,0.3904156982898712
1630059148940,0.8560947179794312,0.4633746743202209,-0.4029781818389892,0.3904156982898712
1630059149030,0.8560947179794312,0.4674179255962372,-0.4034264087677002,0.3904156982898712
1630059149157,0.8560947179794312,0.472304105758667,-0.3959285914897918,0.3904156982898712
1630059149230,0.8560947179794312,0.4773878157138824,-0.3732468783855438,0.3904156982898712
1630059149320,1.015226125717163,0.4805518984794616,-0.3465127050876617,0.3904156982898712
1630059149440,1.0051037073135376,0.4808366894721985,-0.3296242952346802,0.3904156982898712
1630059149560,1.0051037073135376,0.482583999633789,-0.3258824348449707,0.3904156982898712
1630059149653,1.0051037073135376,0.482583999633789,-0.3288208544254303,0.3904156982898712
1630059149773,1.0051037073135376,0.482583999633789,-0.3253238499164581,0.3904156982898712
1630059149830,1.0051037073135376,0.482583999633789,-0.3253238499164581,0.3904156982898712
1630059150000,1.0051037073135376,0.482583999633789,-0.3253238499164581,0.3904156982898712
1630059150016,1.0051037073135376,0.4841294586658478,-0.3115476667881012,0.3904156982898712
1630059150214,1.0051037073135376,0.4869398176670074,-0.3017766177654266,0.3904156982898712
1630059150270,1.0051037073135376,0.5059374570846558,-0.3096268773078918,0.3904156982898712
1630059150390,1.0051037073135376,0.5176896452903748,-0.3240664005279541,0.3904156982898712
1630059150452,1.0051037073135376,0.522689700126648,-0.3190748393535614,0.3904156982898712
1630059150557,1.004936456680298,0.5275455117225647,-0.3104377388954162,0.3904156982898712
1630059150661,1.004936456680298,0.5318906307220459,-0.3053463101387024,0.3904156982898712
1630059150813,1.004936456680298,0.5358753800392151,-0.3153825104236603,0.3904156982898712
1630059150919,1.004936456680298,0.543247640132904,-0.3434423506259918,0.3904156982898712
1630059150959,1.004936456680298,0.543247640132904,-0.3783998489379883,0.3904156982898712
1630059151037,1.004936456680298,0.543247640132904,-0.4035840630531311,0.3904156982898712
1630059151199,1.004936456680298,0.543247640132904,-0.4035840630531311,0.3904156982898712
1630059151230,1.004936456680298,0.543247640132904,-0.4035840630531311,0.3904156982898712
1630059151412,1.004936456680298,0.543247640132904,-0.4035840630531311,0.3904156982898712
1630059151532,1.004936456680298,0.543247640132904,-0.4035840630531311,0.3904156982898712
1630059151590,1.004936456680298,0.543247640132904,-0.4035840630531311,0.3904156982898712
1630059151680,1.004936456680298,0.543247640132904,-0.4035840630531311,0.3904156982898712
1630059151757,1.004936456680298,0.543247640132904,-0.4035840630531311,0.3904156982898712
1630059151877,1.004936456680298,0.543247640132904,-0.4035840630531311,0.3904156982898712
1630059152040,1.004936456680298,0.543247640132904,-0.4035840630531311,0.3904156982898712
1630059152071,1.004936456680298,0.543247640132904,-0.4035840630531311,0.3904156982898712
1630059152178,1.004936456680298,0.543247640132904,-0.4035840630531311,0.3904156982898712
1630059152251,1.004936456680298,0.543247640132904,-0.4035840630531311,0.3904156982898712
1630059152372,1.004936456680298,0.543247640132904,-0.6101611256599426,0.3904156982898712
1630059152461,1.004936456680298,0.543247640132904,-0.6040114164352417,0.3904156982898712
1630059152597,1.004936456680298,0.543247640132904,-0.5780945420265198,0.3904156982898712
1630059152733,1.004936456680298,0.543247640132904,-0.5407190918922424,0.3904156982898712
1630059152821,1.004936456680298,0.543247640132904,-0.5089889168739319,0.3904156982898712
1630059152910,1.004936456680298,0.543247640132904,-0.4900050163269043,0.3904156982898712
1630059153061,1.004936456680298,0.543247640132904,-0.4843383729457855,0.3904156982898712
1630059153119,1.004936456680298,0.543247640132904,-0.4865680932998657,0.3904156982898712
1630059153212,1.004936456680298,0.543247640132904,-0.4864500761032104,0.3904156982898712
1630059153301,1.004936456680298,0.543247640132904,-0.4790332913398742,0.3904156982898712
1630059153390,1.004936456680298,0.543247640132904,-0.464904636144638,0.3904156982898712
1630059153514,1.004936456680298,0.543247640132904,-0.4504332244396209,0.3904156982898712
1630059153600,1.004936456680298,0.543247640132904,-0.4322928190231323,0.3904156982898712
1630059153719,1.004936456680298,0.558445394039154,-0.4232274293899536,0.3904156982898712
1630059153856,1.004936456680298,0.5737348198890686,-0.4197827577590942,0.3904156982898712
1630059153960,1.004936456680298,0.5959797501564026,-0.41954305768013,0.3904156982898712
1630059154052,1.004936456680298,0.611103892326355,-0.4218425452709198,0.3904156982898712
1630059154097,1.004936456680298,0.6147576570510864,-0.4263222217559814,0.3904156982898712
1630059154261,1.004936456680298,0.6125010848045349,-0.4281437993049621,0.3904156982898712
1630059154320,1.004936456680298,0.6118464469909668,-0.4203788936138153,0.3904156982898712
1630059154471,1.004936456680298,0.6162716150283813,-0.4248487055301666,0.3904156982898712
1630059154560,1.004936456680298,0.6231030821800232,-0.4239716827869415,0.3904156982898712
1630059154621,1.004936456680298,0.628402054309845,-0.4175487160682678,0.3904156982898712
1630059154725,1.004936456680298,0.628402054309845,-0.4118942022323608,0.3904156982898712
1630059154830,1.004936456680298,0.628402054309845,-0.4132361710071563,0.3904156982898712
1630059154920,1.004936456680298,0.6299390196800232,-0.4258318543434143,0.3904156982898712
1630059155062,1.004936456680298,0.6360920071601868,-0.446880042552948,0.3904156982898712
1630059155136,1.004936456680298,0.6463448405265808,-0.480485737323761,0.3904156982898712
1630059155240,1.004936456680298,0.6480025053024292,-0.4954235851764679,0.3904156982898712
1630059155360,1.004936456680298,0.6415488719940186,-0.4869333207607269,0.3904156982898712
1630059155421,1.004936456680298,0.6354660391807556,-0.4642907083034515,0.3904156982898712
1630059155511,1.004936456680298,0.6278207898139954,-0.4344549477100372,0.3904156982898712
1630059155645,1.004936456680298,0.6261252760887146,-0.4099612534046173,0.3904156982898712
1630059155739,1.004936456680298,0.6312537789344788,-0.4070373177528381,0.3904156982898712
1630059155816,1.004936456680298,0.6361497044563293,-0.4355485737323761,0.3904156982898712
1630059155976,1.004936456680298,0.6304557919502258,-0.4470519125461578,0.3904156982898712
1630059156094,1.004936456680298,0.6304557919502258,-0.4654192328453064,0.3904156982898712
1630059156130,1.004936456680298,0.6304557919502258,-0.483068436384201,0.3904156982898712
1630059156287,1.004936456680298,0.6304557919502258,-0.483068436384201,0.3904156982898712
1630059156374,1.004936456680298,0.6304557919502258,-0.483068436384201,0.3904156982898712
1630059156454,1.004936456680298,0.6304557919502258,-0.483068436384201,0.3904156982898712
1630059156546,1.004936456680298,0.6304557919502258,-0.483068436384201,0.3904156982898712
1630059156672,1.004936456680298,0.6304557919502258,-0.4739529490470886,0.3904156982898712
1630059156768,1.004936456680298,0.6304557919502258,-0.4662125408649444,0.3904156982898712
1630059156866,1.004936456680298,0.6304557919502258,-0.4651975929737091,0.3904156982898712
1630059156977,1.004936456680298,0.6304557919502258,-0.4729824364185333,0.3904156982898712
1630059157088,1.004936456680298,0.6304557919502258,-0.4931291937828064,0.3904156982898712
1630059157184,1.004936456680298,0.6304557919502258,-0.5303247570991516,0.3904156982898712
1630059157263,1.004936456680298,0.6304557919502258,-0.5016171336174011,0.3904156982898712
1630059157344,1.004936456680298,0.6304557919502258,-0.4379132091999054,0.3904156982898712
1630059157501,1.004936456680298,0.6304557919502258,-0.3536492884159088,0.3904156982898712
1630059157591,1.004936456680298,0.6304557919502258,-0.2650478482246399,0.3904156982898712
1630059157732,1.004936456680298,0.5288342237472534,-0.1899594515562057,0.3904156982898712
1630059157777,1.004936456680298,0.5565134286880493,-0.1909613758325576,0.3904156982898712
1630059157840,1.004936456680298,0.5744997262954712,-0.2015040814876556,0.3904156982898712
1630059157967,1.004936456680298,0.582759439945221,-0.2166128158569336,0.3904156982898712
1630059158092,1.004936456680298,0.5838848352432251,-0.2325602620840072,0.3904156982898712
1630059158220,1.004936456680298,0.5821422934532166,-0.2464018613100052,0.3904156982898712
1630059158298,1.004936456680298,0.579262375831604,-0.2606498599052429,0.3904156982898712
1630059158373,1.004936456680298,0.5751030445098877,-0.2733395397663116,0.3904156982898712
1630059158482,1.004936456680298,0.569246232509613,-0.2733395397663116,0.3904156982898712
1630059158560,1.004936456680298,0.5611783862113953,-0.2733395397663116,0.3904156982898712
1630059158670,1.004936456680298,0.5525268912315369,-0.2733395397663116,0.3904156982898712
1630059158780,1.004936456680298,0.5448152422904968,-0.2730230689048767,0.3904156982898712
1630059158888,1.004936456680298,0.5494866371154785,-0.279581755399704,0.3904156982898712
1630059158985,1.004936456680298,0.5546194314956665,-0.2931860983371734,0.3904156982898712
1630059159095,1.004936456680298,0.556141197681427,-0.3152116537094116,0.3904156982898712
1630059159205,1.004936456680298,0.550483763217926,-0.3445262014865875,0.3904156982898712
1630059159305,1.004936456680298,0.5388458371162415,-0.3750895261764526,0.3904156982898712
1630059159398,1.004936456680298,0.5238349437713623,-0.3993351757526397,0.3904156982898712
1630059159524,1.004936456680298,0.5086561441421509,-0.415443480014801,0.3904156982898712
1630059159591,1.004936456680298,0.4953850209712982,-0.415443480014801,0.3904156982898712
1630059159684,1.004936456680298,0.482019305229187,-0.415443480014801,0.3904156982898712
1630059159789,1.004936456680298,0.46645188331604,-0.415443480014801,0.3904156982898712
1630059159932,1.004936456680298,0.4486475586891174,-0.415443480014801,0.3904156982898712
1630059159995,1.004936456680298,0.4486475586891174,-0.415443480014801,0.3904156982898712
1630059160088,1.004936456680298,0.4486475586891174,-0.415443480014801,0.3904156982898712
1630059160245,1.004936456680298,0.4486475586891174,-0.415443480014801,0.3904156982898712
1630059160323,1.004936456680298,0.4486475586891174,-0.415443480014801,0.3904156982898712
1630059160401,1.004936456680298,0.6074029207229614,-0.1181518957018852,0.3904156982898712
1630059160526,1.004936456680298,0.5994139313697815,-0.0352116674184799,0.3904156982898712
1630059160620,1.004936456680298,0.5895501971244812,0.0237715598195791,0.3904156982898712
1630059160737,1.004936456680298,0.5773549675941467,0.0514436326920986,0.3904156982898712
1630059160808,1.004936456680298,0.5677301287651062,0.0572877004742622,0.3904156982898712
1630059160916,1.004936456680298,0.564490795135498,0.0545587688684463,0.3904156982898712
1630059161005,1.004936456680298,0.5675783157348633,0.0536141321063041,0.3904156982898712
1630059161147,1.004936456680298,0.5726498365402222,0.0569704733788967,0.3904156982898712
1630059161239,1.004936456680298,0.5760655403137207,0.0618489049375057,0.3904156982898712
1630059161349,1.004936456680298,0.5764549374580383,0.0646362006664276,0.3904156982898712
1630059161397,1.004936456680298,0.5754457712173462,0.0639045909047126,0.3904156982898712
1630059161555,1.004936456680298,0.5756855010986328,0.0596704743802547,0.3904156982898712
1630059161623,1.004936456680298,0.5732463002204895,0.0669062957167625,0.3904156982898712
1630059161794,1.004936456680298,0.5734681487083435,0.0687315389513969,0.2853281497955322
1630059161841,1.004936456680298,0.5742470026016235,0.0621064826846122,0.267518937587738
1630059161954,1.004936456680298,0.5738924145698547,0.0430257581174373,0.2674189805984497
1630059162032,0.7327667474746704,0.5736730098724365,0.0118489190936088,0.2915039658546448
1630059162188,0.7390891909599304,0.5751482844352722,-0.0266229324042797,0.3386570513248443
1630059162282,0.742982029914856,0.577477216720581,-0.0616966560482978,0.3944016695022583
1630059162360,0.7427975535392761,0.5771764516830444,-0.0875662267208099,0.4422596395015716
1630059162484,0.7383670806884766,0.5722987055778503,-0.1065190732479095,0.4744110107421875
1630059162622,0.7314435839653015,0.5631245374679565,-0.1251736730337143,0.4926407933235168
1630059162653,0.7251148223876953,0.5524876713752747,-0.1476908177137375,0.5030854344367981
1630059162732,0.7201613783836365,0.5430631637573242,-0.1744726151227951,0.5104649066925049
1630059162826,0.7153350114822388,0.537024199962616,-0.2036867588758468,0.5147674083709717
1630059163001,0.7080792188644409,0.5344341397285461,-0.2337536364793777,0.5237178206443787
1630059163078,0.6968799829483032,0.532719075679779,-0.2605746686458587,0.527645468711853
1630059163187,0.683227002620697,0.529620349407196,-0.2798501551151275,0.5281016230583191
1630059163248,0.6677650809288025,0.5263955593109131,-0.2908378839492798,0.5270798206329346
1630059163371,0.6478177309036255,0.5260961055755615,-0.2949041724205017,0.524431049823761
1630059163450,0.6240164041519165,0.529845654964447,-0.2926999032497406,0.5193085670471191
1630059163564,0.6127938032150269,0.5342197418212891,-0.28150674700737,0.5259764194488525
1630059163676,0.5987097024917603,0.5355954766273499,-0.2586358785629272,0.5220319032669067
1630059163769,0.5818761587142944,0.5345309972763062,-0.2255916148424148,0.5049185752868652
1630059163845,0.5639492273330688,0.5346043109893799,-0.187392771244049,0.4772661328315735
1630059163940,0.5468090176582336,0.5385234951972961,-0.1502855271100998,0.4456395506858825
1630059164053,0.5304286479949951,0.5469565391540527,-0.1209922954440116,0.4147366285324096
1630059164196,0.5105013251304626,0.559156596660614,-0.1025830134749412,0.3823382258415222
1630059164285,0.4826613068580627,0.5740125179290771,-0.0919777452945709,0.3408784866333008
1630059164413,0.4449765980243683,0.5895599126815796,-0.0819739550352096,0.287135511636734
1630059164475,0.4028498530387878,0.6045507192611694,-0.0668898224830627,0.2255520075559616
1630059164555,0.3690271079540252,0.6192152500152588,-0.0503913983702659,0.1662116199731826
1630059164634,0.3690271079540252,0.6330729722976685,-0.0384133756160736,0.1662116199731826
1630059164830,0.3690271079540252,0.6443719863891602,-0.0331636853516101,0.1662116199731826
1630059164902,0.3690271079540252,0.6508830189704895,-0.0333098098635673,0.1662116199731826
1630059164977,0.3690271079540252,0.651464581489563,-0.036314234137535,0.1662116199731826
1630059165073,0.3690271079540252,0.6536431908607483,-0.0423301011323928,0.1662116199731826
1630059165167,0.3690271079540252,0.6588797569274902,-0.0520992130041122,0.1662116199731826
1630059165273,0.3690271079540252,0.6686815023422241,-0.06509430706501,0.1662116199731826
1630059165450,0.3690271079540252,0.681836724281311,-0.0764364600181579,0.1662116199731826
1630059165495,0.3690271079540252,0.6954010725021362,-0.0790553241968154,0.1662116199731826
1630059165636,0.3690271079540252,0.7067679762840271,-0.0989541858434677,0.1662116199731826
1630059165676,0.3690271079540252,0.7145887613296509,-0.1141170859336853,0.1662116199731826
1630059165817,0.3690271079540252,0.7187389135360718,-0.1226795762777328,0.1662116199731826
1630059165880,0.3690271079540252,0.7200443148612976,-0.1293013393878936,0.1662116199731826
1630059166051,0.3690271079540252,0.7177190184593201,-0.1412719935178756,0.1662116199731826
1630059166179,0.3690271079540252,0.7084099054336548,-0.1576828211545944,0.1662116199731826
1630059166225,0.3690271079540252,0.7084099054336548,-0.1687893569469452,0.1662116199731826
1630059166318,0.3690271079540252,0.7084099054336548,-0.1630735397338867,0.1662116199731826
1630059166381,0.3690271079540252,0.7084099054336548,-0.080897606909275,0.1662116199731826
1630059166507,0.3690271079540252,0.7084099054336548,0.0034076697193086,0.1662116199731826
1630059166647,0.3690271079540252,0.7084099054336548,0.0645948350429534,0.1662116199731826
1630059166699,0.3690271079540252,0.7084099054336548,0.0930187404155731,0.1662116199731826
1630059166804,0.3690271079540252,0.7084099054336548,0.0888010561466217,0.1662116199731826
1630059166911,0.3690271079540252,0.7084099054336548,0.0539663322269916,0.1662116199731826
1630059167006,0.3690271079540252,0.7084099054336548,-0.0121439341455698,0.1662116199731826
1630059167084,0.3690271079540252,0.7084099054336548,-0.0121439341455698,0.1662116199731826
1630059167249,0.3690271079540252,0.7084099054336548,-0.0121439341455698,0.1662116199731826
1630059167313,0.3690271079540252,0.7084099054336548,-0.0121439341455698,0.1662116199731826
1630059167427,0.3690271079540252,0.7084099054336548,-0.0121439341455698,0.1662116199731826
1630059167518,0.3690271079540252,0.7084099054336548,-0.0121439341455698,0.1662116199731826
1630059167643,0.3690271079540252,0.7084099054336548,-0.0121439341455698,0.1662116199731826
1630059167737,0.3690271079540252,0.7084099054336548,-0.0121439341455698,0.1662116199731826
1630059167817,0.3690271079540252,0.7084099054336548,-0.0121439341455698,0.1662116199731826
1630059167955,0.3690271079540252,0.7084099054336548,-0.0474316626787185,0.1662116199731826
1630059168049,0.3690271079540252,0.7084099054336548,-0.1239687874913215,0.1662116199731826
1630059168146,0.3690271079540252,0.7084099054336548,-0.2469765096902847,0.1662116199731826
1630059168236,0.3690271079540252,0.7084099054336548,-0.2469765096902847,0.1662116199731826
1630059168334,0.3690271079540252,0.7084099054336548,-0.2469765096902847,0.1662116199731826
1630059168450,0.3690271079540252,0.7084099054336548,-0.2469765096902847,0.1662116199731826
1630059168586,0.3690271079540252,0.7084099054336548,-0.2469765096902847,0.1662116199731826
1630059168649,0.3690271079540252,0.7084099054336548,-0.2469765096902847,0.1662116199731826
1630059168793,0.3690271079540252,0.7084099054336548,-0.2469765096902847,0.1662116199731826
1630059168824,0.3690271079540252,0.7084099054336548,-0.2469765096902847,0.1662116199731826
1630059168934,0.3690271079540252,0.7084099054336548,-0.2469765096902847,0.1662116199731826
1630059169061,0.3690271079540252,0.7084099054336548,-0.2469765096902847,0.1662116199731826
1630059169172,0.3690271079540252,0.7084099054336548,-0.2469765096902847,0.1662116199731826
1630059169250,0.3690271079540252,0.7084099054336548,-0.2469765096902847,0.1662116199731826
1630059169355,0.3690271079540252,0.5623037219047546,-0.2469765096902847,0.1662116199731826
1630059169448,0.3690271079540252,0.5623037219047546,-0.2469765096902847,0.1662116199731826
1630059169572,0.3690271079540252,0.5623037219047546,-0.2469765096902847,0.1662116199731826
1630059169681,0.3690271079540252,0.5623037219047546,-0.2469765096902847,0.1662116199731826
1630059169790,0.3690271079540252,0.5623037219047546,-0.2469765096902847,0.1662116199731826
1630059169902,0.3690271079540252,0.5623037219047546,-0.2469765096902847,0.1662116199731826
1630059169949,0.8521313071250916,0.5623037219047546,-0.2469765096902847,0.1662116199731826
1630059170027,0.8157060146331787,0.5623037219047546,-0.2469765096902847,0.1662116199731826
1630059170168,0.7830035090446472,0.5359112024307251,-0.2469765096902847,0.1662116199731826
1630059170292,0.7649458646774292,0.5132541656494141,-0.2469765096902847,0.1662116199731826
1630059170386,0.7649458646774292,0.4969666302204132,-0.2469765096902847,0.1662116199731826
1630059170511,0.7649458646774292,0.4913929998874664,-0.2118330150842666,0.1662116199731826
1630059170637,0.7649458646774292,0.4913929998874664,-0.2105288058519363,0.1662116199731826
1630059170696,0.7649458646774292,0.4693419933319092,-0.2110424488782882,0.1662116199731826
1630059170842,0.7649458646774292,0.4367154836654663,-0.2110424488782882,0.1662116199731826
1630059170889,0.7649458646774292,0.4367154836654663,-0.2110424488782882,0.1662116199731826
1630059171012,0.7649458646774292,0.4367154836654663,-0.2110424488782882,0.1662116199731826
1630059171075,0.7649458646774292,0.4367154836654663,-0.2110424488782882,0.1662116199731826
1630059171153,0.7275086045265198,0.4367154836654663,-0.2244430929422378,0.1662116199731826
1630059171258,0.6860585808753967,0.4367154836654663,-0.2386720031499862,0.1662116199731826
1630059171402,0.6448268890380859,0.4367154836654663,-0.2501037418842315,0.1662116199731826
1630059171510,0.6448268890380859,0.4367154836654663,-0.2608418464660644,0.1662116199731826
1630059171591,0.6448268890380859,0.4560559689998626,-0.2742050588130951,0.1662116199731826
1630059171716,0.6448268890380859,0.4930858910083771,-0.2897612452507019,0.1662116199731826
1630059171809,0.6448268890380859,0.5209487676620483,-0.3182374835014343,0.1662116199731826
1630059171855,0.6448268890380859,0.542445957660675,-0.355682373046875,0.1662116199731826
1630059172012,0.5945755839347839,0.5364962816238403,-0.3904525935649872,0.1662116199731826
1630059172121,0.5945755839347839,0.5360485315322876,-0.4182449281215668,0.1662116199731826
1630059172200,0.6204765439033508,0.5361507534980774,-0.4406170547008514,0.1662116199731826
1630059172293,0.6460092067718506,0.5342404246330261,-0.4342377483844757,0.3904378414154053
1630059172418,0.6532537937164307,0.530190110206604,-0.4286006093025207,0.3719401657581329
1630059172528,0.6406415700912476,0.5257383584976196,-0.4259233772754669,0.3638945817947387
1630059172606,0.6153778433799744,0.5244154930114746,-0.429029107093811,0.3616567850112915
1630059172796,0.5872544050216675,0.5281784534454346,-0.4483048319816589,0.3661558330059051
1630059172819,0.5622932314872742,0.5342316031455994,-0.4705275595188141,0.3777263164520263
1630059172905,0.5417440533638,0.5380101799964905,-0.494277149438858,0.3928424417972564
1630059172998,0.5245089530944824,0.5366725921630859,-0.513286828994751,0.4070760011672973
1630059173092,0.5106112957000732,0.5256741046905518,-0.5241538286209106,0.4165302813053131
1630059173201,0.4758171141147613,0.5170931220054626,-0.5298766493797302,0.404545247554779
1630059173340,0.4550008475780487,0.5132061839103699,-0.5345189571380615,0.4001716673374176
1630059173450,0.4492295086383819,0.5129683017730713,-0.5394790172576904,0.4016056358814239
1630059173514,0.4469637870788574,0.5126733779907227,-0.5467565655708313,0.4022235572338104
1630059173626,0.4458692073822021,0.5103318691253662,-0.5564753413200378,0.4003849029541015
1630059173734,0.417764663696289,0.5069909691810608,-0.5713173151016235,0.4084399044513702
1630059173812,0.3765355050563812,0.5051314234733582,-0.5911906957626343,0.413073718547821
1630059173970,0.3355906903743744,0.5059589743614197,-0.6141663193702698,0.4170960485935211
1630059174048,0.3076379895210266,0.5075054168701172,-0.6363847255706787,0.4204998314380646
1630059174158,0.2938378155231476,0.5059494376182556,-0.652553141117096,0.4206872582435608
1630059174220,0.2856497466564178,0.4990440309047699,-0.6582371592521667,0.4151727259159088
1630059174344,0.2778948247432709,0.4900319576263428,-0.6561812162399292,0.4041493833065033
1630059174438,0.2741777300834656,0.4851368069648742,-0.6534667611122131,0.3905389606952667
1630059174568,0.2822710275650024,0.4879658222198486,-0.6534746885299683,0.3783149719238281
1630059174647,0.3011556267738342,0.4959210753440857,-0.6545820832252502,0.3722972869873047
1630059174758,0.3205730319023132,0.5025830268859863,-0.6490603685379028,0.3745056092739105
1630059174821,0.3325189352035522,0.5036808848381042,-0.6294378042221069,0.3827381730079651
1630059174921,0.336264967918396,0.4983051121234894,-0.6016079187393188,0.3920835852622986
1630059175063,0.337867796421051,0.4891051054000854,-0.574324369430542,0.3994795083999634
1630059175204,0.3420429229736328,0.4801151752471924,-0.5552381873130798,0.4043556749820709
1630059175235,0.3487839996814728,0.4744907319545746,-0.5442119836807251,0.4070484638214111
1630059175376,0.3570787906646728,0.4721470773220062,-0.5347038507461548,0.4091187715530395
1630059175438,0.3672409057617187,0.4703271090984344,-0.5231150984764099,0.4128785729408264
1630059175579,0.380125492811203,0.4675292372703552,-0.5089470148086548,0.4193483293056488
1630059175658,0.3954189121723175,0.4643056094646454,-0.4930490553379059,0.4238245785236358
1630059175784,0.4151048958301544,0.4641381502151489,-0.4775799214839935,0.4320668280124664
1630059175888,0.4371162056922912,0.4686269164085388,-0.4618713855743408,0.4425655007362366
1630059175971,0.4562086462974548,0.4750005602836609,-0.4444112777709961,0.4526046514511108
1630059176111,0.4653482735157013,0.4795894622802734,-0.4268873631954193,0.4599283039569855
1630059176142,0.4615675806999206,0.4812528491020202,-0.4124461114406585,0.4624206125736236
1630059176299,0.4506803452968597,0.4829612672328949,-0.4065954089164734,0.4589955806732178
1630059176392,0.4429011046886444,0.4883134961128235,-0.4137564599514007,0.4489209651947021
1630059176486,0.4426552653312683,0.4995113909244537,-0.4308850467205047,0.433267593383789
1630059176595,0.4428226351737976,0.5156458616256714,-0.4506363868713379,0.4171150326728821
1630059176736,0.4334663152694702,0.5336423516273499,-0.4646816849708557,0.4097034633159637
1630059176799,0.4334663152694702,0.550789475440979,-0.4696564972400665,0.4097034633159637
1630059176877,0.4334663152694702,0.5669065713882446,-0.4696607291698456,0.4097034633159637
1630059177067,0.4334663152694702,0.5820609331130981,-0.4694447517395019,0.4097034633159637
1630059177145,0.4334663152694702,0.5951986908912659,-0.4719239473342895,0.4097034633159637
1630059177207,0.4334663152694702,0.6049684882164001,-0.4763802587985992,0.4097034633159637
1630059177301,0.4334663152694702,0.6097850203514099,-0.478969395160675,0.4097034633159637
1630059177395,0.4334663152694702,0.6094175577163696,-0.4777001738548279,0.4097034633159637
1630059177504,0.4334663152694702,0.6052882075309753,-0.4727229475975036,0.4097034633159637
1630059177598,0.4334663152694702,0.6003825664520264,-0.4642820656299591,0.4097034633159637
1630059177738,0.4334663152694702,0.5988763570785522,-0.4486145377159118,0.4097034633159637
1630059177832,0.5030586123466492,0.6029264330863953,-0.4239189624786377,0.4097034633159637
1630059177895,0.489543080329895,0.6116144061088562,-0.3943910598754883,0.3185384571552276
1630059177973,0.4645803570747375,0.6215494275093079,-0.3667832016944885,0.3185435235500335
1630059178135,0.4383684694766998,0.6310738921165466,-0.3455266654491424,0.3123172521591186
1630059178230,0.4172786772251129,0.6408222913742065,-0.3312833309173584,0.3086152076721191
1630059178342,0.4038695096969604,0.650932788848877,-0.3214081525802612,0.3097574412822723
1630059178389,0.3982853889465332,0.6587413549423218,-0.315608263015747,0.3099477589130401
1630059178515,0.3988177180290222,0.6615124940872192,-0.3126261234283447,0.3058823943138122
1630059178622,0.3875401616096496,0.6595126986503601,-0.3105813264846802,0.3047912716865539
1630059178716,0.3934297561645508,0.6551011800765991,-0.3109727799892425,0.3031400740146637
1630059178858,0.4150110185146332,0.6500142216682434,-0.3152664601802826,0.3048027455806732
1630059178924,0.4341559112071991,0.6442869305610657,-0.3235138654708862,0.3123898506164551
1630059178983,0.4457823932170868,0.6377488970756531,-0.3322872817516327,0.3198495507240295
1630059179107,0.449647843837738,0.6307263374328613,-0.336938202381134,0.327659398317337
1630059179189,0.4471094906330108,0.6230424642562866,-0.3389486670494079,0.3386465907096863
1630059179299,0.4319216907024383,0.6133893132209778,-0.342715859413147,0.3520809113979339
1630059179456,0.4178792834281921,0.6002317070960999,-0.3495357036590576,0.3646988272666931
1630059179518,0.4083854258060455,0.5833331346511841,-0.3570941090583801,0.3769526481628418
1630059179644,0.4037984013557434,0.5625776648521423,-0.3628198206424713,0.3861764371395111
1630059179723,0.4019630253314972,0.5374967455863953,-0.3658763766288757,0.3905813694000244
1630059179785,0.399655133485794,0.5076524019241333,-0.368160218000412,0.3894828259944916
1630059179928,0.3931438326835632,0.4762182533740997,-0.3684567809104919,0.3861836791038513
1630059180081,0.3806844353675842,0.450911283493042,-0.3683823645114898,0.3848097920417785
1630059180131,0.3600106537342071,0.4380937814712524,-0.3700340390205383,0.3851921260356903
1630059180206,0.3289214372634887,0.4382694363594055,-0.3720740079879761,0.3832506239414215
1630059180333,0.2886064052581787,0.4482020437717438,-0.375258207321167,0.3758557736873626
1630059180412,0.2446071505546569,0.4643089771270752,-0.3803774714469909,0.3637016415596008
1630059180520,0.2043338418006897,0.4822965264320373,-0.3909589350223541,0.3487251698970794
1630059180678,0.1736794114112854,0.4963542819023132,-0.4105331897735595,0.3318445086479187
1630059180755,0.157576784491539,0.5005934834480286,-0.4399093091487884,0.3108589351177215
1630059180832,0.1594786792993545,0.4949691891670227,-0.4752315580844879,0.287007987499237
1630059180945,0.1755035072565078,0.4856723248958587,-0.5100704431533813,0.266044020652771
1630059181022,0.1933783143758773,0.4805099666118622,-0.5426217913627625,0.2524084448814392
1630059181130,0.2037491351366043,0.4823992550373077,-0.5703470706939697,0.2447355091571808
1630059181239,0.2052755802869796,0.4886475205421448,-0.5882582664489746,0.2383088022470474
1630059181333,0.2014328986406326,0.4958594739437103,-0.5900847911834717,0.2323841601610183
1630059181459,0.1994863003492355,0.5017438530921936,-0.5745749473571777,0.2281802594661712
1630059181539,0.2053668797016143,0.5045682191848755,-0.5461407899856567,0.2250013500452041
1630059181648,0.219737246632576,0.5034850239753723,-0.5115204453468323,0.2229839712381363
1630059181726,0.2388498187065124,0.4996535778045654,-0.4761989414691925,0.2276999801397323
1630059181854,0.25803142786026,0.4944610297679901,-0.4433806240558624,0.2440716028213501
1630059181941,0.2738782167434692,0.4878954887390136,-0.4119215607643127,0.2671423554420471
1630059182066,0.2846903502941131,0.4804404973983764,-0.3783645033836365,0.2872817516326904
1630059182177,0.2911068499088287,0.4751917123794555,-0.3448207974433899,0.2972783148288727
1630059182287,0.2944587469100952,0.4764340817928314,-0.3170896768569946,0.2964429855346679
1630059182334,0.295378565788269,0.4826003611087799,-0.2969154119491577,0.2860963344573974
1630059182494,0.2923308908939361,0.4871648848056793,-0.2844471335411072,0.2665044963359833
1630059182570,0.2843321561813354,0.4843452870845794,-0.274203896522522,0.2403930127620697
1630059182684,0.2744835913181305,0.4757730662822723,-0.2645761668682098,0.2135820388793945
1630059182762,0.2689917385578155,0.4677164852619171,-0.2573985159397125,0.1917327493429184
1630059182841,0.2758562862873077,0.4641633629798889,-0.2551352381706238,0.1762616634368896
1630059182939,0.2971662282943725,0.4643669128417969,-0.2610825002193451,0.164893701672554
1630059183111,0.3257664740085602,0.4659488499164581,-0.2757319509983063,0.1544407457113266
1630059183205,0.3514501452445984,0.4674665629863739,-0.2980266213417053,0.1434841603040695
1630059183267,0.3693574965000152,0.4682455956935882,-0.3238825500011444,0.1308575272560119
1630059183408,0.370179533958435,0.4674337804317474,-0.3477134704589844,0.101138599216938
1630059183471,0.3721391856670379,0.4648837149143219,-0.3700534701347351,0.0566325709223747
1630059183564,0.3767642080783844,0.4617373645305633,-0.3976990580558777,0.006772425957024
1630059183733,0.3841123580932617,0.4596447944641113,-0.4337180852890014,-0.0324932411313056
1630059183811,0.391914427280426,0.4608320891857147,-0.4684247374534607,-0.0508948154747486
1630059183861,0.3988062441349029,0.4680899381637573,-0.4895545542240143,-0.0498455539345741
1630059183986,0.4093312919139862,0.4814627766609192,-0.4947352409362793,-0.0358478426933288
1630059184065,0.4318365156650543,0.4986808896064758,-0.4919254183769226,-0.0150228347629308
1630059184221,0.4694774150848388,0.5161387920379639,-0.4881750643253326,0.0087604857981204
1630059184299,0.5162192583084106,0.5309106707572937,-0.4858662188053131,0.0342344343662261
1630059184424,0.5588005781173706,0.541926383972168,-0.4871635437011719,0.0600584633648395
1630059184518,0.5588005781173706,0.5496160984039307,-0.4898802638053894,0.0600584633648395
1630059184595,0.5588005781173706,0.5555437803268433,-0.4874504506587982,0.0600584633648395
1630059184673,0.5588005781173706,0.561926007270813,-0.4713740348815918,0.0600584633648395
1630059184814,0.5588005781173706,0.5694012641906738,-0.4446474313735962,0.0600584633648395
1630059184923,0.5588005781173706,0.5764967799186707,-0.4173507690429687,0.0600584633648395
1630059185001,0.5588005781173706,0.5808792114257812,-0.3959107995033264,0.0600584633648395
1630059185095,0.4697991013526916,0.5809997320175171,-0.3794744908809662,0.3103305697441101
1630059185220,0.4485951662063598,0.5770285129547119,-0.3623731732368469,0.3258412778377533
1630059185298,0.4333110749721527,0.5699508190155029,-0.3431806266307831,0.333254337310791
1630059185376,0.4257359504699707,0.5616499185562134,-0.3254229426383972,0.3335667252540588
1630059185532,0.4215800166130066,0.5538544058799744,-0.3114461600780487,0.3257301747798919
1630059185610,0.4171213209629059,0.5465657114982605,-0.3030187785625458,0.3101037740707397
1630059185719,0.4107768535614013,0.5370150208473206,-0.3003827631473541,0.2883986830711365
1630059185813,0.4020528793334961,0.5229528546333313,-0.2999230325222015,0.2635923326015472
1630059185909,0.3918935358524322,0.5051777958869934,-0.2928193509578705,0.2389131784439087
1630059186006,0.3804055452346802,0.4864913821220398,-0.2745837271213531,0.2172255218029022
1630059186161,0.3679455816745758,0.469989150762558,-0.2482552379369735,0.2009103298187255
1630059186224,0.3559210896492004,0.4556381702423095,-0.2211703956127166,0.1898306608200073
1630059186349,0.3310523927211761,0.4418123960494995,-0.1969350725412368,0.1758500188589096
1630059186411,0.3079046010971069,0.4280228614807129,-0.1719879806041717,0.1583836823701858
1630059186567,0.2897687554359436,0.4157604873180389,-0.1445668935775756,0.1345552057027816
1630059186614,0.2802627086639404,0.4082772731781006,-0.1186001524329185,0.1075794398784637
1630059186755,0.2815032303333282,0.4074751734733581,-0.0995313227176666,0.0845486670732498
1630059186833,0.2897954881191253,0.4128172397613525,-0.0897799208760261,0.0713462829589843
1630059186942,0.296024352312088,0.4203177392482757,-0.08878193795681,0.0670008137822151
1630059187041,0.294701486825943,0.4256244897842407,-0.0928622931241989,0.0682270899415016
1630059187135,0.288780927658081,0.4267812967300415,-0.099168986082077,0.0746434181928634
1630059187244,0.2852974832057953,0.4265007078647613,-0.1055072769522667,0.0883687660098075
1630059187353,0.2880047261714935,0.4285880327224731,-0.1121818572282791,0.1073193922638893
1630059187416,0.2949627041816711,0.4337719082832336,-0.1242163851857185,0.1257696151733398
1630059187572,0.3054429292678833,0.439599871635437,-0.144919291138649,0.1381608545780182
1630059187635,0.3226755559444427,0.4423909783363342,-0.1720336675643921,0.1439200490713119
1630059187728,0.3480898439884186,0.4417179524898529,-0.2006102949380874,0.1484541594982147
1630059187853,0.3761895596981048,0.4388880133628845,-0.2264052331447601,0.1581154316663742
1630059188025,0.3987576067447662,0.4357502162456512,-0.2527384757995605,0.173491820693016
1630059188093,0.4122403264045715,0.4356556534767151,-0.2840374410152435,0.1900402456521988
1630059188171,0.4168611764907837,0.4403257668018341,-0.3187106847763061,0.2004292607307434
1630059188249,0.4141547381877899,0.4473130404949188,-0.3536884486675262,0.1996131837368011
1630059188374,0.409028947353363,0.4515069723129272,-0.3859784305095672,0.1886268854141235
1630059188452,0.4083598554134369,0.4490462839603424,-0.4112737774848938,0.1769075989723205
1630059188546,0.4169575870037079,0.4415573477745056,-0.4277178645133972,0.1773231476545334
1630059188655,0.4317439198493957,0.4347355365753174,-0.4329076111316681,0.1921850144863128
1630059188771,0.4460087716579437,0.4324180781841278,-0.4291679859161377,0.2102962583303451
1630059188833,0.4563552141189575,0.4340711832046509,-0.4213199317455292,0.222442090511322
1630059188974,0.4624731540679931,0.4382211863994598,-0.4097395241260528,0.2303559482097625
1630059189083,0.4640908241271972,0.445432037115097,-0.3961525857448578,0.2420967519283294
1630059189192,0.4597818553447723,0.4568131268024444,-0.389038622379303,0.2604792714118957
1630059189286,0.4478263556957245,0.4690485298633575,-0.3955790400505066,0.2808148264884949
1630059189380,0.4312891364097595,0.4767336547374725,-0.4169658124446869,0.2990975379943847
1630059189505,0.4178743362426758,0.4776965379714966,-0.4470430314540863,0.3148155510425567
1630059189520,0.4142752587795257,0.4734020829200744,-0.4746476709842682,0.3274807333946228
1630059189677,0.4208865463733673,0.4678735733032226,-0.4913913011550903,0.3365939855575561
1630059189786,0.4304782450199127,0.4651315212249756,-0.4938912391662597,0.3419167399406433
1630059189864,0.4351191222667694,0.4689835906028747,-0.4790675640106201,0.3438280820846557
1630059190005,0.4306524097919464,0.4808402061462402,-0.4509641826152801,0.3419637084007263
1630059190115,0.4175263047218323,0.4973041117191314,-0.4163869321346283,0.3339999318122864
1630059190178,0.3974311351776123,0.5109722018241882,-0.3853947818279266,0.3188322484493255
1630059190287,0.3719623982906341,0.5159984230995178,-0.3673028647899627,0.301002562046051
1630059190412,0.3436148166656494,0.5130867958068848,-0.3639709949493408,0.2870521545410156
1630059190537,0.316342294216156,0.5084062814712524,-0.3709394037723541,0.2773450016975403
1630059190631,0.295115202665329,0.50883549451828,-0.3819524347782135,0.2654587030410766
1630059190678,0.2834020256996155,0.5169645547866821,-0.3879634737968445,0.2457664608955383
1630059190818,0.282545268535614,0.53172367811203,-0.3861258029937744,0.2193842381238937
1630059190881,0.289402961730957,0.5524106025695801,-0.3780898749828338,0.191167339682579
1630059191021,0.2966558933258056,0.5781664848327637,-0.3679334223270416,0.1661663651466369
1630059191135,0.2967900931835174,0.6043785214424133,-0.3608381748199463,0.1495222896337509
1630059191213,0.286831259727478,0.6231593489646912,-0.3583984673023224,0.1435070633888244
1630059191291,0.2707142233848572,0.630368173122406,-0.3605420291423797,0.14731265604496
1630059191385,0.2543377578258514,0.6272685527801514,-0.3663117587566376,0.1560318619012832
1630059191479,0.2418166697025299,0.6200765371322632,-0.3721531927585602,0.162835344672203
1630059191603,0.2330408096313476,0.6149420142173767,-0.3780812323093414,0.1657516062259674
1630059191697,0.2286225259304046,0.6154290437698364,-0.3838332295417785,0.1687358170747757
1630059191807,0.2313332110643386,0.6218282580375671,-0.384074866771698,0.1767393797636032
1630059191916,0.2419442981481552,0.6310508251190186,-0.3744144737720489,0.1908247023820877
1630059191994,0.2593415081501007,0.6379664540290833,-0.3536186814308166,0.2082447111606598
1630059192075,0.2787055671215057,0.6386005878448486,-0.3238404989242553,0.2252955585718155
1630059192200,0.292716383934021,0.6341769695281982,-0.2922013401985168,0.2406819462776184
1630059192341,0.2971059679985046,0.6298455595970154,-0.2646386325359344,0.2521039545536041
1630059192450,0.2930010855197906,0.6281890869140625,-0.2459418773651123,0.2573562264442444
1630059192544,0.2870804965496063,0.6262518763542175,-0.2351535558700561,0.2562319338321686
1630059192606,0.2846797406673431,0.6206912398338318,-0.2278101444244384,0.2514788806438446
1630059192700,0.2839681208133697,0.6147823929786682,-0.2211160510778427,0.247553139925003
1630059192856,0.2813398838043213,0.6149939894676208,-0.2147741913795471,0.2463399022817611
1630059192906,0.2751019299030304,0.6216048002243042,-0.2135825008153915,0.2462838888168335
1630059193000,0.267613410949707,0.6270871162414551,-0.2198448181152343,0.2445280402898788
1630059193172,0.2614025175571441,0.6258138418197632,-0.2300420552492141,0.2395922243595123
1630059193203,0.2581914961338043,0.6185348033905029,-0.2385330498218536,0.2326057702302932
1630059193297,0.2572911381721496,0.6090138554573059,-0.2429274916648864,0.2261412441730499
1630059193437,0.2565387487411499,0.5989255905151367,-0.2450199127197265,0.2229715138673782
1630059193547,0.2522897720336914,0.5870772004127502,-0.2514186799526214,0.2244176417589187
1630059193640,0.2428021132946014,0.5721963047981262,-0.2667725682258606,0.2307467311620712
1630059193719,0.2314165085554123,0.5528776049613953,-0.2892278432846069,0.2386314123868942
1630059193844,0.2246669828891754,0.5274982452392578,-0.3094831109046936,0.2455064505338668
1630059193906,0.2261608093976974,0.4958668649196625,-0.315954715013504,0.2505351901054382
1630059194078,0.229844182729721,0.4623198807239532,-0.3089708685874939,0.254509299993515
1630059194187,0.2282512634992599,0.4359287321567535,-0.2993646264076233,0.2586711943149566
1630059194281,0.2216203808784485,0.4217098951339721,-0.2956871390342712,0.2623535394668579
1630059194343,0.2173658013343811,0.4152957797050476,-0.2973727881908417,0.2655697166919708
1630059194453,0.2240749895572662,0.4099687933921814,-0.2989746034145355,0.2711919248104095
1630059194562,0.2423267513513565,0.4039177298545837,-0.3011149168014526,0.2813813090324402
1630059194671,0.267671674489975,0.3990420699119568,-0.3067710697650909,0.2974723577499389
1630059194781,0.2932684421539306,0.3970941007137298,-0.3151343464851379,0.3194390535354614
1630059194859,0.3136008977890014,0.3992116451263428,-0.3213624954223633,0.3445642292499542
1630059194984,0.3274527192115783,0.4079309403896332,-0.3227373957633972,0.3665951490402221
1630059195065,0.3378312289714813,0.4235673546791076,-0.3202297687530517,0.3795689344406128
1630059195159,0.3484202325344085,0.4423086643218994,-0.3155059814453125,0.382156103849411
1630059195252,0.3608450591564178,0.4585727751255035,-0.3124576807022095,0.3792893588542938
1630059195362,0.3733144700527191,0.4701324105262756,-0.3160443603992462,0.3757078051567077
1630059195471,0.3827056884765625,0.4798035025596618,-0.3290418684482574,0.3711928725242615
1630059195549,0.3894145488739013,0.4914159178733825,-0.3467497825622558,0.3638446629047394
1630059195674,0.3959643840789795,0.5060524344444275,-0.357162743806839,0.3535025119781494
1630059195783,0.4043805599212646,0.5227788090705872,-0.3552074134349823,0.3425956666469574
1630059195877,0.4158541858196258,0.5418086647987366,-0.3489182591438293,0.3338958621025085
1630059196017,0.4291368722915649,0.5651290416717529,-0.3449772596359253,0.3275467157363891
1630059196101,0.4419465065002441,0.5910530686378479,-0.3409695029258728,0.3217234015464782
1630059196211,0.4522756934165954,0.6144658327102661,-0.3304072916507721,0.3135178983211517
1630059196242,0.4602996408939361,0.6309598088264465,-0.3140148222446441,0.2989683151245117
1630059196351,0.4681338369846344,0.6388084292411804,-0.3017535507678985,0.2754682302474975
1630059196492,0.475956529378891,0.6402274966239929,-0.3008567690849304,0.2463181912899017
1630059196596,0.4804030656814575,0.6396310329437256,-0.3111559450626373,0.2209788560867309
1630059196689,0.4782173037528991,0.6416014432907104,-0.3277715146541595,0.2078291177749633
1630059196768,0.4692381024360657,0.6482998728752136,-0.3432858288288116,0.205345332622528
1630059196893,0.454891949892044,0.6573333740234375,-0.3543252050876617,0.20745350420475
1630059196955,0.4378067851066589,0.6647734045982361,-0.3623738586902618,0.2122333943843841
1630059197081,0.4207839965820312,0.6687440872192383,-0.3717700839042663,0.2207551151514053
1630059197185,0.4065430462360382,0.6683802604675293,-0.3863843381404876,0.2329799383878708
1630059197312,0.3960688412189483,0.6629577875137329,-0.4046159386634826,0.2458352446556091
1630059197389,0.3870811760425567,0.6510654091835022,-0.4182570278644562,0.2562059164047241
1630059197492,0.3810186386108398,0.631596565246582,-0.4191477298736572,0.2587248086929321
1630059197570,0.3674659132957458,0.6082797646522522,-0.4081580638885498,0.2607676684856415
1630059197711,0.3474245071411133,0.5882154703140259,-0.3948035538196563,0.2639495134353637
1630059197789,0.3223727345466614,0.5766022801399231,-0.3889768123626709,0.2681086361408233
1630059197945,0.2919000089168548,0.5736163258552551,-0.3903967440128326,0.2721653878688812
1630059198025,0.2559782862663269,0.5736978054046631,-0.391464501619339,0.274846076965332
1630059198070,0.2207171320915222,0.5712571144104004,-0.3854990303516388,0.2753530144691467
1630059198164,0.1973127275705337,0.5628371238708496,-0.3735316395759582,0.2729697525501251
1630059198335,0.1886488199234008,0.5471298098564148,-0.3629011511802673,0.26887047290802
1630059198413,0.1900648325681686,0.5271570086479187,-0.3575245440006256,0.2672003805637359
1630059198522,0.1955385506153106,0.5087471604347229,-0.356925755739212,0.2736020982265472
1630059198600,0.1955385506153106,0.4956423640251159,-0.3592445254325866,0.2736020982265472
1630059198710,0.1955385506153106,0.4886676371097564,-0.3638802766799927,0.2736020982265472
1630059198804,0.1955385506153106,0.48587566614151,-0.3724266290664673,0.2736020982265472
1630059198991,0.1955385506153106,0.4865096807479858,-0.3852188885211944,0.2736020982265472
1630059199038,0.1955385506153106,0.4919936656951904,-0.4036932587623596,0.2736020982265472
1630059199147,0.1955385506153106,0.502181887626648,-0.4242090880870819,0.2736020982265472
1630059199210,0.1955385506153106,0.5149730443954468,-0.4376095831394195,0.2736020982265472
1630059199305,0.3474029302597046,0.5276164412498474,-0.4372817277908325,0.2251771241426468
1630059199424,0.319269448518753,0.5393847823143005,-0.4235698580741882,0.2288009077310562
1630059199533,0.2991029322147369,0.5504508018493652,-0.4089707732200622,0.250327467918396
1630059199658,0.2930326461791992,0.5598811507225037,-0.4032586514949798,0.2761272490024566
1630059199752,0.2999791204929352,0.5664992332458496,-0.4064624011516571,0.2956765294075012
1630059199861,0.3119556903839111,0.5706024765968323,-0.4131087362766266,0.3050950169563293
1630059199971,0.3198633790016174,0.5741971135139465,-0.4163507521152496,0.3067835569381714
1630059200001,0.3196970820426941,0.5780905485153198,-0.415382981300354,0.3052648901939392
1630059200175,0.31271693110466,0.5804344415664673,-0.412402331829071,0.3021790385246277
1630059200253,0.3032118082046509,0.5789052844047546,-0.4099169075489044,0.2959397137165069
1630059200394,0.2934591174125671,0.573188841342926,-0.406418114900589,0.2873948514461517
1630059200456,0.2831895649433136,0.5645905137062073,-0.3998502790927887,0.2794670462608337
1630059200523,0.2628222405910492,0.5551915764808655,-0.3915556669235229,0.2713662981986999
1630059200655,0.2406620681285858,0.5474295020103455,-0.3904843330383301,0.2701146304607391
1630059200764,0.2224970906972885,0.5423909425735474,-0.4052624106407165,0.2717022597789764
1630059200877,0.2124967724084854,0.5392481684684753,-0.4364568293094635,0.2703553140163421
1630059200971,0.2088664323091507,0.5359926819801331,-0.4771597683429718,0.2634095251560211
1630059201049,0.2066755443811416,0.5329811573028564,-0.5081709623336792,0.2517812252044678
1630059201190,0.2009743899106979,0.5330506563186646,-0.519399881362915,0.237582579255104
1630059201252,0.188834086060524,0.5370853543281555,-0.5141085386276245,0.2243585586547851
1630059201393,0.1696621030569076,0.543844997882843,-0.4994005560874939,0.2157468050718307
1630059201484,0.1481610685586929,0.5519408583641052,-0.4810392558574676,0.212396502494812
1630059201547,0.1324149519205093,0.5614703893661499,-0.457675963640213,0.2107226401567459
1630059201641,0.1264746636152267,0.572139322757721,-0.4296214580535888,0.2070835530757904
1630059201766,0.1275565922260284,0.581563413143158,-0.4000060260295868,0.2029697746038437
1630059201844,0.1323897391557693,0.5874913334846497,-0.3703585267066955,0.1995808780193328
1630059201985,0.1425428241491317,0.5901241898536682,-0.3416884541511535,0.1954840421676635
1630059202081,0.157457634806633,0.5908534526824951,-0.3121401369571686,0.1881234794855117
1630059202190,0.1706057637929916,0.5906558036804199,-0.2818151414394378,0.1779987215995788
1630059202252,0.1773583441972732,0.5890071988105774,-0.2564511001110077,0.170977383852005
1630059202364,0.1791677325963974,0.5849981307983398,-0.2400268167257309,0.1714736670255661
1630059202455,0.1797313690185547,0.5783416628837585,-0.2344167530536651,0.1770194172859192
1630059202625,0.1789779067039489,0.5694400668144226,-0.2378207445144653,0.1811332553625106
1630059202657,0.1731091290712356,0.5604200959205627,-0.2447571009397506,0.181283950805664
1630059202757,0.1598052680492401,0.5553545355796814,-0.2514852881431579,0.1801780015230178
1630059202867,0.1436696648597717,0.55708247423172,-0.2585998773574829,0.1826813519001007
1630059202976,0.1304491311311721,0.562518835067749,-0.2694029808044433,0.1898229271173477
1630059203107,0.1204473003745079,0.5636538863182068,-0.2870371043682098,0.1988987326622009
1630059203228,0.1115980446338653,0.5556164383888245,-0.3104820251464844,0.2075462937355041
1630059203309,0.1025064289569854,0.541719913482666,-0.3352407217025757,0.2153286933898925
1630059203419,0.0965786799788475,0.5304093956947327,-0.3582973778247833,0.2232579439878463
1630059203467,0.0951492860913276,0.5260319113731384,-0.3799220621585846,0.2324845641851425
1630059203573,0.0976931825280189,0.5254576206207275,-0.4040323495864868,0.2437251061201095
1630059203666,0.1053074449300766,0.5232424139976501,-0.4302166700363159,0.2590350806713104
1630059203791,0.1175123155117034,0.5184786319732666,-0.4541186988353729,0.2751259207725525
1630059203870,0.1311438679695129,0.5149404406547546,-0.4700061082839966,0.2850141227245331
1630059204024,0.1425350904464721,0.5169922709465027,-0.4760507941246032,0.2849954068660736
1630059204069,0.1504303067922592,0.5244745016098022,-0.4756984412670135,0.278479665517807
1630059204179,0.1590435057878494,0.5328772664070129,-0.4713231921195984,0.2731925249099731
1630059204241,0.1716903299093246,0.5375248789787292,-0.4650295078754425,0.2727651000022888
1630059204446,0.1873132586479187,0.5357492566108704,-0.4559566676616668,0.2737421989440918
1630059204508,0.2022879868745803,0.5288076996803284,-0.445161908864975,0.2741028368473053
1630059204586,0.2152604758739471,0.520602822303772,-0.4342941045761108,0.2769762575626373
1630059204727,0.2276635915040969,0.5149000287055969,-0.4246579110622406,0.2849832475185394
1630059204791,0.2397758960723877,0.5129852890968323,-0.4187141060829162,0.2944200336933136
1630059204885,0.2472016811370849,0.5147190093994141,-0.4173831045627594,0.2986431717872619
1630059205041,0.2471868842840194,0.5185579657554626,-0.4209910929203033,0.2941529154777527
1630059205166,0.242395594716072,0.5223897099494934,-0.4277753233909607,0.2820232808589935
1630059205212,0.2360222786664962,0.5235263109207153,-0.4346294105052948,0.2649527490139007
1630059205337,0.2279587388038635,0.5204057097434998,-0.4373177289962768,0.2470128983259201
1630059205368,0.2168063223361969,0.5152222514152527,-0.4351858794689178,0.233634814620018
1630059205494,0.2038347125053405,0.5107463002204895,-0.4306310415267944,0.227789893746376
1630059205635,0.1948192715644836,0.5091594457626343,-0.4282655715942383,0.2275513261556625
1630059205720,0.192283809185028,0.5097947120666504,-0.4318928122520447,0.2280630022287368
1630059205829,0.1955124884843826,0.5094648599624634,-0.4379461109638214,0.2265175431966781
1630059205923,0.2031168192625045,0.5075923800468445,-0.4405105113983154,0.2225557118654251
1630059206005,0.2136875987052917,0.5067028999328613,-0.4355724453926086,0.2135904133319854
1630059206115,0.2226187735795974,0.5105659365653992,-0.4257264733314514,0.1954710632562637
1630059206240,0.2242831140756607,0.5204119086265564,-0.4186002910137176,0.1672395467758178
1630059206349,0.2159397304058075,0.5332393646240234,-0.4176899194717407,0.136060282588005
1630059206443,0.2014292925596237,0.544645369052887,-0.4207595586776733,0.1158084571361541
1630059206524,0.1861369460821151,0.5528284907341003,-0.4223567843437195,0.1176342815160751
1630059206618,0.1719861030578613,0.5576963424682617,-0.4220097064971924,0.1384040862321853
1630059206743,0.1593036204576492,0.5601567625999451,-0.4214520752429962,0.1641352772712707
1630059206868,0.1483130455017089,0.5607326626777649,-0.4232116341590881,0.1841069310903549
1630059206946,0.1402905583381652,0.5581443309783936,-0.4247191846370697,0.196590319275856
1630059207043,0.1364009082317352,0.5510911345481873,-0.4164572060108185,0.2066923379898071
1630059207214,0.1368759423494339,0.5391656756401062,-0.3935795128345489,0.2189394980669021
1630059207261,0.1412360519170761,0.5234599113464355,-0.359890729188919,0.2327883243560791
1630059207324,0.1451138257980346,0.5074127912521362,-0.3291318416595459,0.2444923818111419
1630059207500,0.1413625031709671,0.4941005706787109,-0.311838150024414,0.2526136934757232
1630059207563,0.1281401664018631,0.4864014387130737,-0.3067995309829712,0.2596734762191772
1630059207703,0.113740861415863,0.4849365055561065,-0.3088335692882538,0.2695058286190033
1630059207750,0.1093000769615173,0.4858184158802032,-0.310975968837738,0.2835321426391601
1630059207828,0.1194242164492607,0.4830529391765594,-0.3101207017898559,0.2976613342761993
1630059207953,0.1369535773992538,0.4727227389812469,-0.3080210983753204,0.3052269220352173
1630059208050,0.1536673903465271,0.4573803842067718,-0.3042655289173126,0.3019097447395324
1630059208175,0.1656861156225204,0.4435840547084808,-0.297613650560379,0.2894941568374634
1630059208300,0.171377032995224,0.4365060329437256,-0.2874284982681274,0.2755325138568878
1630059208331,0.1733643859624862,0.4364141821861267,-0.2742128670215606,0.2691509127616882
1630059208488,0.1742417514324188,0.4401919841766357,-0.2640662491321563,0.2733514904975891
1630059208550,0.1743519157171249,0.444509357213974,-0.2621508240699768,0.2828496992588043
1630059208659,0.1716786324977874,0.4476320445537567,-0.2734356522560119,0.2895005047321319
1630059208784,0.165773406624794,0.4506974518299103,-0.2965631186962127,0.2883451879024505
1630059208862,0.1628083139657974,0.4550408124923706,-0.3223545551300049,0.2798062860965729
1630059208956,0.1682987064123153,0.4592823684215545,-0.3434064090251922,0.266749620437622
1630059209090,0.1786166578531265,0.4580280184745788,-0.3564781248569488,0.2514374852180481
1630059209183,0.1841911524534225,0.4505406618118286,-0.3654068410396576,0.2348100841045379
1630059209294,0.180340364575386,0.4448899924755096,-0.3718170821666717,0.2193771451711654
1630059209388,0.1710990965366363,0.4505327045917511,-0.375915914773941,0.2096057385206222
1630059209481,0.1666213572025299,0.4667179882526397,-0.3803858160972595,0.2078014910221099
1630059209591,0.1738285422325134,0.4826269745826721,-0.3892801105976105,0.2110843658447265
1630059209653,0.1958950459957122,0.4925535917282104,-0.4046399295330047,0.2135217636823654
1630059209778,0.2372527867555618,0.499300479888916,-0.4270889163017273,0.2112595289945602
1630059209887,0.2480998039245605,0.5078049898147583,-0.4542655348777771,0.2098367810249328
1630059209997,0.262883722782135,0.5175372958183289,-0.4818063676357269,0.1988093256950378
1630059210125,0.2792787253856659,0.5248157382011414,-0.5061658620834351,0.1790236085653305
1630059210218,0.2950025498867035,0.5290898084640503,-0.5186317563056946,0.1554524898529052
1630059210312,0.307993084192276,0.535797655582428,-0.5198323726654053,0.1346067935228347
1630059210421,0.3149713277816772,0.5453407764434814,-0.5167263746261597,0.1201850101351738
1630059210515,0.3157626688480377,0.5583697557449341,-0.5111081600189209,0.1131744012236595
1630059210624,0.3166511058807373,0.5752731561660767,-0.5038261413574219,0.1141188517212867
1630059210718,0.3282299637794494,0.5923773050308228,-0.484683096408844,0.1224558651447296
1630059210781,0.3561787605285644,0.6031970381736755,-0.4534520506858825,0.1315441131591797
1630059210874,0.3985706269741058,0.6036118268966675,-0.4512561857700348,0.1317908614873886
1630059210984,0.3985706269741058,0.5965955853462219,-0.4458422064781189,0.1317908614873886
1630059211127,0.3985706269741058,0.574048638343811,-0.4050478935241699,0.1317908614873886
1630059211236,0.3985706269741058,0.5529693961143494,-0.3727398514747619,0.1317908614873886
1630059211299,0.3985706269741058,0.5298901796340942,-0.3468724191188812,0.1317908614873886
1630059211393,0.3985706269741058,0.5054646730422974,-0.3271908462047577,0.1317908614873886
1630059211520,0.3985706269741058,0.4873539805412292,-0.3102568686008453,0.1317908614873886
1630059211598,0.3985706269741058,0.4631255269050598,-0.29587122797966,0.1317908614873886
1630059211692,0.3985706269741058,0.4631255269050598,-0.2853653132915497,0.1317908614873886
1630059211817,0.3985706269741058,0.4631255269050598,-0.2723805904388428,0.1317908614873886
1630059211911,0.3985706269741058,0.4631255269050598,-0.2603049576282501,0.1317908614873886
1630059212004,0.3985706269741058,0.4631255269050598,-0.2483868449926376,0.1317908614873886
1630059212116,0.3985706269741058,0.4631255269050598,-0.2383638620376587,0.1317908614873886
1630059212241,0.3985706269741058,0.4631255269050598,-0.2369230687618255,0.1317908614873886
1630059212319,0.3985706269741058,0.4631255269050598,-0.2501979172229767,0.1317908614873886
1630059212444,0.3985706269741058,0.4631255269050598,-0.2501979172229767,0.1317908614873886
1630059212522,0.3985706269741058,0.4631255269050598,-0.2501979172229767,0.1317908614873886
1630059212616,0.3985706269741058,0.4630313217639923,-0.2732631266117096,0.1317908614873886
1630059212741,0.3985706269741058,0.4630313217639923,-0.2950201332569122,0.1317908614873886
1630059212804,0.3985706269741058,0.4630313217639923,-0.3167766034603119,0.1317908614873886
1630059212978,0.3985706269741058,0.4630313217639923,-0.3167766034603119,0.1317908614873886
1630059213087,0.3985706269741058,0.4630313217639923,-0.3167766034603119,0.1317908614873886
1630059213150,0.3985706269741058,0.4630313217639923,-0.3167766034603119,0.1317908614873886
1630059213244,0.3985706269741058,0.4630313217639923,-0.3167766034603119,0.1317908614873886
1630059213353,0.3985706269741058,0.4630313217639923,-0.3167766034603119,0.1317908614873886
1630059213415,0.3985706269741058,0.4630313217639923,-0.3167766034603119,0.1317908614873886
1630059213556,0.3985706269741058,0.4630313217639923,-0.3167766034603119,0.1317908614873886
1630059213665,0.3985706269741058,0.4630313217639923,-0.3167766034603119,0.1317908614873886
1630059213744,0.3985706269741058,0.4630313217639923,-0.3167766034603119,0.1317908614873886
1630059213886,0.3985706269741058,0.4630313217639923,-0.3167766034603119,0.1317908614873886
1630059213933,0.3985706269741058,0.4630313217639923,-0.3167766034603119,0.1317908614873886
1630059214027,0.3985706269741058,0.4630313217639923,-0.3167766034603119,0.1317908614873886
1630059214183,0.3985706269741058,0.4630313217639923,-0.3167766034603119,0.1317908614873886
1630059214277,0.3985706269741058,0.4630313217639923,-0.3167766034603119,0.1317908614873886
1630059214371,0.3985706269741058,0.4630313217639923,-0.3167766034603119,0.1317908614873886
1630059214433,0.3985706269741058,0.4630313217639923,-0.3167766034603119,0.1317908614873886
1630059214589,0.3985706269741058,0.4630313217639923,-0.3167766034603119,0.1317908614873886
1630059214636,0.3985706269741058,0.4630313217639923,-0.3636815547943115,0.1317908614873886
1630059214808,0.3985706269741058,0.4630313217639923,-0.3558924496173858,0.1317908614873886
1630059214886,0.3985706269741058,0.6564638614654541,-0.3623552322387695,0.1317908614873886
1630059214998,0.3985706269741058,0.6373218894004822,-0.3773327469825744,0.1317908614873886
1630059215061,0.3985706269741058,0.617030918598175,-0.3903906047344208,0.1317908614873886
1630059215217,0.3985706269741058,0.6043431162834167,-0.3947899341583252,0.2742752134799957
1630059215233,0.3985706269741058,0.5998073220252991,-0.3897418677806854,0.2763600945472717
1630059215420,0.3985706269741058,0.5974354147911072,-0.3792170882225036,0.2708791196346283
1630059215483,0.3985706269741058,0.5929761528968811,-0.3689934611320495,0.2619524896144867
1630059215561,0.3985706269741058,0.5874461531639099,-0.35895437002182,0.254985362291336
1630059215655,0.3985706269741058,0.5823954343795776,-0.3454095125198364,0.2538164854049682
1630059215764,0.3985706269741058,0.5763756632804871,-0.3322095274925232,0.2572224140167236
1630059215842,0.4502938091754913,0.5686431527137756,-0.3165781497955322,0.2604930698871612
1630059216048,0.5469440817832947,0.5615061521530151,-0.3128047585487366,0.2624984979629516
1630059216126,0.6081151962280273,0.5521684885025024,-0.3178612291812897,0.2666146457195282
1630059216204,0.6081151962280273,0.543865442276001,-0.3204882442951202,0.2783801853656769
1630059216282,0.6081151962280273,0.535554826259613,-0.3139703273773193,0.3006386756896972
1630059216376,0.6081151962280273,0.5276267528533936,-0.2986167967319488,0.3344481885433197
1630059216454,0.6081151962280273,0.5211994647979736,-0.2802528738975525,0.3651283681392669
1630059216600,0.6081151962280273,0.5157350897789001,-0.2650821506977081,0.3856353461742401
1630059216710,0.6081151962280273,0.5084977149963379,-0.2577679455280304,0.3946677148342132
1630059216803,0.6081151962280273,0.4979987740516662,-0.2596050202846527,0.3988875448703766
1630059216881,0.588056743144989,0.4869354963302612,-0.267625629901886,0.4062217175960541
1630059216978,0.5627065896987915,0.4780828058719635,-0.2777641415596008,0.417190283536911
1630059217072,0.5700281858444214,0.4700076282024383,-0.2896376550197601,0.4262077808380127
1630059217213,0.5792117714881897,0.4600260853767395,-0.3079248368740082,0.4284064471721649
1630059217291,0.5833541750907898,0.4505863487720489,-0.3289420008659363,0.4262358546257019
1630059217416,0.5773751139640808,0.4459187388420105,-0.342705488204956,0.4275301396846771
1630059217509,0.5332410335540771,0.4462144374847412,-0.3420881927013397,0.4361753761768341
1630059217588,0.4567726254463196,0.4463937878608703,-0.3318872153759002,0.4443373084068298
1630059217697,0.4567726254463196,0.4425499141216278,-0.3261625468730926,0.4472405016422272
1630059217806,0.4567726254463196,0.4371466636657715,-0.330784797668457,0.4387657642364502
1630059217900,0.4567726254463196,0.4364014565944671,-0.339647501707077,0.4164288341999054
1630059217984,0.4567726254463196,0.4447421729564667,-0.3405395150184631,0.3853350579738617
1630059218140,0.4567726254463196,0.4475968778133392,-0.3287935853004455,0.3573859632015228
1630059218203,0.4567726254463196,0.4512743651866913,-0.3085868656635284,0.3436329662799835
1630059218312,0.4567726254463196,0.4550369381904602,-0.2867030203342438,0.3409008383750915
