timestamp,TP9,AF7,AF8,TP10
1630501821654,0.5900166630744934,-0.0969624146819114,0.4113713502883911,0.6407189965248108
1630501821763,0.5900166630744934,-0.0969624146819114,0.4113713502883911,0.6407189965248108
1630501821841,0.5900166630744934,-0.0969624146819114,0.4113713502883911,0.6407189965248108
1630501821966,0.5900166630744934,-0.0969624146819114,0.4113713502883911,0.6407189965248108
1630501822022,0.5900166630744934,-0.0969624146819114,0.4113713502883911,0.6407189965248108
1630501822131,0.5900166630744934,-0.0969624146819114,0.4113713502883911,0.6407189965248108
1630501822256,0.5900166630744934,-0.0969624146819114,0.4113713502883911,0.6407189965248108
1630501822350,0.5900166630744934,0.3177581429481506,0.4113713502883911,0.6407189965248108
1630501822459,0.5900166630744934,0.313515692949295,0.4113713502883911,0.6407189965248108
1630501822553,0.5900166630744934,0.2984264194965362,0.385986328125,0.6407189965248108
1630501822631,0.5900166630744934,0.2724738717079162,0.3877219557762146,0.6407189965248108
1630501822725,0.5900166630744934,0.2387884557247162,0.390341579914093,0.6407189965248108
1630501822897,0.5900166630744934,0.2032832205295562,0.3931795060634613,0.6407189965248108
1630501822959,0.5900166630744934,0.1724586486816406,0.4015296399593353,0.6407189965248108
1630501823053,0.5900166630744934,0.1491065621376037,0.4145526587963104,0.6407189965248108
1630501823162,0.5900166630744934,0.1321676969528198,0.4253891408443451,0.6407189965248108
1630501823256,0.5900166630744934,0.1216819211840629,0.4289249777793884,0.6407189965248108
1630501823350,0.5900166630744934,0.121666096150875,0.4270908832550049,0.6407189965248108
1630501823491,0.5900166630744934,0.1371738761663437,0.4243074953556061,0.6407189965248108
1630501823600,0.5900166630744934,0.1602158397436142,0.4213862121105194,0.6407189965248108
1630501823678,0.5900166630744934,0.1873695254325866,0.4158935546875,0.6407189965248108
1630501823756,0.5900166630744934,0.2093655616044998,0.399534672498703,0.6407189965248108
1630501823865,0.5900166630744934,0.2199076563119888,0.3884035646915436,0.6407189965248108
1630501823959,0.5900166630744934,0.2205681055784225,0.3822827637195587,0.6407189965248108
1630501824100,0.5900166630744934,0.2198376953601837,0.3825690448284149,0.6407189965248108
1630501824178,0.5900166630744934,0.2278044372797012,0.3919333517551422,0.6407189965248108
1630501824287,0.5900166630744934,0.2465193271636963,0.4069688320159912,0.8107689023017883
1630501824396,0.5900166630744934,0.269848495721817,0.418561041355133,0.858407199382782
1630501824490,0.5900166630744934,0.2901861667633056,0.4194701313972473,0.8856106400489807
1630501824600,0.721184253692627,0.3043995201587677,0.4097808599472046,0.8902819156646729
1630501824725,0.721184253692627,0.3131951093673706,0.3956362605094909,0.877412736415863
1630501824818,0.721184253692627,0.3168654441833496,0.3826093375682831,0.8577570915222168
1630501824896,0.721184253692627,0.3132691085338592,0.371219128370285,0.8422287702560425
1630501824990,0.721184253692627,0.300353854894638,0.3597441017627716,0.8352189064025879
1630501825086,0.721184253692627,0.2789807021617889,0.3478379249572754,0.8330531120300293
1630501825227,0.721184253692627,0.2543639242649078,0.3372259438037872,0.8300762176513672
1630501825320,0.721184253692627,0.2329205870628357,0.3297100365161896,0.8248212337493896
1630501825415,0.721184253692627,0.2200654745101928,0.32378950715065,0.8200366497039795
1630501825477,0.721184253692627,0.2153467833995819,0.3138793408870697,0.8256006240844727
1630501825586,0.721184253692627,0.2130669504404068,0.2913803160190582,0.8301655650138855
1630501825711,0.6742918491363525,0.2050819993019104,0.2507089078426361,0.8298433423042297
1630501825789,0.6149119138717651,0.1885263472795486,0.1965149194002151,0.8194108605384827
1630501825914,0.5256167054176331,0.1674696058034896,0.1432684063911438,0.7990903258323669
1630501826023,0.4138422310352325,0.1494911313056945,0.1031872630119323,0.7696666717529297
1630501826086,0.2913811206817627,0.1452157795429229,0.0784926041960716,0.7526305913925171
1630501826226,0.2876909673213959,0.1455967277288437,0.0657279193401336,0.7546108961105347
1630501826289,0.2829999327659607,0.1507723331451416,0.0634309351444244,0.7694798707962036
1630501826398,0.2806665301322937,0.1604006439447403,0.0689247846603393,0.7868540287017822
1630501826523,0.2826831638813019,0.1694900542497635,0.0765310600399971,0.8052887916564941
1630501826617,0.2894180417060852,0.1690022200345993,0.0835189223289489,0.8300743103027344
1630501826726,0.3002667427062988,0.1521056890487671,0.0925876349210739,0.8607078790664673
1630501826820,0.3123614192008972,0.1200136020779609,0.1049613952636718,0.8887631893157959
1630501826898,0.3215378522872925,0.0790783017873764,0.1174001693725586,0.907183051109314
1630501827023,0.3257433176040649,0.0174538102000951,0.1273784786462783,0.916967272758484
1630501827164,0.3264191448688507,-0.0468251891434192,0.1367157250642776,0.924003541469574
1630501827242,0.3198003470897674,-0.1018078699707984,0.1497341245412826,0.921958863735199
1630501827320,0.3235838711261749,-0.1389774978160858,0.1653334498405456,0.917464554309845
1630501827414,0.3309243023395538,-0.1594750434160232,0.1772578060626983,0.90970379114151
1630501827523,0.3374471664428711,-0.172942966222763,0.1827091425657272,0.9089999794960022
1630501827632,0.3429321348667145,-0.1378709375858307,0.1859297901391983,0.9038465023040771
1630501827757,0.3741334080696106,-0.0849172472953796,0.1946567445993423,0.8970606923103333
1630501827851,0.3856622576713562,-0.0249932575970888,0.2116159200668335,0.8916947841644287
1630501827965,0.3987296819686889,0.029701255261898,0.2320163249969482,0.8904322981834412
1630501828012,0.4113328158855438,0.0724840387701988,0.2486011981964111,0.8858402371406555
1630501828121,0.4213615655899048,0.1017014011740684,0.2576032280921936,0.8714978694915771
1630501828230,0.4262551069259643,0.1169625744223594,0.2582823932170868,0.8480304479598999
1630501828355,0.4260661602020263,0.1201285421848297,0.2525772154331207,0.8227328658103943
1630501828449,0.4260661602020263,0.1165063083171844,0.2452088445425033,0.8029652237892151
1630501828543,0.4260661602020263,0.123717226088047,0.2405095398426056,0.7877237200737
1630501828652,0.4260661602020263,0.1364978104829788,0.238242045044899,0.7705554366111755
1630501828761,0.4260661602020263,0.1487692594528198,0.2349507510662078,0.7491362690925598
1630501828824,0.4260661602020263,0.1557822972536087,0.2393407076597213,0.7288231253623962
1630501828994,0.4260661602020263,0.156512513756752,0.2439416050910949,0.7170434594154358
1630501829118,0.4260661602020263,0.1524928659200668,0.2514849603176117,0.7241077423095703
1630501829149,0.4260661602020263,0.1438681483268737,0.2585930228233337,0.7241077423095703
1630501829244,0.4260661602020263,0.1277665197849273,0.2549455165863037,0.7241077423095703
1630501829354,0.4399384558200836,0.1023822128772735,0.2316693365573883,0.7241077423095703
1630501829433,0.415876030921936,0.0690075978636741,0.188072383403778,0.7241077423095703
1630501829557,0.3954084813594818,0.0323366820812225,0.1324799209833145,0.7241077423095703
1630501829701,0.3952403962612152,5.077110472484492e-05,0.0774471014738082,0.7241077423095703
1630501829762,0.4296172559261322,-0.019635546952486,0.0342691726982593,0.7241077423095703
1630501829841,0.4876528978347778,-0.0257207974791526,0.0108460774645209,0.7241077423095703
1630501829935,0.5438088774681091,-0.0266312547028064,0.0108460774645209,0.7241077423095703
1630501830023,0.5790038108825684,-0.0337576419115066,0.0108460774645209,0.7241077423095703
1630501830195,0.5902952551841736,-0.0499117411673069,0.0108460774645209,0.7241077423095703
1630501830273,0.5853750705718994,-0.0678220689296722,0.0108460774645209,0.7241077423095703
1630501830367,0.5759528875350952,-0.0792070105671882,0.0108460774645209,0.7241077423095703
1630501830476,0.5759528875350952,-0.0818913727998733,0.0108460774645209,0.7241077423095703
1630501830554,0.5844200849533081,-0.0791000351309776,0.0108460774645209,0.7241077423095703
1630501830648,0.5925974249839783,-0.0716200917959213,0.0108460774645209,0.7241077423095703
1630501830776,0.6033804416656494,-0.0567797198891639,0.0108460774645209,0.7241077423095703
1630501830901,0.620317816734314,-0.0317195504903793,0.0335762798786163,0.7241077423095703
1630501830982,0.6301488280296326,0.0010798078728839,0.0030160075984895,0.7241077423095703
1630501831076,0.6450880169868469,0.034055259078741,-0.0255976058542728,0.7241077423095703
1630501831185,0.6536763906478882,0.0589371249079704,-0.0438037440180778,0.7241077423095703
1630501831279,0.6419721841812134,0.0711125582456588,-0.0451971776783466,0.7241077423095703
1630501831388,0.6029658317565918,0.0724540948867797,-0.0323919616639614,0.7241077423095703
1630501831513,0.543108344078064,0.0693215876817703,-0.0163074843585491,0.7438724637031555
1630501831576,0.4855625927448272,0.0687960609793663,-0.0050998432561755,0.759071409702301
1630501831669,0.4550924599170685,0.0727874189615249,0.0008615477709099,0.771023154258728
1630501831763,0.4543752372264862,0.0777133405208587,0.0064418842084705,0.7849096059799194
1630501831903,0.465334802865982,0.0804270952939987,0.0142420111224055,0.7987977266311646
1630501831982,0.4727972149848938,0.0802062675356864,0.0224529169499874,0.8071151971817017
1630501832094,0.478714257478714,0.0786173641681671,0.0287320148199796,0.8085610866546631
1630501832188,0.4806182086467743,0.0752441510558128,0.0349129550158977,0.8084693551063538
1630501832313,0.4765667021274566,0.0672161057591438,0.0470579154789447,0.8132010698318481
1630501832422,0.4678015112876892,0.0517180785536766,0.0662334486842155,0.8238756656646729
1630501832485,0.4563531577587127,0.0281889252364635,0.0871673077344894,0.8352983593940735
1630501832626,0.4398387968540191,-0.0002747597754932,0.1064707338809967,0.8414261937141418
1630501832735,0.4261342585086822,-0.0275365076959133,0.1247299686074256,0.8502759337425232
1630501832829,0.4246996343135834,-0.0453787744045257,0.1421678215265274,0.8533591628074646
1630501832891,0.4378469288349151,-0.0480621345341205,0.1579406559467315,0.8544843792915344
1630501833000,0.4570662081241607,-0.0352396853268146,0.1713301390409469,0.8561686277389526
1630501833110,0.4705629646778106,-0.0123856700956821,0.1824516952037811,0.8573073148727417
1630501833250,0.4725142419338226,0.0129752848297357,0.1907244473695755,0.8545445799827576
1630501833329,0.4642548859119415,0.0347603447735309,0.1943980604410171,0.8454351425170898
1630501833456,0.4497860670089721,0.0492214076220989,0.1936338692903518,0.8310657143592834
1630501833565,0.4321373403072357,0.0567297264933586,0.1916576325893402,0.8154816627502441
1630501833643,0.4127697646617889,0.060656689107418,0.1901084184646606,0.8018807768821716
1630501833690,0.3959302604198456,0.0646921768784523,0.1860279142856598,0.7892055511474609
1630501833862,0.3895239531993866,0.0693167597055435,0.1750448942184448,0.7729047536849976
1630501833924,0.3980081379413605,0.0726679563522338,0.1569500118494033,0.7495386004447937
1630501834002,0.416089117527008,0.0730815529823303,0.1360246688127517,0.7214398980140686
1630501834127,0.43472421169281,0.0705989971756935,0.1154750362038612,0.6962293386459351
1630501834252,0.4478387832641601,0.0675572752952575,0.09410360455513,0.6791489720344543
1630501834315,0.4539284110069275,0.0676345378160476,0.0700141191482544,0.6676350831985474
1630501834440,0.4562678635120392,0.0736784860491752,0.0449672825634479,0.6572230458259583
1630501834549,0.4599065482616424,0.0835397094488143,0.0260833408683538,0.6487292647361755
1630501834627,0.4725462794303894,0.0909946784377098,0.0217883754521608,0.6465824246406555
1630501834736,0.5037308931350708,0.0922343507409095,0.0382193364202976,0.6561405062675476
1630501834839,0.5541258454322815,0.0906448438763618,0.0738645046949386,0.6799429059028625
1630501834933,0.6093796491622925,0.0935734659433364,0.1169817820191383,0.7159075140953064
1630501835058,0.6529070138931274,0.1055556535720825,0.1525355577468872,0.75490403175354
1630501835167,0.6788369417190552,0.121183268725872,0.1729147881269455,0.7852022647857666
1630501835260,0.6913632750511169,0.1323768049478531,0.1800369471311569,0.8003930449485779
1630501835370,0.6973073482513428,0.13643279671669,0.1813208162784576,0.8034968376159668
1630501835432,0.7003976702690125,0.136176511645317,0.1830982714891433,0.8026402592658997
1630501835573,0.7032600045204163,0.1368235796689987,0.1880891472101211,0.8032410144805908
1630501835667,0.7084805369377136,0.1406633853912353,0.1962977647781372,0.8048330545425415
1630501835760,0.7152305841445923,0.1454856246709823,0.2063682079315185,0.8049526810646057
1630501835854,0.720346212387085,0.1451705545186996,0.2167764008045196,0.8019123673439026
1630501835963,0.7214034199714661,0.1346731632947921,0.2261031419038772,0.7947173714637756
1630501836073,0.7179133296012878,0.1134368479251861,0.2315757274627685,0.7826056480407715
1630501836169,0.7082004547119141,0.0876429006457328,0.2285682111978531,0.7667469382286072
1630501836294,0.6861658096313477,0.0644611865282058,0.2122732996940612,0.747081458568573
1630501836356,0.6470277309417725,0.0492934137582778,0.1811149269342422,0.7211601734161377
1630501836466,0.6117761731147766,0.0435230247676372,0.1390181928873062,0.6863669157028198
1630501836559,0.5766131281852722,0.0447039119899272,0.0962213277816772,0.6465938687324524
1630501836700,0.5526600480079651,0.0525620095431804,0.0675320699810981,0.6157709956169128
1630501836763,0.5481477975845337,0.0674545988440513,0.0678070113062858,0.6071913242340088
1630501836887,0.5475561022758484,0.0881399363279342,0.099912479519844,0.6183253526687622
1630501837012,0.543022632598877,0.1119263917207717,0.1497157365083694,0.6380611062049866
1630501837075,0.5358231067657471,0.1344475895166397,0.1964408159255981,0.6589117050170898
1630501837169,0.5282095670700073,0.1513979583978653,0.2266537845134735,0.6793760061264038
1630501837262,0.5215916633605957,0.1603516638278961,0.2384091019630432,0.6980902552604675
1630501837356,0.5173388719558716,0.1628471761941909,0.2371762692928314,0.7127654552459717
1630501837489,0.5190988183021545,0.1621925085783004,0.2297849208116531,0.7241393327713013
1630501837599,0.5295169949531555,0.1614877879619598,0.2209361791610717,0.7353924512863159
1630501837739,0.5466236472129822,0.1603114604949951,0.2141772657632827,0.7469602227210999
1630501837802,0.5658777952194214,0.1587491482496261,0.2115642130374908,0.7566791772842407
1630501837864,0.5858038067817688,0.1565345525741577,0.2146018743515014,0.7641374468803406
1630501837972,0.5908527374267578,0.1533502787351608,0.2245241105556488,0.7701078057289124
1630501838130,0.5990893244743347,0.1487964689731598,0.2397250384092331,0.7746790647506714
1630501838205,0.6117342710494995,0.142084926366806,0.253321498632431,0.7754812240600586
1630501838299,0.6171134114265442,0.1325072646141052,0.2560433447360992,0.7716166973114014
1630501838407,0.6164687871932983,0.1199748069047927,0.2424000054597854,0.765733003616333
1630501838485,0.6115700006484985,0.1032629758119583,0.2142035216093063,0.7597495317459106
1630501838598,0.6185088157653809,0.0826911404728889,0.1798410713672638,0.7528756260871887
1630501838705,0.6226815581321716,0.0622642673552036,0.1559468507766723,0.7431663870811462
1630501838829,0.6255010366439819,0.0478471294045448,0.1472348719835281,0.7305614352226257
1630501838908,0.6286163926124573,0.0441204942762851,0.1522942334413528,0.7272583246231079
1630501839003,0.6291014552116394,0.0511052012443542,0.1631349623203277,0.7288113832473755
1630501839099,0.6230469942092896,0.0649666860699653,0.1749988347291946,0.7307717204093933
1630501839196,0.6114810109138489,0.0837036222219467,0.1876264065504074,0.7304288744926453
1630501839320,0.6017938256263733,0.1064946353435516,0.2022918909788131,0.7293229103088379
1630501839401,0.6615591049194336,0.131396397948265,0.2155502140522003,0.7283042073249817
1630501839543,0.7115193605422974,0.1533526182174682,0.219504103064537,0.7259016633033752
1630501839603,0.7301100492477417,0.1657891422510147,0.2090220302343368,0.7215722799301147
1630501839714,0.7235466837882996,0.1657891422510147,0.1885895580053329,0.7200430631637573
1630501839776,0.7137784361839294,0.1657891422510147,0.1885895580053329,0.7251446843147278
1630501839918,0.7438820600509644,0.1657891422510147,0.1885895580053329,0.732620894908905
1630501840059,0.7935552597045898,0.1657891422510147,0.1885895580053329,0.732620894908905
1630501840105,0.7935552597045898,0.1657891422510147,0.1885895580053329,0.732620894908905
1630501840201,0.7935552597045898,0.1657891422510147,0.1885895580053329,0.732620894908905
1630501840307,0.7935552597045898,0.1657891422510147,0.1885895580053329,0.732620894908905
1630501840418,0.7935552597045898,0.1657891422510147,0.1885895580053329,0.732620894908905
1630501840561,0.7935552597045898,0.1657891422510147,0.1885895580053329,0.732620894908905
1630501840655,0.7935552597045898,0.1657891422510147,0.1885895580053329,0.732620894908905
1630501840716,0.7935552597045898,0.1657891422510147,0.1885895580053329,0.732620894908905
1630501840827,0.7935552597045898,0.1657891422510147,0.1885895580053329,0.732620894908905
1630501840919,0.753205418586731,0.1657891422510147,0.1885895580053329,0.732620894908905
1630501841028,0.753205418586731,0.1657891422510147,0.1885895580053329,0.732620894908905
1630501841154,0.753205418586731,0.1657891422510147,0.1885895580053329,0.732620894908905
1630501841296,0.753205418586731,0.1657891422510147,0.1885895580053329,0.732620894908905
1630501841358,0.753205418586731,0.1657891422510147,0.1885895580053329,0.732620894908905
1630501841420,0.753205418586731,0.1657891422510147,0.1885895580053329,0.732620894908905
1630501841516,0.753205418586731,0.1657891422510147,0.1885895580053329,0.732620894908905
1630501841626,0.753205418586731,0.1657891422510147,0.1885895580053329,0.732620894908905
1630501841751,0.753205418586731,0.2447045892477035,0.0889263078570365,0.732620894908905
1630501841861,0.753205418586731,0.2982931137084961,0.1512201428413391,0.732620894908905
1630501841956,0.753205418586731,0.335362434387207,0.182509958744049,0.732620894908905
1630501842019,0.753205418586731,0.3512082397937774,0.1897861808538437,0.732620894908905
1630501842161,0.753205418586731,0.3521389663219452,0.185247853398323,0.732620894908905
1630501842255,0.753205418586731,0.3492405414581299,0.1790768653154373,0.732620894908905
1630501842350,0.753205418586731,0.3473246395587921,0.1779222637414932,0.732620894908905
1630501842475,0.753205418586731,0.3457474708557129,0.1869983375072479,0.732620894908905
1630501842570,0.753205418586731,0.3414084911346435,0.207394853234291,0.732620894908905
1630501842646,0.753205418586731,0.3345282971858978,0.2329150587320327,0.732620894908905
1630501842773,0.753205418586731,0.3273002803325653,0.2546508312225342,0.732620894908905
1630501842835,0.753205418586731,0.3201914131641388,0.2664555311203003,0.732620894908905
1630501842974,0.753205418586731,0.3218547701835632,0.2835652530193329,0.732620894908905
1630501843069,0.753205418586731,0.3184021413326263,0.2925221025943756,0.732620894908905
1630501843178,0.753205418586731,0.3067346215248108,0.2907338738441467,0.732620894908905
1630501843272,0.753205418586731,0.2840321362018585,0.2791532576084137,0.732620894908905
1630501843367,0.753205418586731,0.2512038648128509,0.2643164694309234,0.732620894908905
1630501843445,0.753205418586731,0.2162075042724609,0.2543467283248901,0.732620894908905
1630501843603,0.753205418586731,0.1906374990940094,0.2541213631629944,0.732620894908905
1630501843711,0.753205418586731,0.1789366155862808,0.2628201842308044,0.732620894908905
1630501843774,0.753205418586731,0.1741208136081695,0.2764929533004761,0.732620894908905
1630501843867,0.753205418586731,0.1689956188201904,0.2898061871528625,0.732620894908905
1630501843960,0.753205418586731,0.1618051379919052,0.2981252670288086,0.732620894908905
1630501844071,0.753205418586731,0.1509637534618377,0.3042792677879333,0.732620894908905
1630501844207,0.753205418586731,0.1430883258581161,0.2907462418079376,0.732620894908905
1630501844302,0.753205418586731,0.1359775215387344,0.2735651433467865,0.732620894908905
1630501844428,0.753205418586731,0.1290046125650406,0.2605949938297272,0.732620894908905
1630501844490,0.753205418586731,0.1249474734067916,0.2579929232597351,0.732620894908905
1630501844584,0.753205418586731,0.1284949034452438,0.2663313448429107,0.732620894908905
1630501844694,0.753205418586731,0.1427625119686126,0.2828105986118316,0.732620894908905
1630501844821,0.753205418586731,0.16699880361557,0.3046913743019104,0.732620894908905
1630501844929,0.753205418586731,0.1983118206262588,0.3286680877208709,0.732620894908905
1630501845029,0.753205418586731,0.2301100790500641,0.351993054151535,0.732620894908905
1630501845116,0.753205418586731,0.2538705766201019,0.3731222450733185,0.732620894908905
1630501845225,0.753205418586731,0.2538705766201019,0.3910053372383117,0.732620894908905
1630501845288,0.753205418586731,0.2538705766201019,0.3910053372383117,0.732620894908905
1630501845444,0.753205418586731,0.2538705766201019,0.3910053372383117,0.732620894908905
1630501845508,0.753205418586731,0.2538705766201019,0.3910053372383117,0.732620894908905
1630501845584,0.753205418586731,0.2538705766201019,0.3910053372383117,0.732620894908905
1630501845694,0.753205418586731,0.2538705766201019,0.3910053372383117,0.732620894908905
1630501845787,0.753205418586731,0.2538705766201019,0.3910053372383117,0.732620894908905
1630501845915,0.753205418586731,0.2538705766201019,0.3910053372383117,0.732620894908905
1630501846038,0.753205418586731,0.2538705766201019,0.3910053372383117,0.732620894908905
1630501846099,0.753205418586731,0.2538705766201019,0.3910053372383117,0.732620894908905
1630501846209,0.753205418586731,0.2538705766201019,0.3910053372383117,0.732620894908905
1630501846305,0.753205418586731,0.2041699290275573,0.3910053372383117,0.7781113386154175
1630501846383,0.753205418586731,0.2370597124099731,0.5774741768836975,0.7936744689941406
1630501846525,0.753205418586731,0.2370597124099731,0.6554360389709473,0.7936744689941406
1630501846650,0.753205418586731,0.2370597124099731,0.6897973418235779,0.7936744689941406
1630501846728,0.753205418586731,0.2370597124099731,0.691813588142395,0.7936744689941406
1630501846822,0.753205418586731,0.2370597124099731,0.6754246950149536,0.7936744689941406
1630501846915,0.753205418586731,0.2370597124099731,0.6525466442108154,0.7936744689941406
1630501847025,0.753205418586731,0.2370597124099731,0.6299808621406555,0.7936744689941406
1630501847119,0.753205418586731,0.2370597124099731,0.6089951992034912,0.7936744689941406
1630501847243,0.753205418586731,0.2370597124099731,0.5879459381103516,0.7936744689941406
1630501847336,0.753205418586731,0.2370597124099731,0.566683292388916,0.7936744689941406
1630501847414,0.753205418586731,0.2370597124099731,0.5466859936714172,0.7936744689941406
1630501847524,0.753205418586731,0.2836323082447052,0.53019118309021,0.8172580599784851
1630501847619,0.753205418586731,0.3257611691951751,0.5360885858535767,0.8172580599784851
1630501847728,0.753205418586731,0.3572485446929931,0.5346551537513733,0.8172580599784851
1630501847868,0.753205418586731,0.3791202902793884,0.5167126655578613,0.8172580599784851
1630501847946,0.753205418586731,0.398401141166687,0.4774284064769745,0.8172580599784851
1630501848039,0.753205418586731,0.4130292236804962,0.4204840660095215,0.8172580599784851
1630501848135,0.3901765048503876,0.4188269078731537,0.3588073551654815,0.3237367272377014
1630501848229,0.3855026662349701,0.4113049805164337,0.3070562481880188,0.3294195830821991
1630501848322,0.3854927718639374,0.3944147527217865,0.2710152566432953,0.3436715304851532
1630501848449,0.3961292207241058,0.3771310746669769,0.2475181668996811,0.3741144239902496
1630501848557,0.415073424577713,0.3648550510406494,0.2336573302745819,0.4161875545978546
1630501848651,0.434805154800415,0.3561045825481415,0.2312920093536377,0.460551917552948
1630501848758,0.434805154800415,0.3467859923839569,0.2418997138738632,0.4988070428371429
1630501848822,0.434805154800415,0.3345061242580414,0.260329931974411,0.5273832082748413
1630501848961,0.434805154800415,0.3197890818119049,0.2790858745574951,0.5487791299819946
1630501849088,0.4446070492267608,0.2957051992416382,0.2934782207012176,0.5725497603416443
1630501849151,0.4526688754558563,0.2766700088977813,0.3031686246395111,0.6061701774597168
1630501849290,0.4569438397884369,0.2630975544452667,0.3098098039627075,0.6454527974128723
1630501849352,0.4611421227455139,0.2488149553537368,0.3189438283443451,0.6941202282905579
1630501849448,0.4610037505626678,0.2279555052518844,0.3353301584720611,0.7308506369590759
1630501849526,0.4556786715984344,0.2003326267004013,0.3595698177814483,0.754307210445404
1630501849682,0.4471883773803711,0.1703733801841735,0.3892671167850494,0.7708228230476379
1630501849811,0.4538472890853882,0.1442813277244568,0.4228942990303039,0.789620578289032
1630501849869,0.4601305425167084,0.1243662610650062,0.4601844251155853,0.8087065815925598
1630501849979,0.4606972634792328,0.1081930100917816,0.4973287284374237,0.8258460164070129
1630501850072,0.4514099359512329,0.0953581184148788,0.5267401933670044,0.8397934436798096
1630501850134,0.4320951402187347,0.0917202457785606,0.542826771736145,0.8508554697036743
1630501850277,0.4320951402187347,0.0813324004411697,0.5462226867675781,0.861251711845398
1630501850369,0.4320951402187347,0.0771879404783248,0.542616605758667,0.8741519451141357
1630501850479,0.4320951402187347,0.0806260183453559,0.5382584929466248,0.8910224437713623
1630501850575,0.4146715104579925,0.0868925154209137,0.5353555679321289,0.9061506390571594
1630501850669,0.3885224163532257,0.0890629515051841,0.5315683484077454,0.9073140621185304
1630501850778,0.3550434708595276,0.0839098617434501,0.5248123407363892,0.8839280605316162
1630501850889,0.3550434708595276,0.0714425072073936,0.5144280791282654,0.8839280605316162
1630501850996,0.3550434708595276,0.099847562611103,0.5011415481567383,0.8839280605316162
1630501851090,0.3550434708595276,0.171449601650238,0.4866955578327179,0.8839280605316162
1630501851186,0.3550434708595276,0.2603129744529724,0.4775886833667755,0.8839280605316162
1630501851293,0.3550434708595276,0.3400354385375976,0.4644732177257538,0.8839280605316162
1630501851388,0.3550434708595276,0.3949002623558044,0.4430140256881714,0.8839280605316162
1630501851528,0.3550434708595276,0.4244868755340576,0.4110398292541504,0.8839280605316162
1630501851624,0.3550434708595276,0.4335872232913971,0.3739022612571716,0.8839280605316162
1630501851688,0.3550434708595276,0.4262778460979461,0.3432464897632599,0.8839280605316162
1630501851797,0.3550434708595276,0.3976085782051086,0.328329861164093,0.8839280605316162
1630501851891,0.3550434708595276,0.3744159042835235,0.3272819519042969,0.8839280605316162
1630501851983,0.3550434708595276,0.3580250442028045,0.329910010099411,0.8839280605316162
1630501852109,0.3550434708595276,0.3474696278572082,0.328642338514328,0.8839280605316162
1630501852186,0.3550434708595276,0.3395913541316986,0.3272916674613952,0.8839280605316162
1630501852325,0.3550434708595276,0.3304647505283355,0.3272916674613952,0.8839280605316162
1630501852390,0.3550434708595276,0.3174965679645538,0.3272916674613952,0.8839280605316162
1630501852484,0.3550434708595276,0.2978368401527405,0.3272916674613952,0.8839280605316162
1630501852564,0.3550434708595276,0.2569873631000519,0.3272916674613952,0.8839280605316162
1630501852768,0.3550434708595276,0.2026690542697906,0.3272916674613952,0.8839280605316162
1630501852799,0.3550434708595276,0.1510438770055771,0.3272916674613952,0.8839280605316162
1630501852939,0.3550434708595276,0.1205772086977958,0.3272916674613952,0.8839280605316162
1630501853003,0.3550434708595276,0.1135660707950592,0.3272916674613952,0.8839280605316162
1630501853099,0.3550434708595276,0.1182244271039962,0.3272916674613952,0.8839280605316162
1630501853209,0.3550434708595276,0.1230764240026474,0.3272916674613952,0.8839280605316162
1630501853338,0.3550434708595276,0.1239617243409156,0.3272916674613952,0.8839280605316162
1630501853429,0.3550434708595276,0.1198692619800567,0.5738643407821655,0.8839280605316162
1630501853524,0.3550434708595276,0.1111527234315872,0.5668251514434814,0.8839280605316162
1630501853650,0.3550434708595276,0.0994905978441238,0.5652580261230469,0.8839280605316162
1630501853762,0.3550434708595276,0.0880320444703102,0.5643244385719299,0.8839280605316162
1630501853822,0.3550434708595276,0.0838374719023704,0.5610036253929138,0.8839280605316162
1630501853932,0.3550434708595276,0.0923670008778572,0.5524587631225586,0.8839280605316162
1630501854042,0.3550434708595276,0.1107960939407348,0.5379289984703064,0.8839280605316162
1630501854135,0.3550434708595276,0.1299162358045578,0.5190966725349426,0.8839280605316162
1630501854246,0.3550434708595276,0.1433663219213485,0.5190966725349426,0.8839280605316162
1630501854323,0.3550434708595276,0.1473960280418396,0.5190966725349426,0.8839280605316162
1630501854417,0.3550434708595276,0.1403854936361313,0.5190966725349426,0.8839280605316162
1630501854575,0.3550434708595276,0.1263410747051239,0.5190966725349426,0.8839280605316162
1630501854638,0.3550434708595276,0.1126631051301956,0.506040096282959,0.8839280605316162
1630501854779,0.3550434708595276,0.1063259616494178,0.4949071407318115,0.8839280605316162
1630501854842,0.3550434708595276,0.1087863594293594,0.488978624343872,0.8839280605316162
1630501854936,0.3550434708595276,0.1068111360073089,0.484391450881958,0.8839280605316162
1630501855064,0.3550434708595276,0.1180529221892356,0.4748784899711609,0.8839280605316162
1630501855155,0.3550434708595276,0.1275148838758468,0.4563266932964325,0.8839280605316162
1630501855249,0.3550434708595276,0.1343067437410354,0.4264682233333587,0.8839280605316162
1630501855358,0.3550434708595276,0.1336443126201629,0.4264682233333587,0.8839280605316162
1630501855453,0.3550434708595276,0.1176850944757461,0.4264682233333587,0.8839280605316162
1630501855529,0.3550434708595276,0.1176850944757461,0.4264682233333587,0.8839280605316162
1630501855623,0.3550434708595276,0.1176850944757461,0.4264682233333587,0.8839280605316162
1630501855782,0.3550434708595276,0.1176850944757461,0.4264682233333587,0.8839280605316162
1630501855864,0.3550434708595276,0.0096484730020165,0.0670043304562568,0.8839280605316162
1630501855970,0.3550434708595276,0.0086791822686791,0.060680266469717,0.8839280605316162
1630501856078,0.3550434708595276,0.0185605157166719,0.0623643919825553,0.8839280605316162
1630501856141,0.3550434708595276,0.0327255278825759,0.0666353926062583,0.8839280605316162
1630501856252,0.3550434708595276,0.0456926897168159,0.0696320012211799,0.8839280605316162
1630501856393,0.3550434708595276,0.0481757335364818,0.0755904540419578,0.8839280605316162
1630501856486,0.3550434708595276,0.0584143586456775,0.0901763215661048,0.8839280605316162
1630501856596,0.3550434708595276,0.0538713186979293,0.1116949468851089,0.8839280605316162
1630501856658,0.3550434708595276,0.0471513569355011,0.1315245330333709,0.8839280605316162
1630501856759,0.3550434708595276,0.0415660366415977,0.1410492658615112,0.8839280605316162
1630501856848,0.3550434708595276,0.0377645641565322,0.1408790349960327,0.8839280605316162
1630501856989,0.3550434708595276,0.0335499010980129,0.137387216091156,0.8839280605316162
1630501857086,0.3550434708595276,0.0264849606901407,0.1293415874242782,0.8839280605316162
1630501857191,0.3550434708595276,0.016434846445918,0.1298294067382812,0.8839280605316162
1630501857285,0.3550434708595276,0.0067897089757025,0.1286281049251556,0.8839280605316162
1630501857363,0.3550434708595276,-0.0031564745586365,0.1222622618079185,0.8839280605316162
1630501857493,0.3550434708595276,-0.0146464174613356,0.1143548041582107,0.8839280605316162
1630501857616,0.3550434708595276,-0.0297226272523403,0.1089100763201713,0.8839280605316162
1630501857694,0.3550434708595276,-0.0469584465026855,0.1085694879293441,0.8839280605316162
1630501857790,0.3550434708595276,-0.0633259639143943,0.1131054908037185,0.8839280605316162
1630501857882,0.3550434708595276,-0.0752202421426773,0.1161963492631912,0.8839280605316162
1630501857990,0.3550434708595276,-0.0813692435622215,0.1095634177327156,0.8839280605316162
1630501858087,0.3550434708595276,-0.0828208997845649,0.0904075726866722,0.8839280605316162
1630501858230,0.3550434708595276,-0.0837169736623764,0.0656576156616211,0.8839280605316162
1630501858323,0.3550434708595276,-0.0877292975783348,0.0481246300041675,0.8839280605316162
1630501858386,0.3550434708595276,-0.0955323576927185,0.0449381470680236,0.8839280605316162
1630501858497,0.3550434708595276,-0.1005656868219375,0.0538745671510696,0.8839280605316162
1630501858590,0.3550434708595276,-0.0948235020041465,0.0696081444621086,0.8839280605316162
1630501858684,0.3550434708595276,-0.0780034810304641,0.0888239815831184,0.8839280605316162
1630501858830,0.3550434708595276,-0.0573196224868297,0.108162485063076,0.8839280605316162
1630501858921,0.3550434708595276,-0.039945363998413,0.1245523616671562,0.8839280605316162
1630501859030,0.3550434708595276,-0.0274570938199758,0.135384127497673,0.8839280605316162
1630501859123,0.3550434708595276,-0.0160897262394428,0.1392451524734497,0.8839280605316162
1630501859249,0.3550434708595276,-0.0030082617886364,0.1354266107082367,0.8839280605316162
1630501859295,0.3550434708595276,0.0105310659855604,0.1249765828251838,0.8839280605316162
1630501859421,0.3550434708595276,0.0203027464449405,0.1117468848824501,0.8839280605316162
1630501859512,0.3550434708595276,0.0248320046812295,0.1004779711365699,0.8839280605316162
1630501859607,0.3550434708595276,0.0269369855523109,0.0941513180732727,0.8839280605316162
1630501859685,0.3550434708595276,0.0324866771697998,0.0920278131961822,0.8839280605316162
1630501859827,0.3550434708595276,0.0434923991560936,0.0910097360610961,0.8839280605316162
1630501859891,0.3550434708595276,0.0567041970789432,0.0860913395881652,0.8839280605316162
1630501860062,0.3550434708595276,0.064314104616642,0.0719243809580802,0.8839280605316162
1630501860157,0.3550434708595276,0.0631005689501762,0.0481250323355197,0.8839280605316162
1630501860217,0.3550434708595276,0.0576383993029594,0.0212774407118558,0.8839280605316162
1630501860326,0.3550434708595276,0.056141123175621,-0.0008366420515812,0.8839280605316162
1630501860423,0.3550434708595276,0.0618434026837348,-0.0148654747754335,0.8839280605316162
1630501860517,0.3550434708595276,0.0705186873674392,-0.0228447075933218,0.8839280605316162
1630501860659,0.3550434708595276,0.0777590870857238,-0.0279684979468584,0.8839280605316162
1630501860755,0.3550434708595276,0.0861342251300811,-0.0313396528363227,0.8839280605316162
1630501860864,0.3550434708595276,0.0990974605083465,-0.0340362675487995,0.8839280605316162
1630501860960,0.3550434708595276,0.1156971976161003,-0.0365994460880756,0.8839280605316162
1630501861020,0.3550434708595276,0.1191341280937194,-0.0387503467500209,0.8839280605316162
1630501861130,0.3550434708595276,0.1252644956111908,-0.0399866066873073,0.8839280605316162
1630501861257,0.3550434708595276,0.1305586248636245,-0.0405511297285556,0.8839280605316162
1630501861351,0.3550434708595276,0.1332270950078964,-0.0408448502421379,0.8839280605316162
1630501861489,0.3550434708595276,0.1357691437005996,-0.038687065243721,0.8839280605316162
1630501861528,0.3550434708595276,0.1444947868585586,-0.0340107157826423,0.8839280605316162
1630501861661,0.3550434708595276,0.1616149395704269,-0.0306704249233007,0.8839280605316162
1630501861764,0.3550434708595276,0.1822134107351303,-0.0318547114729881,0.8839280605316162
1630501861851,0.3550434708595276,0.1989248394966125,-0.0335949771106243,0.8839280605316162
1630501861961,0.3550434708595276,0.2111966609954834,-0.030454171821475,0.8839280605316162
1630501862072,0.3550434708595276,0.20428366959095,-0.0238207597285509,0.8839280605316162
1630501862151,0.3550434708595276,0.1965260654687881,-0.0174193307757377,0.8839280605316162
1630501862256,0.3550434708595276,0.1721270978450775,-0.0135051254183053,0.8839280605316162
1630501862319,0.3550434708595276,0.1260099560022354,-0.0102924592792987,0.8839280605316162
1630501862475,0.3550434708595276,0.0696843266487121,-0.0061263814568519,0.8839280605316162
1630501862571,0.3550434708595276,0.0720057114958763,-0.0005193130346015,0.8839280605316162
1630501862679,0.3550434708595276,0.0711762532591819,0.0062081567011773,0.8839280605316162
1630501862742,0.3550434708595276,0.0731787830591201,0.0140228811651468,0.8839280605316162
1630501862869,0.3550434708595276,0.0873710960149765,0.022702207788825,0.8839280605316162
1630501862943,0.3550434708595276,0.1135903894901275,0.0290098953992128,0.6084592938423157
1630501863086,0.4314435422420501,0.1426794379949569,0.0319234877824783,0.5797648429870605
1630501863195,0.4763023257255554,0.1641603410243988,0.0340115837752819,0.5575395822525024
1630501863272,0.5121788382530212,0.1724358946084976,0.0381366275250911,0.5447433590888977
1630501863366,0.5298584699630737,0.1684547960758209,0.0418957509100437,0.540798544883728
1630501863476,0.5298584699630737,0.1571803838014602,0.0408525168895721,0.540798544883728
1630501863556,0.5298584699630737,0.1465201675891876,0.0361639484763145,0.540798544883728
1630501863726,0.5298584699630737,0.1353934556245803,0.0342232100665569,0.540798544883728
1630501863790,0.5298584699630737,0.1257465481758117,0.0407806746661663,0.540798544883728
1630501863884,0.5298584699630737,0.1152250841259956,0.0541612543165683,0.540798544883728
1630501863992,0.5298584699630737,0.1023636236786842,0.0669345632195472,0.540798544883728
1630501864087,0.5298584699630737,0.0908670127391815,0.0724043548107147,0.540798544883728
1630501864152,0.5298584699630737,0.083431527018547,0.069742813706398,0.5180638432502747
1630501864324,0.5435492396354675,0.0775021538138389,0.0622713007032871,0.4907957315444946
1630501864386,0.573161780834198,0.0649384707212448,0.0541957281529903,0.4692013561725616
1630501864493,0.6075415015220642,0.0397560782730579,0.0491403676569461,0.4606158137321472
1630501864588,0.6075415015220642,0.0013761793961748,0.0490493811666965,0.4606158137321472
1630501864685,0.6075415015220642,-0.0413871482014656,0.0532816983759403,0.4606158137321472
1630501864793,0.6075415015220642,-0.0737968385219574,0.0603488981723785,0.4606158137321472
1630501864922,0.6075415015220642,-0.0921422839164733,0.0631512254476547,0.4606158137321472
1630501865030,0.6075415015220642,-0.0965714901685714,0.0667836591601371,0.4606158137321472
1630501865124,0.6075415015220642,-0.0925958454608917,0.0718234032392501,0.4933666288852691
1630501865186,0.6075415015220642,-0.0848690196871757,0.0748932734131813,0.5071150660514832
1630501865326,0.6075415015220642,-0.0750169903039932,0.0705347955226898,0.5239441990852356
1630501865388,0.6075415015220642,-0.062174379825592,0.0577853247523307,0.5310400128364563
1630501865559,0.6075415015220642,-0.0463357307016849,0.0441133566200733,0.530269205570221
1630501865622,0.6075415015220642,-0.0318404361605644,0.0417801812291145,0.530269205570221
1630501865748,0.6075415015220642,-0.0245534144341945,0.0548779033124446,0.530269205570221
1630501865825,0.6075415015220642,-0.0280285459011793,0.0752439871430397,0.530269205570221
1630501865920,0.6075415015220642,-0.0280285459011793,0.0926478281617164,0.530269205570221
1630501865996,0.6075415015220642,-0.0280285459011793,0.0926478281617164,0.530269205570221
1630501866153,0.6075415015220642,-0.0280285459011793,0.0926478281617164,0.530269205570221
1630501866215,0.6075415015220642,-0.0280285459011793,0.0926478281617164,0.530269205570221
1630501866324,0.6075415015220642,-0.0280285459011793,0.0926478281617164,0.5273418426513672
1630501866419,0.6075415015220642,-0.0280285459011793,0.0926478281617164,0.5343395471572876
1630501866525,0.6075415015220642,-0.0280285459011793,0.0926478281617164,0.5501502752304077
1630501866620,0.6075415015220642,0.1283265650272369,0.0926478281617164,0.5642802119255066
1630501866762,0.6075415015220642,0.1410692781209945,0.0926478281617164,0.5642802119255066
1630501866824,0.6075415015220642,0.1477789878845214,0.0926478281617164,0.5642802119255066
1630501866933,0.6075415015220642,0.1460501104593277,0.0926478281617164,0.5642802119255066
1630501867042,0.6075415015220642,0.1365723609924316,0.0926478281617164,0.5642802119255066
1630501867106,0.6075415015220642,0.1242313459515571,0.0926478281617164,0.7802928686141968
1630501867199,0.6075415015220642,0.1119953840970993,0.0926478281617164,0.7802928686141968
1630501867372,0.6075415015220642,0.1014942452311515,0.0926478281617164,0.7802928686141968
1630501867437,0.6075415015220642,0.0939619019627571,0.0926478281617164,0.7802928686141968
1630501867544,0.6075415015220642,0.0912302881479263,0.0926478281617164,0.7802928686141968
1630501867642,0.6075415015220642,0.0921880602836608,0.0926478281617164,0.7802928686141968
1630501867733,0.6075415015220642,0.0937771797180175,0.0926478281617164,0.7802928686141968
1630501867843,0.6075415015220642,0.0961842387914657,0.0926478281617164,0.7802928686141968
1630501867970,0.6075415015220642,0.0939901620149612,0.0926478281617164,0.7802928686141968
1630501868068,0.6075415015220642,0.0856682732701301,0.0926478281617164,0.7802928686141968
1630501868142,0.6075415015220642,0.0733542293310165,0.0926478281617164,0.7802928686141968
1630501868236,0.6075415015220642,0.0602834522724151,0.0926478281617164,0.7802928686141968
1630501868343,0.6075415015220642,0.0484848767518997,0.0926478281617164,0.7802928686141968
1630501868438,0.6075415015220642,0.0433546714484691,0.0926478281617164,0.7802928686141968
1630501868578,0.6075415015220642,0.0495491474866867,0.1412612497806549,0.7802928686141968
1630501868672,0.6075415015220642,0.0654293522238731,0.131390705704689,0.7802928686141968
1630501868767,0.6075415015220642,0.085506334900856,0.1155045181512832,0.7802928686141968
1630501868878,0.6075415015220642,0.1023615077137947,0.0961573645472526,0.7802928686141968
1630501868936,0.6075415015220642,0.1117089316248893,0.0754964426159858,0.7802928686141968
1630501869034,0.6075415015220642,0.1131853237748146,0.0567920394241809,0.7802928686141968
1630501869175,0.6075415015220642,0.1116369217634201,0.044475857168436,0.7802928686141968
1630501869268,0.6075415015220642,0.1124935522675514,0.0391981191933155,0.8104116320610046
1630501869378,0.6654389500617981,0.1183285042643547,0.0383346751332283,0.7856671810150146
1630501869472,0.6675741672515869,0.1273945122957229,0.0395801365375518,0.766313374042511
1630501869581,0.6675741672515869,0.1369477957487106,0.0425286218523979,0.766313374042511
1630501869675,0.6675741672515869,0.1433116346597671,0.0481120869517326,0.766313374042511
1630501869815,0.6675741672515869,0.1445649713277816,0.0572998598217964,0.766313374042511
1630501869909,0.6675741672515869,0.1416615098714828,0.0613925866782665,0.766313374042511
1630501870021,0.6675741672515869,0.136370837688446,0.0598269291222095,0.766313374042511
1630501870084,0.6675741672515869,0.1291678249835968,0.053365234285593,0.766313374042511
1630501870178,0.6675741672515869,0.1202252209186554,0.0451338998973369,0.766313374042511
1630501870240,0.6675741672515869,0.1108456701040268,0.0387378111481666,0.766313374042511
1630501870412,0.6675741672515869,0.1033185273408889,0.0380138792097568,0.766313374042511
1630501870490,0.6675741672515869,0.0979275926947593,0.0445916652679443,0.7324753403663635
1630501870584,0.6803607940673828,0.0937708020210266,0.0565511994063854,0.6988717317581177
1630501870693,0.6803607940673828,0.0895356684923172,0.0682419762015342,0.6988717317581177
1630501870802,0.6803607940673828,0.0843032151460647,0.0740866437554359,0.6988717317581177
1630501870865,0.6803607940673828,0.0762689858675003,0.0720754116773605,0.6988717317581177
1630501871009,0.6803607940673828,0.0678934454917907,0.0642186179757118,0.6988717317581177
1630501871118,0.6803607940673828,0.0665540695190429,0.0537648759782314,0.6988717317581177
1630501871212,0.5713295936584473,0.0779233798384666,0.041479218751192,0.8672976493835449
1630501871275,0.6131266355514526,0.0963458344340324,0.0250801518559455,0.878318190574646
1630501871400,0.6253508925437927,0.1096425503492355,0.0052784187719225,0.8617637753486633
1630501871478,0.62201327085495,0.1129570230841636,-0.0113796340301632,0.8398469686508179
1630501871618,0.6184276938438416,0.1120238527655601,-0.0177960135042667,0.830641508102417
1630501871743,0.6200064420700073,0.1154661998152732,-0.0136364717036485,0.8357803821563721
1630501871821,0.6230179071426392,0.1256233751773834,-0.0046799657866358,0.8471221327781677
1630501871915,0.626024603843689,0.1403915733098983,0.0039039782714098,0.8590538501739502
1630501872011,0.629992663860321,0.1567664146423339,0.0106244068592786,0.8695905208587646
1630501872074,0.6354461312294006,0.1716177612543106,0.015426785685122,0.8771096467971802
1630501872245,0.6396282911300659,0.1814558207988739,0.01808687672019,0.8786875605583191
1630501872339,0.64045649766922,0.1843341886997223,0.0193113088607788,0.8731498718261719
1630501872417,0.650938868522644,0.1821782439947128,0.0236620549112558,0.8732179999351501
1630501872511,0.6518893241882324,0.1774528920650482,0.0378639735281467,0.8615183234214783
1630501872620,0.6397137641906738,0.1690351068973541,0.0621525309979915,0.8395411968231201
1630501872714,0.6159207820892334,0.1557093262672424,0.0891416817903518,0.8146665096282959
1630501872839,0.5898863077163696,0.1409531980752945,0.1100274547934532,0.7966883182525635
1630501872949,0.57217937707901,0.1384678930044174,0.1207932829856872,0.7881820201873779
1630501873042,0.5638259053230286,0.1459319144487381,0.1231695264577865,0.7808590531349182
1630501873104,0.5568535327911377,0.1557198017835617,0.1221793293952941,0.7659810185432434
1630501873198,0.5509162545204163,0.1567671746015548,0.123100958764553,0.7437806725502014
1630501873323,0.5423461198806763,0.1447330564260482,0.1295988857746124,0.7197836637496948
1630501873448,0.5314938426017761,0.1219621300697326,0.139928251504898,0.695795476436615
1630501873542,0.5162217020988464,0.0943294763565063,0.1478225141763687,0.6679768562316895
1630501873636,0.4933528006076813,0.0668428912758827,0.1496351063251495,0.6331232786178589
1630501873745,0.4646824598312378,0.0435273200273513,0.1492466330528259,0.5952386856079102
1630501873854,0.4343961775302887,0.0663177743554115,0.1524022072553634,0.5620818734169006
1630501873917,0.40851691365242,0.0974626094102859,0.1575207859277725,0.5393940806388855
1630501874077,0.3929384648799896,0.123033806681633,0.1550156623125076,0.525507390499115
1630501874140,0.3851907253265381,0.1380852609872818,0.1391910910606384,0.5152180790901184
1630501874233,0.3913626372814178,0.1454842239618301,0.1146408841013908,0.5036720037460327
1630501874343,0.3913289606571197,0.150649756193161,0.0924166813492775,0.4914678931236267
1630501874437,0.3730156719684601,0.1425348073244094,0.0806625857949256,0.4848440885543823
1630501874546,0.3463218212127685,0.1396863013505935,0.0796084031462669,0.492935299873352
1630501874686,0.3387488126754761,0.145830363035202,0.0843979492783546,0.5198308229446411
1630501874733,0.3818656504154205,0.1583514213562011,0.0888197496533393,0.5575388669967651
1630501874874,0.4277531206607818,0.1691135317087173,0.0876591950654983,0.595567524433136
1630501874952,0.4649282991886139,0.171215608716011,0.0800400823354721,0.6276691555976868
1630501875046,0.48587366938591,0.1645359843969345,0.0694811418652534,0.6536489725112915
1630501875139,0.4916690587997436,0.1543196886777877,0.0592421144247055,0.676017701625824
1630501875264,0.487687349319458,0.1457469016313552,0.047853048890829,0.695227861404419
1630501875374,0.479664534330368,0.1348043382167816,0.0344759300351142,0.7118342518806458
1630501875483,0.4718181192874908,0.1244741529226303,0.0233777519315481,0.7271344661712646
1630501875592,0.4668937623500824,0.1137683391571044,0.0220110639929771,0.7421706914901733
1630501875639,0.4736864864826202,0.1018588617444038,0.0328609198331832,0.755519688129425
1630501875733,0.4837963581085205,0.0900315940380096,0.0508465021848678,0.7651268243789673
1630501875905,0.4947821497917175,0.0811551958322525,0.0699313804507255,0.7692705988883972
1630501875967,0.5014258623123169,0.0758235603570938,0.0878307148814201,0.7671332955360413
1630501876092,0.4992734789848327,0.0689762309193611,0.1035721972584724,0.7583584785461426
1630501876170,0.4858737587928772,0.0535008832812309,0.1156839281320571,0.7422763109207153
1630501876264,0.4612026214599609,0.028258828446269,0.1231632158160209,0.7202723622322083
1630501876358,0.4278361201286316,0.00104753265623,0.1256368458271026,0.695275068283081
1630501876499,0.3893365859985351,-0.0182639714330434,0.1247716769576072,0.6708493828773499
1630501876608,0.3521666824817657,-0.0287694204598665,0.1238394901156425,0.6485634446144104
1630501876686,0.3204590082168579,-0.0383731871843338,0.1255489289760589,0.6285949349403381
1630501876795,0.2961318492889404,-0.0535778366029262,0.128826230764389,0.6139021515846252
1630501876858,0.2823947370052337,-0.0731955468654632,0.1288571953773498,0.6077328324317932
1630501876998,0.2837858200073242,-0.0904410704970359,0.1212248429656028,0.608261227607727
1630501877126,0.2987485527992248,-0.1006578356027603,0.1057693138718605,0.6107204556465149
1630501877204,0.3162019848823547,-0.1042426079511642,0.085249088704586,0.6144037246704102
1630501877330,0.3234438002109527,-0.1033920645713806,0.0628806948661804,0.6217671036720276
1630501877423,0.3199238777160644,-0.0982758924365043,0.0406128466129303,0.6355603337287903
1630501877502,0.3174590766429901,-0.0880118981003761,0.0181879419833421,0.655725359916687
1630501877579,0.329835295677185,-0.0734915807843208,-0.005040016490966,0.6777267456054688
1630501877752,0.3591360747814178,-0.056401927024126,-0.0274903811514377,0.69516521692276
1630501877814,0.3974215984344482,-0.0344633758068084,-0.0454718433320522,0.7058044672012329
1630501877892,0.4353172183036804,0.0005636597634293,-0.0516669638454914,0.7128866910934448
1630501878001,0.4668321907520294,0.0566823557019233,-0.0372793860733509,0.720788300037384
1630501878095,0.4903570711612701,0.1327689588069915,-0.0025581060908734,0.7314711809158325
1630501878189,0.5093061327934265,0.2158144414424896,0.0397742353379726,0.7429751753807068
1630501878313,0.5297248959541321,0.2899978458881378,0.0753230676054954,0.7535090446472168
1630501878423,0.548713207244873,0.3452777862548828,0.0981274917721748,0.7643135190010071
1630501878532,0.5606623888015747,0.3809599876403808,0.1109730973839759,0.772783637046814
1630501878626,0.5624315142631531,0.4031614065170288,0.1188894882798194,0.7788084149360657
1630501878704,0.5573458671569824,0.41853728890419,0.1244023740291595,0.7830126285552979
1630501878798,0.5555324554443359,0.4295341372489929,0.1281400024890899,0.7861265540122986
1630501878938,0.5655994415283203,0.4344159364700317,0.1308939307928085,0.7881584167480469
1630501879036,0.5864718556404114,0.431864857673645,0.1340534687042236,0.7897468209266663
1630501879129,0.6068221926689148,0.4238497018814087,0.1381497234106063,0.7932557463645935
1630501879223,0.6161319017410278,0.4135993719100952,0.140793889760971,0.803278923034668
1630501879332,0.6090195775032043,0.4012353420257568,0.138151153922081,0.8195157051086426
1630501879395,0.6090195775032043,0.383055180311203,0.1263418346643448,0.8195157051086426
1630501879551,0.6090195775032043,0.352972000837326,0.101017527282238,0.8195157051086426
1630501879629,0.6090195775032043,0.3053065240383148,0.0596928484737873,0.8195157051086426
1630501879723,0.6090195775032043,0.2372100800275802,0.0061101573519408,0.8195157051086426
1630501879832,0.3660438060760498,0.1519194543361663,-0.0471423007547855,0.6844598650932312
1630501879942,0.3995456397533417,0.0615436881780624,-0.0851887017488479,0.6760995984077454
1630501880021,0.4047780930995941,-0.0183387249708175,-0.1026205494999885,0.6556140184402466
1630501880163,0.3935945630073547,-0.0818695724010467,-0.1059315726161003,0.632522463798523
1630501880241,0.3805147707462311,-0.1350847482681274,-0.1015365123748779,0.632522463798523
1630501880350,0.3767633736133575,-0.1828244775533676,-0.0923144146800041,0.632522463798523
1630501880444,0.3849663734436035,-0.2171858847141266,-0.0777782723307609,0.632522463798523
1630501880522,0.3986547291278839,-0.2261348217725753,-0.0567922405898571,0.632522463798523
1630501880616,0.4089438617229461,-0.2079089879989624,-0.0312437303364276,0.632522463798523
1630501880772,0.4114584624767303,-0.1737179458141327,-0.0068764048628509,0.632522463798523
1630501880881,0.4078831672668457,-0.1365186870098114,0.0118216769769787,0.632522463798523
1630501880944,0.4016973674297333,-0.1076415926218032,0.0251514855772256,0.632522463798523
1630501881071,0.4067766368389129,-0.0900402963161468,0.0367687121033668,0.6390404105186462
1630501881134,0.4076364934444427,-0.0795119255781173,0.0481972210109233,0.628523588180542
1630501881243,0.4036738872528076,-0.0655031353235244,0.0575242117047309,0.5985570549964905
1630501881384,0.3988279402256012,-0.041802741587162,0.0633655712008476,0.5985570549964905
1630501881477,0.3990424871444702,-0.0128690674901008,0.0669674128293991,0.5985570549964905
1630501881587,0.4108425378799438,0.0128434160724282,0.0700452774763107,0.5985570549964905
1630501881665,0.4358681738376617,0.0317319631576538,0.07353026419878,0.5985570549964905
1630501881743,0.4662472903728485,0.0460066273808479,0.0778258070349693,0.5985570549964905
1630501881829,0.4885222911834717,0.0583180040121078,0.0837601199746131,0.5985570549964905
1630501882002,0.4937033355236053,0.0679746642708778,0.0876232683658599,0.5985570549964905
1630501882080,0.4855491518974304,0.0722381100058555,0.0821219161152839,0.5985570549964905
1630501882188,0.4768614470958709,0.0696990638971328,0.062818169593811,0.5985570549964905
1630501882283,0.4775340259075165,0.0618984177708625,0.0345391407608985,0.5985570549964905
1630501882377,0.4862360954284668,0.0527975633740425,0.0083728712052106,0.5985570549964905
1630501882439,0.4954217970371246,0.047489795833826,-0.0096697304397821,0.5985570549964905
1630501882579,0.501901388168335,0.0486617796123027,-0.024276839569211,0.7028376460075378
1630501882678,0.5071641802787781,0.0540413409471511,-0.0406971126794815,0.6870262026786804
1630501882769,0.5124488472938538,0.0568768307566642,-0.0569942817091941,0.6837344765663147
1630501882874,0.5175962448120117,0.051402173936367,-0.0677114725112915,0.6909621357917786
1630501882967,0.5213720202445984,0.0381458066403865,-0.0698690712451934,0.6909621357917786
1630501883080,0.5212385654449463,0.0243215356022119,-0.0653898641467094,0.6909621357917786
1630501883205,0.5143513083457947,0.0184528585523366,-0.0583423003554344,0.6909621357917786
1630501883299,0.5011954307556152,0.0238811578601598,-0.0535390600562095,0.6989340782165527
1630501883377,0.4874365925788879,0.0360474586486816,-0.0564069859683513,0.7004623413085938
1630501883471,0.4811777770519256,0.0471163727343082,-0.0673889592289924,0.6961009502410889
1630501883576,0.4845988154411316,0.0525557026267051,-0.0806979089975357,0.6890014410018921
1630501883685,0.4924414455890655,0.0522993765771389,-0.0887517631053924,0.6861682534217834
1630501883821,0.4990212619304657,0.0486587174236774,-0.0873455479741096,0.6803118586540222
1630501883899,0.5037426948547363,0.0432152040302753,-0.0798578187823295,0.6958756446838379
1630501884008,0.5109882950782776,0.0354015305638313,-0.0700866505503654,0.7213810086250305
1630501884086,0.52278733253479,0.02588926628232,-0.0581751465797424,0.7458820939064026
1630501884183,0.5342066884040833,0.0168794207274913,-0.0435935109853744,0.7646536827087402
1630501884292,0.5380886793136597,0.0113795800134539,-0.0287667289376258,0.7785857319831848
1630501884433,0.531745970249176,0.0115611292421817,-0.0182641334831714,0.7879509329795837
1630501884527,0.5176689028739929,0.0169950276613235,-0.0148342894390225,0.7905275821685791
1630501884620,0.4996721148490906,0.0239484161138534,-0.0180376768112182,0.7882188558578491
1630501884698,0.48057422041893,0.0275302249938249,-0.0263524018228054,0.7806814312934875
1630501884792,0.4624519944190979,0.0251984577625989,-0.0399012640118598,0.7709944248199463
1630501884901,0.44844451546669,0.0196295995265245,-0.0579998046159744,0.7617273926734924
1630501885058,0.43899005651474,0.0169748906046152,-0.0766699910163879,0.756613552570343
1630501885120,0.4291945397853851,0.0213022343814373,-0.0901028364896774,0.7570050358772278
1630501885233,0.4134901463985443,0.0325884483754634,-0.0944756716489791,0.7582851648330688
1630501885326,0.3912665545940399,0.0483592227101326,-0.0920766443014144,0.7533445358276367
1630501885404,0.3660733699798584,0.0656842663884162,-0.0864571928977966,0.739509105682373
1630501885529,0.3391425609588623,0.08139119297266,-0.079908937215805,0.7207340598106384
1630501885670,0.3079341053962707,0.0908610001206398,-0.0734927281737327,0.7030971050262451
1630501885717,0.2732696533203125,0.0916418358683586,-0.0685195922851562,0.6875889897346497
1630501885826,0.2434282302856445,0.0843358486890792,-0.0639610812067985,0.6694934964179993
1630501885938,0.2268653810024261,0.0718776732683181,-0.0558598786592483,0.6465596556663513
1630501886032,0.2262514978647232,0.0574931800365448,-0.0423080585896968,0.6245347857475281
1630501886141,0.2401192039251327,0.0434938818216323,-0.0254098605364561,0.6139034032821655
1630501886297,0.2662404477596283,0.0307773109525442,-0.0090534621849656,0.6206145882606506
1630501886328,0.3003595769405365,0.0186302959918975,0.0068627223372459,0.6408185362815857
1630501886443,0.3357909619808197,0.0065718037076294,0.0254410374909639,0.6645339727401733
1630501886537,0.3674685060977936,-0.0022793910466134,0.0476930327713489,0.6825919151306152
1630501886615,0.3929400742053985,-0.0024854699149727,0.0708360075950622,0.6894644498825073
1630501886708,0.4119631648063659,0.0059374901466071,0.0903543680906295,0.6861712336540222
1630501886880,0.4261454045772552,0.0151904355734586,0.1025720387697219,0.6788522005081177
1630501886943,0.4405548870563507,0.0181165393441915,0.107058934867382,0.6730071902275085
1630501887083,0.4617763161659241,0.016093848273158,0.1073083579540252,0.6699337363243103
1630501887146,0.4898896813392639,0.0178408846259117,0.108763501048088,0.6715530753135681
1630501887242,0.520524263381958,0.0294820833951234,0.1141027361154556,0.687743067741394
1630501887351,0.5369969606399536,0.0491745881736278,0.1210893765091896,0.6936533451080322
1630501887476,0.5534395575523376,0.071477934718132,0.12457125633955,0.7041974663734436
1630501887585,0.5687052607536316,0.091299332678318,0.1223883926868438,0.7164385318756104
1630501887679,0.5810860395431519,0.1054332479834556,0.116780124604702,0.7240922451019287
1630501887742,0.5883038640022278,0.1133086830377578,0.1110292673110961,0.722298800945282
1630501887844,0.5892509818077087,0.1171055436134338,0.1051464080810546,0.709816575050354
1630501887957,0.5847007632255554,0.121605671942234,0.0964474827051162,0.6898301839828491
1630501888051,0.5775578618049622,0.1290146559476852,0.0838700458407402,0.6697689890861511
1630501888160,0.5740488171577454,0.1352991014719009,0.0712821632623672,0.6598154902458191
1630501888254,0.5825665593147278,0.1347696781158447,0.0647089853882789,0.6666985750198364
1630501888363,0.6084268093109131,0.1262413710355758,0.0687662959098815,0.6889809966087341
1630501888473,0.6084268093109131,0.1156988367438316,0.0835605338215828,0.6889809966087341
1630501888566,0.6084268093109131,0.1097436770796775,0.1037848964333534,0.6889809966087341
1630501888707,0.6084268093109131,0.1087447702884674,0.1213881820440292,0.6889809966087341
1630501888801,0.6084268093109131,0.1108712777495384,0.1304256170988083,0.6889809966087341
1630501888863,0.5681400299072266,0.1169809103012085,0.1294590383768081,0.6412738561630249
1630501888959,0.5428559184074402,0.1288724094629287,0.1226400062441825,0.6412738561630249
1630501889069,0.5182702541351318,0.1467922478914261,0.1161165162920951,0.6412738561630249
1630501889162,0.5052687525749207,0.1683928370475769,0.1138900369405746,0.6412738561630249
1630501889287,0.5056503415107727,0.1916365772485733,0.1190050020813942,0.6412738561630249
1630501889397,0.514244019985199,0.214997112751007,0.1343771517276764,0.6412738561630249
1630501889506,0.514244019985199,0.2345277518033981,0.1579784899950027,0.6412738561630249
1630501889600,0.514244019985199,0.245338574051857,0.1811978369951248,0.6412738561630249
1630501889662,0.514244019985199,0.2464291006326675,0.1945272237062454,0.6412738561630249
1630501889756,0.514244019985199,0.2427213191986084,0.1954506486654281,0.6412738561630249
1630501889944,0.514244019985199,0.2421719878911972,0.1879952102899551,0.6412738561630249
1630501889990,0.514244019985199,0.2467760145664215,0.1769021451473236,0.6412738561630249
1630501890100,0.5089922547340393,0.2512642443180084,0.1639515906572342,0.6412738561630249
1630501890193,0.4955662786960602,0.2505168616771698,0.150165855884552,0.6412738561630249
1630501890271,0.4767435789108276,0.2431574314832687,0.1385123878717422,0.6412738561630249
1630501890381,0.4657256007194519,0.2298021018505096,0.1321721673011779,0.6412738561630249
1630501890509,0.475605845451355,0.2105855941772461,0.1306200325489044,0.6412738561630249
1630501890619,0.475605845451355,0.1862091869115829,0.1302432864904403,0.6412738561630249
1630501890697,0.475605845451355,0.1600300967693328,0.1284216195344925,0.600152313709259
1630501890806,0.475605845451355,0.1344925314188003,0.123837374150753,0.6227720975875854
1630501890900,0.475605845451355,0.108907014131546,0.1145863533020019,0.6445932388305664
1630501890980,0.475605845451355,0.0830379128456115,0.0996666848659515,0.6575099229812622
1630501891121,0.4074110686779022,0.0598543919622898,0.0826339796185493,0.6580170392990112
1630501891214,0.4182281494140625,0.0424878485500812,0.0700299367308616,0.6493409872055054
1630501891324,0.4363014996051788,0.0294996593147516,0.0644662752747535,0.6365902423858643
1630501891418,0.4476127028465271,0.0221563689410686,0.0649103820323944,0.6226763129234314
1630501891511,0.4445973038673401,0.0123231271281838,0.0633579343557357,0.6094170212745667
1630501891589,0.4298129081726074,0.0023125547450035,0.0593041032552719,0.6094170212745667
1630501891746,0.4298129081726074,-0.0015318162040784,0.055008690804243,0.6094170212745667
1630501891839,0.4298129081726074,0.0031529155094176,0.0525749400258064,0.6094170212745667
1630501891903,0.4298129081726074,0.012414401397109,0.0538542456924915,0.6154246926307678
1630501892015,0.4298129081726074,0.02231334336102,0.060708187520504,0.6187822818756104
1630501892124,0.4298129081726074,0.0318219810724258,0.0728349760174751,0.6188397407531738
1630501892202,0.4298129081726074,0.0390592850744724,0.0859560146927833,0.613976240158081
1630501892359,0.4181379675865173,0.0415307432413101,0.0925413519144058,0.5996197462081909
1630501892452,0.421684205532074,0.0382824577391147,0.0856649503111839,0.5711385011672974
1630501892515,0.435272216796875,0.0382824577391147,0.0856649503111839,0.5316528677940369
1630501892624,0.4469378888607025,0.0382824577391147,0.0856649503111839,0.4920469522476196
1630501892734,0.4438723623752594,0.0382824577391147,0.0856649503111839,0.4920469522476196
1630501892827,0.4438723623752594,0.0382824577391147,0.0856649503111839,0.4920469522476196
1630501892952,0.4438723623752594,0.0382824577391147,0.0856649503111839,0.4920469522476196
1630501893061,0.4438723623752594,0.0382824577391147,0.0856649503111839,0.4920469522476196
1630501893124,0.4438723623752594,0.0382824577391147,0.0856649503111839,0.4920469522476196
1630501893233,0.4438723623752594,0.0382824577391147,0.0856649503111839,0.4920469522476196
1630501893327,0.4438723623752594,0.2338694930076599,0.0856649503111839,0.4920469522476196
1630501893421,0.4438723623752594,0.2433220446109771,0.0856649503111839,0.4920469522476196
1630501893577,0.5364791750907898,0.2313030958175659,0.0856649503111839,0.4920469522476196
1630501893655,0.5517851114273071,0.2042058110237121,0.0856649503111839,0.4920469522476196
1630501893796,0.5665271282196045,0.1710980385541916,0.1075766012072563,0.4920469522476196
1630501893827,0.5711838006973267,0.1393497288227081,0.0703779086470604,0.4920469522476196
1630501893968,0.5701051950454712,0.1124098971486091,0.0418935157358646,0.4920469522476196
1630501894061,0.572921633720398,0.0918772146105766,0.023157337680459,0.4920469522476196
1630501894233,0.5844560265541077,0.0771834030747413,0.0160816423594951,0.4920469522476196
1630501894264,0.5987704396247864,0.0657740235328674,0.0182071533054113,0.4920469522476196
1630501894358,0.6069670915603638,0.055223248898983,0.0244320072233676,0.4920469522476196
1630501894467,0.605956494808197,0.0445746891200542,0.0344847738742828,0.6721186637878418
1630501894561,0.5969288945198059,0.0279701314866542,0.0495952814817428,0.7046788930892944
1630501894670,0.5823622345924377,0.0040526846423745,0.0668923035264015,0.7430962324142456
1630501894795,0.5660548210144043,-0.0304813254624605,0.079234093427658,0.774009108543396
1630501894905,0.5491655468940735,-0.0703081861138343,0.0824306979775428,0.8091903328895569
1630501894968,0.5344972014427185,-0.1018445268273353,0.0629801675677299,0.8041821122169495
1630501895093,0.5215227007865906,-0.1118603646755218,0.0515633858740329,0.7925753593444824
1630501895155,0.5079910159111023,-0.0986552909016609,0.0498701408505439,0.7820473909378052
1630501895248,0.4974648058414459,-0.0718501284718513,0.052505113184452,0.7820473909378052
1630501895373,0.4886626005172729,-0.0442323572933673,0.0568702742457389,0.7820473909378052
1630501895483,0.4819052219390869,-0.0237230695784091,0.0621624141931533,0.7820473909378052
1630501895576,0.4700212478637695,-0.0128844734281301,0.0664436593651771,0.7820473909378052
1630501895670,0.4427576661109924,-0.005645393859595,0.0729672461748123,0.7820473909378052
1630501895764,0.3971824944019317,0.0009122312185354,0.0757655426859855,0.7933061718940735
1630501895858,0.3420113623142242,0.0091242436319589,0.0756815969944,0.8051328063011169
1630501895998,0.2903566658496856,0.02050307020545,0.0710132643580436,0.8146789073944092
1630501896076,0.2547293901443481,0.034596212208271,0.0573404729366302,0.8146409392356873
1630501896170,0.2449855357408523,0.0508178770542144,0.0324556455016136,0.7962673306465149
1630501896279,0.2648249864578247,0.0690210834145546,0.0033030346967279,0.7574895024299622
1630501896404,0.2648249864578247,0.0864268317818641,-0.0172161348164081,0.7574895024299622
1630501896482,0.2648249864578247,0.0988139137625694,-0.023920277133584,0.7574895024299622
1630501896607,0.2648249864578247,0.1030564829707145,-0.0243145804852247,0.7574895024299622
1630501896717,0.2648249864578247,0.0968243926763534,-0.0266753993928432,0.7574895024299622
1630501896811,0.2648249864578247,0.0968243926763534,-0.0266753993928432,0.7574895024299622
1630501896873,0.2648249864578247,0.0968243926763534,-0.0266753993928432,0.7574895024299622
1630501897013,0.2648249864578247,0.0968243926763534,-0.0266753993928432,0.7574895024299622
1630501897079,0.2648249864578247,0.0968243926763534,-0.0266753993928432,0.7574895024299622
1630501897204,0.2648249864578247,0.0968243926763534,-0.0266753993928432,0.7574895024299622
1630501897313,0.2648249864578247,0.0968243926763534,-0.0266753993928432,0.7574895024299622
1630501897407,0.2648249864578247,0.0968243926763534,-0.0266753993928432,0.7574895024299622
1630501897516,0.2648249864578247,0.0968243926763534,-0.0266753993928432,0.7574895024299622
1630501897579,0.2648249864578247,0.0968243926763534,-0.0266753993928432,0.7574895024299622
1630501897673,0.2648249864578247,0.0968243926763534,-0.0266753993928432,0.7574895024299622
1630501897844,0.2648249864578247,0.0968243926763534,-0.0266753993928432,0.7574895024299622
1630501897907,0.2648249864578247,0.0968243926763534,-0.0266753993928432,0.7574895024299622
1630501898017,0.2648249864578247,0.0968243926763534,-0.0266753993928432,0.7574895024299622
1630501898098,0.2648249864578247,0.0968243926763534,-0.0266753993928432,0.7574895024299622
1630501898208,0.2648249864578247,0.0968243926763534,-0.0266753993928432,0.7574895024299622
1630501898301,0.2648249864578247,0.0968243926763534,-0.0266753993928432,0.7574895024299622
1630501898442,0.2648249864578247,-0.0159870404750108,-0.0266753993928432,0.7574895024299622
1630501898536,0.2648249864578247,-0.0456733517348766,-0.0266753993928432,0.6371158361434937
1630501898645,0.2648249864578247,-0.0706795305013656,-0.0266753993928432,0.7079143524169922
1630501898721,0.2648249864578247,-0.086227960884571,-0.0266753993928432,0.7534306049346924
1630501898801,0.2648249864578247,-0.0926016643643379,-0.3596349358558655,0.7672364711761475
1630501898910,0.2648249864578247,-0.0893324688076973,-0.3381966352462768,0.7564564943313599
1630501899035,0.2648249864578247,-0.0789396837353706,-0.3235414624214172,0.7336063981056213
1630501899174,0.2648249864578247,-0.0687996745109558,-0.3188459575176239,0.7084671854972839
1630501899244,0.2648249864578247,-0.0642198249697685,-0.3203098773956299,0.7084671854972839
1630501899338,0.2648249864578247,-0.0652286633849144,-0.3206802308559418,0.7084671854972839
1630501899431,0.2648249864578247,-0.0666311904788017,-0.3142274618148803,0.7084671854972839
1630501899541,0.2648249864578247,-0.0671112984418869,-0.2976514399051666,0.7084671854972839
1630501899666,0.2648249864578247,-0.0706708878278732,-0.2723219692707062,0.7084671854972839
1630501899744,0.2648249864578247,-0.0836970880627632,-0.2441963404417038,0.727195680141449
1630501899853,0.2648249864578247,-0.0920827165246009,-0.2208058089017868,0.7460329532623291
1630501899947,0.2648249864578247,-0.0932164788246154,-0.2076481878757476,0.7581636905670166
1630501900045,0.2648249864578247,-0.0865848585963249,-0.1950033456087112,0.7502561211585999
1630501900139,0.2648249864578247,-0.076918140053749,-0.1847444623708725,0.7090192437171936
1630501900233,0.2648249864578247,-0.0677272677421569,-0.1775991916656494,0.6308696269989014
1630501900374,0.2648249864578247,-0.0611159987747669,-0.1691769957542419,0.6308696269989014
1630501900452,0.2648249864578247,-0.0607935599982738,-0.1628149598836898,0.6308696269989014
1630501900545,0.2648249864578247,-0.0697439461946487,-0.1558237820863723,0.6308696269989014
1630501900639,0.2648249864578247,-0.0844751149415969,-0.1119558438658714,0.6308696269989014
1630501900748,0.2648249864578247,-0.0968568474054336,-0.0636253878474235,0.6308696269989014
1630501900873,0.2648249864578247,-0.1008294895291328,-0.0246422924101352,0.6308696269989014
1630501900983,0.2648249864578247,-0.1048031896352768,-0.002349512418732,0.6308696269989014
1630501901040,0.2648249864578247,-0.1048031896352768,0.0045724567025899,0.6308696269989014
1630501901150,0.2648249864578247,-0.1048031896352768,0.0044362037442624,0.6308696269989014
1630501901283,0.2648249864578247,-0.1048031896352768,0.0091006411239504,0.6308696269989014
1630501901341,0.2648249864578247,-0.1048031896352768,0.0309884771704673,0.6308696269989014
1630501901480,0.2648249864578247,-0.1048031896352768,0.0739940479397773,0.6308696269989014
1630501901576,0.2648249864578247,-0.1048031896352768,0.1279318481683731,0.6308696269989014
1630501901685,0.2648249864578247,-0.1048031896352768,0.1786269843578338,0.6308696269989014
1630501901746,0.2648249864578247,-0.1048031896352768,0.2188282161951065,0.6308696269989014
1630501901857,0.2648249864578247,0.3469569385051727,0.2256345152854919,0.6308696269989014
1630501901950,0.2648249864578247,0.3382037281990051,0.2293711304664611,0.6308696269989014
1630501902093,0.2648249864578247,0.3349184393882751,0.2342002838850021,0.6308696269989014
1630501902187,0.2648249864578247,0.3308751881122589,0.2444090694189071,0.6308696269989014
1630501902295,0.2648249864578247,0.3209653198719024,0.2502420544624328,0.6308696269989014
1630501902359,0.2648249864578247,0.3048154711723327,0.2562962770462036,0.6308696269989014
1630501902436,0.2648249864578247,0.2882076203823089,0.2695992588996887,0.6308696269989014
1630501902545,0.2648249864578247,0.2779185771942138,0.2908680438995361,0.6308696269989014
1630501902738,0.2648249864578247,0.2771394848823547,0.3120500147342682,0.6308696269989014
1630501902770,0.2648249864578247,0.2840612530708313,0.3242982923984527,0.6308696269989014
1630501902892,0.2648249864578247,0.2939421832561493,0.3240336179733276,0.6308696269989014
1630501902986,0.2648249864578247,0.3012856543064117,0.31330406665802,0.6308696269989014
1630501903083,0.2648249864578247,0.2989760637283325,0.2968243658542633,0.6308696269989014
1630501903161,0.2648249864578247,0.2871575653553009,0.282022625207901,0.6308696269989014
1630501903292,0.2648249864578247,0.274681031703949,0.2833951115608215,0.6308696269989014
1630501903386,0.2648249864578247,0.2709735631942749,0.3166326880455017,0.6308696269989014
1630501903496,0.2648249864578247,0.2775101959705353,0.375588983297348,0.6308696269989014
1630501903606,0.2648249864578247,0.2744597494602203,0.4353644251823425,0.6308696269989014
1630501903699,0.2648249864578247,0.271953284740448,0.4433885514736175,0.6308696269989014
1630501903798,0.2648249864578247,0.2741696834564209,0.4536313414573669,0.6308696269989014
1630501903925,0.2648249864578247,0.2840120494365692,0.4664221405982971,0.6308696269989014
1630501904009,0.2648249864578247,0.2987229228019714,0.4789011478424072,0.6308696269989014
1630501904121,0.2648249864578247,0.3118085265159607,0.4785501062870025,0.6308696269989014
1630501904221,0.2648249864578247,0.316933274269104,0.4805415868759155,0.6308696269989014
1630501904284,0.2648249864578247,0.3104948103427887,0.4843617975711822,0.6308696269989014
1630501904377,0.2648249864578247,0.2924568057060241,0.4877862632274627,0.6308696269989014
1630501904534,0.2648249864578247,0.2692565619945526,0.4895232915878296,0.6308696269989014
1630501904612,0.2648249864578247,0.2561379373073578,0.4896616637706756,0.6308696269989014
1630501904706,0.2648249864578247,0.2561379373073578,0.487621545791626,0.6308696269989014
1630501904815,0.2648249864578247,0.2561379373073578,0.4767733812332153,0.6308696269989014
1630501904909,0.2648249864578247,0.2561379373073578,0.4432979822158813,0.6308696269989014
1630501905018,0.2648249864578247,0.2561379373073578,0.3771052360534668,0.6308696269989014
1630501905143,0.2648249864578247,0.2561379373073578,0.2851681709289551,0.6308696269989014
1630501905237,0.2648249864578247,0.2870485186576843,0.2934421300888061,0.6308696269989014
1630501905346,0.2648249864578247,0.2846613824367523,0.3062856793403625,0.6308696269989014
1630501905409,0.2648249864578247,0.274563193321228,0.3237126767635345,0.6308696269989014
1630501905502,0.2648249864578247,0.2640798091888428,0.3412436842918396,0.6308696269989014
1630501905643,0.2648249864578247,0.2550981342792511,0.3544055819511413,0.6308696269989014
1630501905752,0.2648249864578247,0.2453261315822601,0.3600979447364807,0.6308696269989014
1630501905874,0.2648249864578247,0.2325097173452377,0.3630107939243316,0.6308696269989014
1630501905940,0.2648249864578247,0.2164034992456436,0.3661450147628784,0.6308696269989014
1630501906050,0.2648249864578247,0.198600172996521,0.369197279214859,0.6308696269989014
1630501906112,0.2648249864578247,0.181792214512825,0.3718388080596924,0.6308696269989014
1630501906222,0.2648249864578247,0.1690386533737182,0.374782532453537,0.6308696269989014
1630501906362,0.2648249864578247,0.1628602743148803,0.3762538731098175,0.6308696269989014
1630501906458,0.2648249864578247,0.1591957807540893,0.3729459941387176,0.6308696269989014
1630501906567,0.2648249864578247,0.1561083048582077,0.3633490204811096,0.6308696269989014
1630501906630,0.2648249864578247,0.1500974893569946,0.3477489054203033,0.6308696269989014
1630501906770,0.2648249864578247,0.1436237394809723,0.3261860907077789,0.6308696269989014
1630501906848,0.2648249864578247,0.132527157664299,0.2967897355556488,0.6308696269989014
1630501906977,0.2648249864578247,0.1249873861670494,0.2585882544517517,0.6308696269989014
1630501907039,0.2648249864578247,0.1185864731669426,0.2143514752388,0.6308696269989014
1630501907148,0.2648249864578247,0.1118607148528099,0.1699149161577224,0.6308696269989014
1630501907242,0.2648249864578247,0.1312670707702636,0.1311278492212295,0.6308696269989014
1630501907352,0.2648249864578247,0.1583459079265594,0.1015200987458229,0.6308696269989014
1630501907445,0.2648249864578247,0.1824046224355697,0.0812274515628814,0.6308696269989014
1630501907573,0.2648249864578247,0.1987795680761337,0.0661882683634758,0.6308696269989014
1630501907683,0.2648249864578247,0.2089139223098755,0.0498347207903862,0.6308696269989014
1630501907746,0.2648249864578247,0.2147983163595199,0.0278764273971319,0.6308696269989014
1630501907890,0.2648249864578247,0.2146820724010467,0.0041401400230824,0.6308696269989014
1630501907953,0.2648249864578247,0.2189096212387085,-0.0121423248201608,0.6308696269989014
1630501908046,0.2648249864578247,0.2171256393194198,-0.0232691261917352,0.6308696269989014
1630501908171,0.2648249864578247,0.2116509675979614,-0.0255875885486602,0.6308696269989014
1630501908281,0.2648249864578247,0.2053720653057098,-0.0184444040060043,0.6308696269989014
1630501908375,0.2648249864578247,0.2053720653057098,-0.0059902616776525,0.6308696269989014
1630501908484,0.2648249864578247,0.2053720653057098,0.0071582808159291,0.6308696269989014
1630501908546,0.2648249864578247,0.2053720653057098,0.0185029692947864,0.6308696269989014
1630501908640,0.2648249864578247,0.2053720653057098,0.0268741808831691,0.6308696269989014
1630501908812,0.2648249864578247,0.1829374432563781,0.0286940447986125,0.6308696269989014
1630501908874,0.2648249864578247,0.1422574371099472,0.0198124684393405,0.6308696269989014
1630501908984,0.2648249864578247,0.0979189500212669,0.0002906828012783,0.6308696269989014
1630501909077,0.2648249864578247,0.0979189500212669,-0.0235346350818872,0.6308696269989014
1630501909187,0.2648249864578247,0.0979189500212669,-0.0235346350818872,0.6308696269989014
1630501909234,0.2648249864578247,0.0979189500212669,-0.0235346350818872,0.6308696269989014
1630501909390,0.2648249864578247,0.0979189500212669,-0.0235346350818872,0.6308696269989014
1630501909499,0.2648249864578247,0.0979189500212669,-0.0235346350818872,0.6308696269989014
1630501909609,0.2648249864578247,0.0979189500212669,-0.0235346350818872,0.6308696269989014
1630501909702,0.2648249864578247,0.0979189500212669,-0.0235346350818872,0.6308696269989014
1630501909796,0.2648249864578247,0.1501635909080505,-0.0235346350818872,0.6308696269989014
1630501909890,0.2648249864578247,0.1430614292621612,-0.0235346350818872,0.6308696269989014
1630501910041,0.2648249864578247,0.1446028351783752,-0.0235346350818872,0.6308696269989014
1630501910135,0.2648249864578247,0.1477163285017013,-0.0235346350818872,0.6308696269989014
1630501910197,0.6998332738876343,0.1518207043409347,-0.0235346350818872,0.6308696269989014
1630501910338,0.6841785311698914,0.1565770506858825,-0.0235346350818872,0.6308696269989014
1630501910400,0.6841785311698914,0.1602701842784881,-0.0235346350818872,0.6308696269989014
1630501910463,0.6841785311698914,0.1607907861471176,-0.0235346350818872,0.6308696269989014
1630501910619,0.6841785311698914,0.1563040912151336,0.3339496254920959,0.6308696269989014
1630501910728,0.6841785311698914,0.1466051489114761,0.2876933813095093,0.6308696269989014
1630501910791,0.6841785311698914,0.1347268968820572,0.2393876761198043,0.6308696269989014
1630501910900,0.6841785311698914,0.1243393421173095,0.1958466619253158,0.6308696269989014
1630501911041,0.6841785311698914,0.110853299498558,0.1619848012924194,0.6308696269989014
1630501911103,0.6841785311698914,0.107352115213871,0.1411678344011306,0.6308696269989014
1630501911228,0.6917739510536194,0.1174934059381485,0.1305543929338455,0.6308696269989014
1630501911322,0.6917739510536194,0.138917326927185,0.1228931695222854,0.6308696269989014
1630501911431,0.6917739510536194,0.1642513424158096,0.1143884733319282,0.6308696269989014
1630501911494,0.6917739510536194,0.1849668771028518,0.106569804251194,0.6308696269989014
1630501911634,0.6917739510536194,0.1957133114337921,0.1013233810663223,0.6308696269989014
1630501911697,0.6917739510536194,0.1951949298381805,0.096975989639759,0.6308696269989014
1630501911822,0.6917739510536194,0.1876150369644165,0.0633397847414016,0.6308696269989014
1630501911931,0.6917739510536194,0.1791041195392608,0.0176144074648618,0.6308696269989014
1630501912025,0.6917739510536194,0.1732074171304702,-0.0299952030181884,0.6308696269989014
1630501912134,0.6917739510536194,0.1712269484996795,-0.0676877200603485,0.6308696269989014
1630501912231,0.6917739510536194,0.1735690385103225,-0.0901893302798271,0.6308696269989014
1630501912293,0.6917739510536194,0.1780913472175598,-0.0991687476634979,0.6308696269989014
1630501912465,0.6917739510536194,0.1821853071451187,-0.0997840613126754,0.6308696269989014
1630501912527,0.6917739510536194,0.1824225783348083,-0.1003646403551101,0.6308696269989014
1630501912637,0.6917739510536194,0.1745762079954147,-0.1104871332645416,0.6308696269989014
1630501912761,0.6917739510536194,0.1558802276849746,-0.1325355023145675,0.6308696269989014
1630501912824,0.6917739510536194,0.1266825497150421,-0.1596442013978958,0.6308696269989014
1630501912918,0.6917739510536194,0.0936860591173172,-0.182173267006874,0.6308696269989014
1630501913043,0.6917739510536194,0.061286624521017,-0.1951864510774612,0.6308696269989014
1630501913153,0.6917739510536194,0.0346948020160198,-0.1993338316679,0.6308696269989014
1630501913250,0.6917739510536194,0.021098393946886,-0.1982048898935318,0.6308696269989014
1630501913343,0.6917739510536194,0.0172272101044654,-0.2137916088104248,0.6308696269989014
1630501913437,0.6917739510536194,0.0143914809450507,-0.2210118770599365,0.6308696269989014
1630501913531,0.6917739510536194,0.0084606297314167,-0.2190195173025131,0.6308696269989014
1630501913666,0.6917739510536194,0.000502738286741,-0.2094457298517227,0.6308696269989014
1630501913745,0.6917739510536194,-0.008315690793097,-0.1957456618547439,0.6308696269989014
1630501913839,0.6917739510536194,-0.0176578890532255,-0.1829090118408203,0.6308696269989014
1630501913947,0.6917739510536194,-0.0299702230840921,-0.1749878376722335,0.6308696269989014
1630501914056,0.6917739510536194,-0.0452507846057415,-0.1697780936956405,0.6308696269989014
1630501914151,0.6917739510536194,-0.0452507846057415,-0.1581354290246963,0.6308696269989014
1630501914333,0.6917739510536194,-0.0452507846057415,-0.1313995122909546,0.6308696269989014
1630501914366,0.6917739510536194,-0.0452507846057415,-0.0871548354625701,0.6308696269989014
1630501914467,0.6917739510536194,-0.0452507846057415,-0.0871548354625701,0.6308696269989014
1630501914540,0.6917739510536194,-0.0452507846057415,-0.0871548354625701,0.6308696269989014
1630501914633,0.6917739510536194,-0.0452507846057415,-0.0871548354625701,0.6308696269989014
1630501914745,0.6917739510536194,-0.0452507846057415,-0.0871548354625701,0.6308696269989014
1630501914870,0.6917739510536194,-0.0452507846057415,-0.0871548354625701,0.6308696269989014
1630501914973,0.6917739510536194,0.0765861421823501,-0.0871548354625701,0.6308696269989014
1630501915100,0.6917739510536194,0.0627272427082061,-0.0871548354625701,0.6308696269989014
1630501915174,0.6917739510536194,0.050305787473917,0.0409847795963287,0.6308696269989014
1630501915241,0.6917739510536194,0.0387702919542789,0.0390176735818386,0.6308696269989014
1630501915366,0.6917739510536194,0.0328233428299427,0.0359323509037494,0.6308696269989014
1630501915506,0.6917739510536194,0.0357490666210651,0.0380620099604129,0.7698789834976196
1630501915569,0.6917739510536194,0.0441261716187,0.0449886843562126,0.7453485727310181
1630501915681,0.6917739510536194,0.0558381006121635,0.0500291995704174,0.7385295033454895
1630501915777,0.6917739510536194,0.075203076004982,0.049081515520811,0.7476834654808044
1630501915887,0.6917739510536194,0.106070339679718,0.0451054461300373,0.7658970355987549
1630501915983,0.6917739510536194,0.1437767595052719,0.0435438454151153,0.7813204526901245
1630501916123,0.6917739510536194,0.1780409216880798,0.0455007813870906,0.7868384718894958
1630501916201,0.6917739510536194,0.2045648247003555,0.0496296174824237,0.7836342453956604
1630501916279,0.6917739510536194,0.2290031462907791,0.0602931343019008,0.7770436406135559
1630501916388,0.6917739510536194,0.2534334063529968,0.0842151492834091,0.7691679000854492
1630501916468,0.6917739510536194,0.2778006196022033,0.1224997267127037,0.7604755163192749
1630501916572,0.6917739510536194,0.3001417815685272,0.1629287004470825,0.7521513104438782
1630501916682,0.6917739510536194,0.3206745386123657,0.2007240802049636,0.7361059784889221
1630501916791,0.6917739510536194,0.3435589969158172,0.2393635660409927,0.7308942079544067
1630501916900,0.6917739510536194,0.3723507523536682,0.2793022096157074,0.7399123907089233
1630501917025,0.6917739510536194,0.4062385261058807,0.3163610994815826,0.7605127096176147
1630501917088,0.6917739510536194,0.4429886639118194,0.347491055727005,0.7884311676025391
1630501917182,0.6917739510536194,0.4810567200183868,0.3756133019924164,0.8215510845184326
1630501917322,0.6917739510536194,0.5170662999153137,0.4041597843170166,0.8591836094856262
1630501917416,0.6917739510536194,0.5446330904960632,0.4328462481498718,0.8973329067230225
1630501917494,0.7963579297065735,0.5584999322891235,0.4610626697540283,0.9297055006027222
1630501917619,0.7634710669517517,0.5589154958724976,0.4890937209129333,0.951544463634491
1630501917713,0.7208629846572876,0.5517129898071289,0.5160874724388123,0.9626769423484802
1630501917775,0.6809004545211792,0.5427163243293762,0.5377503037452698,0.9661000967025756
1630501917931,0.6521115303039551,0.5340219140052795,0.5494492650032043,0.96662038564682
1630501918027,0.6379329562187195,0.5267009735107422,0.5511068105697632,0.9690957069396972
1630501918136,0.6349900364875793,0.5223420262336731,0.5472133755683899,0.9762895107269288
1630501918225,0.6392292380332947,0.5223031640052795,0.5448753237724304,0.9884037971496582
1630501918288,0.64675372838974,0.5249336957931519,0.5508818626403809,1.0044879913330078
1630501918397,0.654884934425354,0.5270854234695435,0.5665002465248108,1.0239009857177734
1630501918507,0.6610979437828064,0.5270947217941284,0.5848382115364075,1.0440109968185425
1630501918632,0.6628143787384033,0.5234454870223999,0.5962897539138794,1.0584009885787964
1630501918725,0.6508306264877319,0.5142581462860107,0.5958490967750549,1.0592951774597168
1630501918819,0.6318490505218506,0.5027047991752625,0.5861818790435791,1.044105887413025
1630501918928,0.6203097105026245,0.498067170381546,0.573434054851532,1.02209210395813
1630501918991,0.6371484994888306,0.5075803399085999,0.560096263885498,1.0140458345413208
1630501919163,0.6844038367271423,0.5284090638160706,0.5453047752380371,1.0047328472137451
1630501919256,0.7412469387054443,0.5508940815925598,0.5289329290390015,1.0449602603912354
1630501919366,0.7867366075515747,0.5684806108474731,0.5125975012779236,1.080499529838562
1630501919458,0.8126189112663269,0.5792962312698364,0.4982816278934479,1.099494457244873
1630501919552,0.8281205892562866,0.5822234153747559,0.4864743947982788,1.1190625429153442
1630501919615,0.8412240147590637,0.5770566463470459,0.4757022857666015,1.1371177434921265
1630501919757,0.8523334860801697,0.5649170279502869,0.4611614942550659,1.1517077684402466
1630501919867,0.862456202507019,0.5476770997047424,0.4332344233989715,1.1613129377365112
1630501919976,0.8728381395339966,0.5257188677787781,0.3843649327754974,1.1637794971466064
1630501920043,0.8857910633087158,0.4987229406833648,0.3192216157913208,1.1590697765350342
1630501920120,0.9053491950035096,0.4676122069358825,0.2566337883472442,1.1539771556854248
1630501920230,0.9351516962051392,0.4336903095245361,0.2147102504968643,1.1618036031723022
1630501920417,0.9740639328956604,0.3932297825813293,0.1927122771739959,1.1914557218551636
1630501920433,1.0124081373214722,0.3381792306900024,0.1763330549001693,1.233241319656372
1630501920542,1.0340906381607056,0.2641590237617492,0.1558834761381149,1.233241319656372
1630501920652,1.0340906381607056,0.1773584187030792,0.1295918524265289,1.233241319656372
1630501920745,1.0340906381607056,0.0938906446099281,0.0987158790230751,1.233241319656372
1630501920855,1.0340906381607056,0.0267128311097621,0.0673918277025222,1.233241319656372
1630501920980,1.0340906381607056,-0.0194378644227981,0.0422207787632942,1.233241319656372
1630501921092,0.7111486196517944,-0.0416620038449764,0.0287652052938938,0.7441326379776001
1630501921170,0.7157652974128723,-0.0390646569430828,0.0264866203069686,0.700488269329071
1630501921233,0.6977388262748718,-0.0210614427924156,0.0279281325638294,0.663516640663147
1630501921342,0.6708712577819824,-0.0018389106262475,0.0267625786364078,0.6360098123550415
1630501921451,0.6448407173156738,0.0124760707840323,0.0224851537495851,0.6123384237289429
1630501921576,0.6232890486717224,0.0220807269215583,0.017410447821021,0.587913453578949
1630501921670,0.6084291934967041,0.0293472409248352,0.0129593275487422,0.5654801726341248
1630501921811,0.6008080840110779,0.0361921153962612,0.0084541914984583,0.5507927536964417
1630501921904,0.5971387028694153,0.0441430769860744,0.0030458392575383,0.5452902913093567
1630501921967,0.5934651494026184,0.0558229014277458,0.0005803075619041,0.5459485054016113
1630501922048,0.5881527662277222,0.0711549222469329,0.0084601156413555,0.5499695539474487
1630501922220,0.5810289978981018,0.0852167308330535,0.029720714315772,0.5572262406349182
1630501922275,0.5760712623596191,0.0917928814888,0.0570909120142459,0.5517006516456604
1630501922369,0.5548613667488098,0.0890997424721717,0.0779265910387039,0.541127622127533
1630501922463,0.5152797698974609,0.0810851007699966,0.086099274456501,0.5345655679702759
1630501922572,0.4664062559604645,0.0738585218787193,0.0852810740470886,0.5401914715766907
1630501922666,0.4259860217571258,0.0713718384504318,0.0833910033106803,0.5591264963150024
1630501922853,0.4084682166576385,0.0732314139604568,0.0857124105095863,0.5873135924339294
1630501922916,0.4162463545799255,0.0761401355266571,0.0937286019325256,0.6214584708213806
1630501923025,0.4390590488910675,0.0782612636685371,0.1070372685790062,0.6586775779724121
1630501923111,0.4653546214103699,0.0828420221805572,0.1238465160131454,0.6940473914146423
1630501923190,0.487881600856781,0.0952303633093833,0.1433176100254058,0.7218742966651917
1630501923299,0.5040147304534912,0.1165370941162109,0.1639213413000106,0.739202082157135
1630501923424,0.513327419757843,0.1409364193677902,0.1823196709156036,0.7466128468513489
1630501923564,0.5151934623718262,0.1611687242984771,0.1923262327909469,0.7465640306472778
1630501923580,0.5109961032867432,0.1745470911264419,0.1887634992599487,0.7415841221809387
1630501923689,0.5053507685661316,0.1832998991012573,0.1727902889251709,0.7320472002029419
1630501923783,0.5051441192626953,0.1906644105911255,0.1538103967905044,0.7186697721481323
1630501923877,0.5155323147773743,0.1981350630521774,0.1429708898067474,0.7048758864402771
1630501924049,0.5363326072692871,0.2049317955970764,0.1423922479152679,0.6948853135108948
1630501924111,0.5616362690925598,0.2094652950763702,0.1449402272701263,0.690474808216095
1630501924221,0.5840588212013245,0.2105597704648971,0.1441813558340072,0.6890811324119568
1630501924314,0.5984282493591309,0.2079388797283172,0.1412613093852996,0.6853488683700562
1630501924424,0.603418231010437,0.2031350135803222,0.1408304870128631,0.6749746203422546
1630501924517,0.6032020449638367,0.1976874768733978,0.1446364223957061,0.6567079424858093
1630501924642,0.6046760678291321,0.191089779138565,0.1490941643714904,0.6353467106819153
1630501924736,0.6112867593765259,0.1813861578702926,0.1484496295452118,0.6212433576583862
1630501924830,0.620499312877655,0.1659542918205261,0.1403887569904327,0.6232682466506958
1630501924939,0.6286551356315613,0.1452298909425735,0.127728596329689,0.6425923705101013
1630501925002,0.6351438164710999,0.1220546662807464,0.1167886555194854,0.6709599494934082
1630501925095,0.6392385959625244,0.0999623611569404,0.1117382645606994,0.6966033577919006
1630501925268,0.6397445201873779,0.0817427262663841,0.1102425083518028,0.7123141288757324
1630501925330,0.6351073384284973,0.0694658607244491,0.1058619990944862,0.7176144123077393
1630501925423,0.625342845916748,0.0644667968153953,0.0953408256173133,0.7149878144264221
1630501925517,0.6120747923851013,0.066252164542675,0.0822031125426292,0.7079681754112244
1630501925658,0.5972434282302856,0.0710510984063148,0.0707001537084579,0.6984572410583496
1630501925689,0.581849992275238,0.0722707659006118,0.0602819882333278,0.686005175113678
1630501925861,0.5667334198951721,0.0662504136562347,0.0469181351363658,0.6694236397743225
1630501925970,0.5517427921295166,0.0543438605964183,0.0283698365092277,0.6504623293876648
1630501926035,0.5340137481689453,0.0405364111065864,0.0067822742275893,0.6335446834564209
1630501926129,0.5076252818107605,0.027012089267373,-0.0115920202806591,0.6214209198951721
1630501926223,0.4675537049770355,0.0134128555655479,-0.0225112065672874,0.6095932126045227
1630501926332,0.4155825972557068,0.0027618745807558,-0.0263334773480892,0.5898441076278687
1630501926457,0.3621072173118591,0.000524370057974,-0.02522106282413,0.5570475459098816
1630501926570,0.321352481842041,0.0093512376770377,-0.0204838756471872,0.5151235461235046
1630501926664,0.303710013628006,0.0258917342871427,-0.0127848135307431,0.4771091639995575
1630501926773,0.3074463009834289,0.0440056957304477,-0.0041015921160578,0.4564631283283233
1630501926820,0.3231022357940674,0.0595628693699836,0.0021561258472502,0.4547053277492523
1630501926977,0.3413643538951874,0.0704078078269958,0.004018185660243,0.4643575549125671
1630501927055,0.3591965436935425,0.0747132524847984,0.0033240288030356,0.4812679290771484
1630501927195,0.3590635061264038,0.0720184966921806,0.005678828805685,0.4867076873779297
1630501927258,0.3581928610801697,0.0652330070734024,0.0156081616878509,0.488939106464386
1630501927399,0.3574967980384826,0.0587248094379901,0.0301291309297084,0.4916504323482513
1630501927476,0.3554176986217499,0.0544723309576511,0.041414774954319,0.4971998631954193
1630501927539,0.3519407510757446,0.0516645349562168,0.0442288666963577,0.5043813586235046
1630501927664,0.3520369827747345,0.049180120229721,0.0396712608635425,0.5097330808639526
1630501927773,0.362977921962738,0.0484674461185932,0.0328873544931411,0.5124073624610901
1630501927867,0.3872773945331573,0.0507164895534515,0.0310787111520767,0.5147786736488342
1630501927961,0.4202293753623962,0.0556313917040824,0.0401257388293743,0.5194998979568481
1630501928073,0.4530189335346222,0.0618913695216178,0.0607161074876785,0.5265160799026489
1630501928151,0.4788072109222412,0.0681201517581939,0.0862452164292335,0.5323548913002014
1630501928276,0.4788072109222412,0.0724099799990654,0.1079510897397995,0.5323548913002014
1630501928385,0.4788072109222412,0.0714024305343627,0.1213967874646186,0.5323548913002014
1630501928479,0.4788072109222412,0.0622347183525562,0.1288369745016098,0.5323548913002014
1630501928588,0.4788072109222412,0.0467055775225162,0.1336289793252945,0.5323548913002014
1630501928667,0.5180641412734985,0.03179682046175,0.1359878480434417,0.4831576645374298
1630501928744,0.5233327746391296,0.0243060886859893,0.1344278752803802,0.4831506907939911
1630501928901,0.534639835357666,0.0253720469772815,0.1299350708723068,0.5003075003623962
1630501928994,0.5519693493843079,0.0316098146140575,0.1251642554998397,0.5213438868522644
1630501929108,0.568310022354126,0.0413460172712802,0.1225186362862587,0.5398624539375305
1630501929202,0.5758653879165649,0.0553175657987594,0.1229157149791717,0.5571860074996948
1630501929296,0.572411835193634,0.0730089843273162,0.125386968255043,0.5772095918655396
1630501929358,0.5609689354896545,0.0908153429627418,0.125523492693901,0.5972782373428345
1630501929499,0.5457775592803955,0.1032173112034797,0.1159967258572578,0.6109545826911926
1630501929608,0.5302634239196777,0.10610281676054,0.092921495437622,0.6156077980995178
1630501929702,0.5168553590774536,0.0992850065231323,0.0620166137814521,0.6147536039352417
1630501929811,0.5066285729408264,0.0863211527466774,0.0365152209997177,0.6122679710388184
1630501929874,0.4969624876976013,0.072421982884407,0.0272322241216897,0.6100415587425232
1630501929983,0.4872057735919952,0.0618744194507598,0.0326941646635532,0.6110408306121826
1630501930123,0.4772820770740509,0.0556757301092147,0.042678777128458,0.616236686706543
1630501930233,0.4699548482894897,0.0532278008759021,0.0484714657068252,0.6235615611076355
1630501930295,0.4667577147483825,0.0554761476814746,0.0488890521228313,0.6289495229721069
1630501930405,0.4639445543289184,0.0644735619425773,0.0480829887092113,0.6289993524551392
1630501930498,0.4555316269397735,0.0790847092866897,0.0507079027593135,0.623420000076294
1630501930608,0.4402741193771362,0.0927629321813583,0.0558959133923053,0.6137968897819519
1630501930733,0.4246925115585327,0.0977268517017364,0.0584342814981937,0.6033421754837036
1630501930826,0.4185591340065002,0.0913168713450431,0.0560885034501552,0.5948953628540039
1630501930936,0.4256641268730163,0.0785738304257392,0.0519830919802188,0.5899624228477478
1630501930998,0.4445985853672027,0.0688548386096954,0.0519094690680503,0.5909189581871033
1630501931092,0.4724705219268799,0.0701216682791709,0.0588584430515766,0.6037968993186951
1630501931233,0.5053747892379761,0.0842926800251007,0.0726585760712623,0.6335113048553467
1630501931358,0.5375974774360657,0.1065714582800865,0.0905960276722908,0.676132082939148
1630501931436,0.564317524433136,0.1298882067203521,0.1094491928815841,0.7208163142204285
1630501931529,0.5828108787536621,0.1503340601921081,0.1256221234798431,0.7556694149971008
1630501931623,0.591987669467926,0.1677459329366684,0.1365715265274047,0.7753050327301025
1630501931733,0.5914930701255798,0.1825458705425262,0.141228437423706,0.7807864546775818
1630501931795,0.5822053551673889,0.1939735561609268,0.1390445232391357,0.777387261390686
1630501931967,0.5679572820663452,0.2012661248445511,0.1296336501836776,0.7707290053367615
1630501932032,0.5533375144004822,0.2061227262020111,0.1151165813207626,0.7644968628883362
1630501932142,0.5413399338722229,0.2118013650178909,0.0999041050672531,0.7592141032218933
1630501932235,0.5320730805397034,0.2199528664350509,0.0883434191346168,0.7528586387634277
1630501932345,0.5229066014289856,0.2291176319122314,0.0815086439251899,0.7432548999786377
1630501932438,0.5107068419456482,0.234797403216362,0.0788227319717407,0.7309909462928772
1630501932563,0.4910370707511902,0.2324483841657638,0.0798229947686195,0.7178403735160828
1630501932657,0.4596302807331085,0.2207952290773391,0.082485906779766,0.7007750868797302
1630501932766,0.4158853590488434,0.2022722661495208,0.0807519033551216,0.6721850037574768
1630501932845,0.3666501641273498,0.1819796413183212,0.0714505091309547,0.6300401091575623
1630501932938,0.3241647779941559,0.163944810628891,0.0569607652723789,0.5825849175453186
1630501933032,0.2988330125808716,0.1487550735473632,0.0430184230208396,0.5439943075180054
1630501933173,0.2917376458644867,0.1347106695175171,0.0330849848687648,0.5212966799736023
1630501933266,0.2975312769412994,0.1211392655968666,0.0276815257966518,0.5121700167655945
1630501933360,0.3096589744091034,0.1088786125183105,0.0266472324728965,0.5108592510223389
1630501933470,0.3202351331710815,0.0983288884162902,0.0311128143221139,0.5148760676383972
1630501933532,0.3249966204166412,0.0884365066885948,0.0394672155380249,0.5227304100990295
1630501933641,0.3246507048606872,0.0781663060188293,0.0478062890470027,0.5332708954811096
1630501933781,0.3232366442680359,0.0684798136353492,0.0528359338641166,0.5448004007339478
1630501933875,0.3252070248126983,0.0628058090806007,0.052579890936613,0.556817889213562
1630501933966,0.3368914425373077,0.0670000165700912,0.0471204966306686,0.5700044631958008
1630501934059,0.3625509440898895,0.0822957679629325,0.0380183272063732,0.58421391248703
1630501934167,0.3972215354442596,0.1012154594063758,0.0287170726805925,0.5967606902122498
1630501934266,0.4287889003753662,0.1146209612488746,0.0233394932001829,0.6036579012870789
1630501934403,0.4477149844169616,0.1205865070223808,0.021024452522397,0.601336658000946
1630501934463,0.4522768855094909,0.1245963126420974,0.0173812117427587,0.5894824266433716
1630501934576,0.4463955163955688,0.1317567080259323,0.0107329487800598,0.5744438171386719
1630501934670,0.4360882639884949,0.142362356185913,0.004364522639662,0.5673677325248718
1630501934781,0.4271445274353027,0.1548455506563186,0.0027868647594004,0.5740652680397034
1630501934843,0.4234330356121063,0.1680478155612945,0.0061803786084055,0.5887157320976257
1630501935000,0.4252499341964721,0.1816071271896362,0.0106808263808488,0.6000410318374634
1630501935093,0.4299377501010895,0.1947202831506729,0.0142130618914961,0.6026594042778015
1630501935188,0.4351597726345062,0.2054987400770187,0.0178610365837812,0.5977652072906494
1630501935298,0.4398971796035766,0.2116816937923431,0.0231556929647922,0.5894461274147034
1630501935360,0.4428998529911041,0.2105174958705902,0.0307922791689634,0.5903761982917786
1630501935469,0.4426410496234894,0.2001511752605438,0.0376713722944259,0.5857475996017456
1630501935626,0.4306836128234863,0.185465469956398,0.0407523922622203,0.5743589997291565
1630501935719,0.4084635376930237,0.176733523607254,0.0403892286121845,0.5601217150688171
1630501935829,0.3835429251194,0.1794703900814056,0.0403170324862003,0.5504732131958008
1630501935891,0.3647421300411224,0.1891412436962127,0.0449024885892868,0.5501565337181091
1630501935985,0.3564725518226623,0.1974471062421798,0.0536681823432445,0.5583211183547974
1630501936058,0.3576122522354126,0.2004490941762924,0.0616499111056327,0.5680631399154663
1630501936222,0.3650728464126587,0.1984754502773285,0.0651516318321228,0.5680355429649353
1630501936316,0.3716617524623871,0.1899157166481018,0.0637117251753807,0.5471590757369995
1630501936410,0.3686123490333557,0.1724444329738617,0.0588017515838146,0.5023977160453796
1630501936519,0.3396515846252441,0.1459975987672805,0.0515613630414009,0.5000390410423279
1630501936582,0.3137954473495483,0.1141897290945053,0.0428559780120849,0.5348562002182007
1630501936675,0.310489684343338,0.0833920165896415,0.0344004109501838,0.6042057275772095
1630501936832,0.3266662359237671,0.0597842596471309,0.0274162627756595,0.680401086807251
1630501936910,0.3525678217411041,0.0467496737837791,0.0223700646311044,0.6890120506286621
1630501937019,0.3912415206432342,0.0434733182191848,0.021533329039812,0.6871141791343689
1630501937113,0.4309773445129394,0.0434597767889499,0.0251303631812334,0.6768044829368591
1630501937222,0.4619138538837433,0.0389902628958225,0.027559645473957,0.659665048122406
1630501937285,0.477529376745224,0.027581276372075,0.0204593148082494,0.6369882225990295
1630501937410,0.4795513153076172,0.0113395676016807,0.0005741993663832,0.6126794815063477
1630501937550,0.475655198097229,-0.005415896885097,-0.0254574157297611,0.5907871127128601
1630501937613,0.4720228016376495,-0.0195845421403646,-0.0469816401600837,0.5722697377204895
1630501937707,0.4692582786083221,-0.029124354943633,-0.0603700429201126,0.5553075075149536
1630501937816,0.4644845128059387,-0.0299777034670114,-0.0687747299671173,0.5385147333145142
1630501937878,0.4567870795726776,-0.0190916899591684,-0.0734489038586616,0.52369624376297
1630501938051,0.4574512839317322,0.0032935023773461,-0.0717535987496376,0.5049412846565247
1630501938146,0.4590811133384704,0.0320257060229778,-0.0637051090598106,0.4909654557704925
1630501938208,0.4620424509048462,0.0606630966067314,-0.0559796392917633,0.4767191112041473
1630501938323,0.4671808779239654,0.0855152606964111,-0.0550251342356205,0.4576062858104706
1630501938416,0.4735914468765259,0.1050102710723877,-0.0627870559692382,0.4347807466983795
1630501938510,0.476419597864151,0.1174473315477371,-0.077956348657608,0.41732257604599
1630501938651,0.4702145159244537,0.1222242787480354,-0.0976714715361595,0.4179712831974029
1630501938744,0.4563077688217163,0.1231148689985275,-0.1171546578407287,0.4441023766994476
1630501938854,0.4438222646713257,0.1269105821847915,-0.1310788989067077,0.4871759712696075
1630501938919,0.4436309337615967,0.1369910687208175,-0.1375747621059417,0.5284624099731445
1630501939013,0.4583697319030761,0.1498743444681167,-0.1388666927814483,0.5559053421020508
1630501939123,0.4818622767925262,0.1601562201976776,-0.1347959041595459,0.5695432424545288
1630501939248,0.5052869915962219,0.1660488843917846,-0.1205567717552185,0.5769439935684204
1630501939326,0.5241187810897827,0.1685091108083725,-0.0937959179282188,0.5842265486717224
1630501939466,0.5384156107902527,0.1670914590358734,-0.0562424473464489,0.5911605358123779
1630501939560,0.5499849319458008,0.1589448302984237,-0.0111787319183349,0.5931017994880676
1630501939628,0.5590028762817383,0.1431539207696914,0.0360844768583774,0.5885207653045654
1630501939769,0.5638263821601868,0.1227316558361053,0.0777314975857734,0.5816435217857361
1630501939862,0.563158392906189,0.1016142442822456,0.1073498353362083,0.5803662538528442
1630501939972,0.5571907758712769,0.0818760395050048,0.1251374930143356,0.5889772772789001
1630501940050,0.5477325320243835,0.064567394554615,0.1361799985170364,0.602046549320221
1630501940159,0.5373289585113525,0.0505909845232963,0.14472296833992,0.6075154542922974
1630501940253,0.5279600620269775,0.03901819139719,0.1502286940813064,0.5951896905899048
1630501940347,0.5193506479263306,0.0256367065012455,0.1510950475931167,0.5647242665290833
1630501940487,0.5069891810417175,0.0071128001436591,0.1472538262605667,0.5267327427864075
1630501940597,0.4856956899166107,-0.0139706702902913,0.1402483880519867,0.4960316121578216
1630501940690,0.4547133445739746,-0.0300127547234296,0.1318783462047577,0.4808539748191833
1630501940753,0.422596663236618,-0.0362722910940647,0.1236459165811538,0.4815587699413299
1630501940847,0.4024513661861419,-0.0336437374353408,0.1164799407124519,0.4965537190437317
1630501940956,0.4011935293674469,-0.0250112600624561,0.1081399396061897,0.5220151543617249
1630501941081,0.4128326177597046,-0.0126136234030127,0.0940176099538803,0.5502382516860962
1630501941190,0.4264559149742126,-0.0066036218777298,0.0714317336678505,0.5718894600868225
1630501941284,0.4332086443901062,0.0010918108746409,0.0456958748400211,0.5820444226264954
1630501941378,0.4292485415935516,0.0071448422968387,0.0266608912497758,0.5802131295204163
1630501941456,0.416136085987091,0.0118032824248075,0.0183333624154329,0.5681619644165039
1630501941550,0.4013232886791229,0.0186698604375123,0.0156674776226282,0.5487239956855774
1630501941721,0.4049690067768097,0.0296940468251705,0.0132781779393553,0.5277345180511475
1630501941784,0.4147043228149414,0.0420297607779502,0.0127656115218997,0.5149402022361755
1630501941878,0.4278163313865661,0.0525030866265296,0.0180932730436325,0.5173595547676086
1630501941974,0.4415321052074432,0.0627307146787643,0.0314008519053459,0.531479001045227
1630501942083,0.4556281864643097,0.0765678510069847,0.0506939403712749,0.5470638275146484
1630501942193,0.4710481762886047,0.0936906933784484,0.0703705921769142,0.5575852990150452
1630501942328,0.4848313927650451,0.0936906933784484,0.0834489613771438,0.5636008977890015
1630501942376,0.4894731044769287,0.0936906933784484,0.0866109505295753,0.5582923889160156
1630501942486,0.4744878709316253,0.0936906933784484,0.0813716202974319,0.539179801940918
1630501942595,0.4314132928848266,0.0936906933784484,0.0707825720310211,0.5112313032150269
1630501942673,0.3575591146945953,0.0936906933784484,0.0563799031078815,0.4858490526676178
1630501942751,0.3575591146945953,0.0964074656367302,0.038709357380867,0.4726986587047577
1630501942908,0.3575591146945953,0.0913868471980094,0.0198631025850772,0.4720102846622467
1630501943017,0.3575591146945953,0.0960726663470268,0.004575440660119,0.4785682559013366
1630501943111,0.3575591146945953,0.1089425459504127,-0.0022919042967259,0.4906621277332306
1630501943220,0.3575591146945953,0.1254198253154754,0.0026854749303311,0.5102351307868958
1630501943314,0.3575591146945953,0.1431662440299987,0.0196111742407083,0.53277587890625
1630501943392,0.3575591146945953,0.162912905216217,0.0426682904362678,0.53277587890625
1630501943517,0.3575591146945953,0.1819067001342773,0.0611802116036415,0.53277587890625
1630501943611,0.3575591146945953,0.1946721374988556,0.066861018538475,0.53277587890625
1630501943751,0.3575591146945953,0.1979510933160781,0.0595139078795909,0.53277587890625
1630501943814,0.3575591146945953,0.1929546594619751,0.0470813140273094,0.53277587890625
1630501943876,0.3575591146945953,0.1845758855342865,0.0374895855784416,0.53277587890625
1630501943986,0.3575591146945953,0.1814789324998855,0.0320481285452842,0.53277587890625
1630501944142,0.3575591146945953,0.179911732673645,0.0271877236664295,0.53277587890625
1630501944204,0.3575591146945953,0.1782067567110061,0.0218647513538599,0.53277587890625
1630501944314,0.3575591146945953,0.1750698536634445,0.0179407019168138,0.53277587890625
1630501944407,0.3575591146945953,0.1711357533931732,0.017486922442913,0.53277587890625
1630501944517,0.3575591146945953,0.1663594990968704,0.0190445929765701,0.53277587890625
1630501944626,0.3575591146945953,0.1596086025238037,0.0179363787174224,0.53277587890625
1630501944751,0.3575591146945953,0.1488644629716873,0.0079278005287051,0.53277587890625
1630501944845,0.3575591146945953,0.1322356313467025,-0.0157769788056612,0.53277587890625
1630501944907,0.3575591146945953,0.1080275848507881,-0.0516662150621414,0.53277587890625
1630501945017,0.3575591146945953,0.0782926008105278,-0.0898884683847427,0.53277587890625
1630501945126,0.3575591146945953,0.0514372512698173,-0.1181759461760521,0.53277587890625
1630501945204,0.3575591146945953,0.0366227068006992,-0.1322513967752456,0.53277587890625
1630501945345,0.3575591146945953,0.0359021015465259,-0.1372724771499633,0.53277587890625
1630501945438,0.3575591146945953,0.0401374883949756,-0.1376786828041076,0.53277587890625
1630501945563,0.3575591146945953,0.0392093285918235,-0.1327111721038818,0.53277587890625
1630501945657,0.3575591146945953,0.0322142355144023,-0.1201279833912849,0.53277587890625
1630501945735,0.3575591146945953,0.0261614527553319,-0.1013200357556343,0.53277587890625
1630501945813,0.3575591146945953,0.026451276615262,-0.0806164965033531,0.53277587890625
1630501945954,0.3575591146945953,0.0303393043577671,-0.0620828345417976,0.53277587890625
1630501946048,0.3575591146945953,0.0322275348007679,-0.0469482541084289,0.53277587890625
1630501946157,0.3575591146945953,0.0299500301480293,-0.032889500260353,0.53277587890625
1630501946251,0.3575591146945953,0.0256543513387441,-0.01697370223701,0.53277587890625
1630501946344,0.3575591146945953,0.0219557918608188,0.0012042089365422,0.53277587890625
1630501946407,0.3575591146945953,0.0200643017888069,0.0195658579468727,0.53277587890625
1630501946579,0.3575591146945953,0.0177968963980674,0.0352719016373157,0.53277587890625
1630501946672,0.3575591146945953,0.0116177955642342,0.0465536415576934,0.53277587890625
1630501946751,0.3575591146945953,8.001012247405015e-06,0.0522496700286865,0.53277587890625
1630501946860,0.3575591146945953,-0.015302188694477,0.051938060671091,0.53277587890625
1630501946985,0.3575591146945953,-0.029378492385149,0.0454876348376274,0.53277587890625
1630501947054,0.3575591146945953,-0.0362893044948577,0.0330113098025321,0.53277587890625
1630501947179,0.3575591146945953,-0.0355155505239963,0.0155285224318504,0.53277587890625
1630501947288,0.3575591146945953,-0.0315934047102928,-0.0041233892552554,0.53277587890625
1630501947382,0.3575591146945953,-0.0294358003884553,-0.0200487449765205,0.53277587890625
1630501947445,0.3575591146945953,-0.0310518890619277,-0.0195359624922275,0.53277587890625
1630501947585,0.3575591146945953,-0.0338771529495716,0.0148723339661955,0.53277587890625
1630501947648,0.3575591146945953,-0.0300779156386852,0.0822262391448021,0.53277587890625
1630501947820,0.3575591146945953,-0.0321466848254203,0.1566364914178848,0.53277587890625
1630501947882,0.3575591146945953,-0.0313709639012813,0.2139670252799987,0.53277587890625
1630501947991,0.3575591146945953,-0.028878116980195,0.2498993873596191,0.53277587890625
1630501948085,0.3575591146945953,-0.0238569416105747,0.278093010187149,0.53277587890625
1630501948179,0.3575591146945953,-0.0156728141009807,0.3139849603176117,0.53277587890625
1630501948257,0.3575591146945953,0.0549673736095428,0.3586456775665283,0.53277587890625
1630501948382,0.3575591146945953,0.1099165827035904,0.4012195765972137,0.53277587890625
1630501948491,0.3575591146945953,0.1593747437000274,0.4324617385864258,0.53277587890625
1630501948601,0.3575591146945953,0.2029112428426742,0.4510953724384308,0.53277587890625
1630501948663,0.3575591146945953,0.2357715368270874,0.461925059556961,0.53277587890625
1630501948757,0.3575591146945953,0.2561122477054596,0.470205157995224,0.53277587890625
1630501948866,0.3575591146945953,0.2678506672382355,0.4778831303119659,0.53277587890625
1630501948991,0.3575591146945953,0.2760831117630005,0.4818113148212433,0.53277587890625
1630501949088,0.3575591146945953,0.2830962836742401,0.4745249152183532,0.53277587890625
1630501949197,0.3575591146945953,0.2873731851577759,0.4506182074546814,0.53277587890625
1630501949306,0.3575591146945953,0.2786676585674286,0.4140148460865021,0.53277587890625
1630501949400,0.3575591146945953,0.2742665112018585,0.3773026764392853,0.53277587890625
1630501949462,0.3575591146945953,0.2727303802967071,0.3497986793518066,0.53277587890625
1630501949634,0.3575591146945953,0.2735684812068939,0.3249468803405761,0.53277587890625
1630501949728,0.3575591146945953,0.2760429084300995,0.2878538370132446,0.53277587890625
1630501949806,0.3575591146945953,0.2705321311950683,0.2341969460248947,0.53277587890625
1630501949900,0.3575591146945953,0.2661386132240295,0.179541528224945,0.53277587890625
1630501950009,0.3575591146945953,0.2572385370731354,0.1496584862470626,0.53277587890625
1630501950091,0.3575591146945953,0.2424386888742447,0.153407022356987,0.53277587890625
1630501950231,0.3575591146945953,0.2252227216958999,0.1719077378511428,0.53277587890625
1630501950341,0.3575591146945953,0.2102447897195816,0.1846158355474472,0.53277587890625
1630501950435,0.3575591146945953,0.2006834000349044,0.1863817870616912,0.53277587890625
1630501950544,0.3575591146945953,0.1975298970937729,0.1852326393127441,0.53277587890625
1630501950622,0.3575591146945953,0.1998250931501388,0.19086354970932,0.53277587890625
1630501950701,0.3575591146945953,0.2034522742033004,0.2058289796113968,0.53277587890625
1630501950872,0.3575591146945953,0.2051749676465988,0.2236910909414291,0.53277587890625
1630501950935,0.3575591146945953,0.2036856412887573,0.2363517880439758,0.53277587890625
1630501951032,0.3575591146945953,0.1988233029842376,0.2426455914974212,0.53277587890625
1630501951141,0.3575591146945953,0.1892698109149933,0.2472027391195297,0.53277587890625
1630501951220,0.3575591146945953,0.1736324578523636,0.2534100413322449,0.53277587890625
1630501951298,0.3575591146945953,0.1511434018611908,0.2581168115139007,0.53277587890625
1630501951501,0.3575591146945953,0.1235082447528839,0.2546220421791076,0.53277587890625
1630501951563,0.3575591146945953,0.0969293192028999,0.2384651899337768,0.53277587890625
1630501951641,0.3575591146945953,0.0804136544466018,0.2113255858421325,0.53277587890625
1630501951735,0.3575591146945953,0.0809002965688705,0.1814766079187393,0.53277587890625
1630501951829,0.3575591146945953,0.0809002965688705,0.1609436720609665,0.53277587890625
1630501951938,0.3575591146945953,0.0809002965688705,0.1567566692829132,0.53277587890625
1630501952063,0.3575591146945953,0.0809002965688705,0.1647258400917053,0.53277587890625
1630501952125,0.3575591146945953,0.0809002965688705,0.1740540117025375,0.53277587890625
1630501952235,0.3575591146945953,0.0809002965688705,0.1758757829666137,0.53277587890625
1630501952328,0.3575591146945953,0.0809002965688705,0.1675639599561691,0.53277587890625
1630501952422,0.3575591146945953,0.2567996978759765,0.1537180691957473,0.53277587890625
1630501952532,0.3575591146945953,0.2349528521299362,0.1406008899211883,0.53277587890625
1630501952657,0.3575591146945953,0.2181878387928009,0.1326213181018829,0.53277587890625
1630501952766,0.3575591146945953,0.2102175056934356,0.1305890381336212,0.53277587890625
1630501952860,0.3575591146945953,0.2102175056934356,0.1322588473558426,0.53277587890625
1630501952953,0.3575591146945953,0.2102175056934356,0.1341295689344406,0.53277587890625
1630501953034,0.3575591146945953,0.2102175056934356,0.1354452222585678,0.53277587890625
1630501953128,0.3575591146945953,0.2102175056934356,0.1406803578138351,0.53277587890625
1630501953269,0.3575591146945953,0.2102175056934356,0.1556168496608734,0.53277587890625
1630501953362,0.3575591146945953,0.2102175056934356,0.1763989031314849,0.53277587890625
1630501953472,0.3575591146945953,0.2102175056934356,0.1911117136478424,0.53277587890625
1630501953550,0.3575591146945953,0.2102175056934356,0.1895141750574112,0.53277587890625
1630501953643,0.3575591146945953,0.1759865283966064,0.1715357303619384,0.53277587890625
1630501953768,0.3575591146945953,0.1350776255130767,0.1466347575187683,0.53277587890625
1630501953893,0.3575591146945953,0.0918750762939453,0.127927228808403,0.53277587890625
1630501953971,0.3575591146945953,0.0503098182380199,0.1213096007704734,0.53277587890625
1630501954068,0.3575591146945953,0.0127994678914546,0.1212023422122001,0.53277587890625
1630501954177,0.3575591146945953,-0.0134877888485789,0.1196841672062873,0.53277587890625
1630501954270,0.3575591146945953,-0.0286693423986434,0.1150754690170288,0.53277587890625
1630501954364,0.3575591146945953,0.0034766318276524,0.1113485842943191,0.53277587890625
1630501954505,0.3575591146945953,0.0347368940711021,0.1122967079281807,0.53277587890625
1630501954583,0.3575591146945953,0.0571471452713012,0.1173567101359367,0.53277587890625
1630501954661,0.3575591146945953,0.0693286284804344,0.1207443699240684,0.53277587890625
1630501954770,0.3575591146945953,0.0765280649065971,0.1147495210170745,0.53277587890625
1630501954864,0.3575591146945953,0.0854143500328064,0.0956677570939064,0.53277587890625
1630501954958,0.3575591146945953,0.0972020849585533,0.0685408040881156,0.53277587890625
1630501955102,0.3575591146945953,0.1074304357171058,0.0449450425803661,0.53277587890625
1630501955211,0.3575591146945953,0.1144367083907127,0.033924426883459,0.53277587890625
1630501955289,0.3575591146945953,0.1176641061902046,0.0350645221769809,0.53277587890625
1630501955367,0.3575591146945953,0.1181396767497062,0.0422493442893028,0.53277587890625
1630501955477,0.3575591146945953,0.1189186424016952,0.0496990978717803,0.53277587890625
1630501955570,0.3575591146945953,0.1230393946170806,0.055497970432043,0.53277587890625
1630501955727,0.3575591146945953,0.1311009675264358,0.0592745877802372,0.53277587890625
1630501955836,0.4737798571586609,0.1407583951950073,0.0606896914541721,0.5758339762687683
1630501955898,0.4554101228713989,0.1484843492507934,0.0604349710047245,0.5506591200828552
1630501956008,0.4428101480007171,0.154543250799179,0.0595859475433826,0.5224570631980896
1630501956105,0.4324097633361816,0.1640136837959289,0.0586567372083663,0.505899965763092
1630501956167,0.4222544431686401,0.1818003207445144,0.0595903545618057,0.5105794668197632
1630501956323,0.4167380928993225,0.2082814425230026,0.0658435672521591,0.5339271426200867
1630501956433,0.4285875260829925,0.2401995509862899,0.0795500949025154,0.5665898323059082
1630501956511,0.4602450430393219,0.2744065225124359,0.0977954864501953,0.6003413796424866
1630501956605,0.5012863278388977,0.3118834793567657,0.1137205064296722,0.6304799318313599
1630501956698,0.537631094455719,0.360198438167572,0.1224386915564537,0.6534702777862549
1630501956792,0.5631692409515381,0.423833817243576,0.1244176179170608,0.6661654710769653
1630501956917,0.5837287902832031,0.4944405257701874,0.1236304491758346,0.6661654710769653
1630501957042,0.6122742891311646,0.555813193321228,0.1251576393842697,0.6719896793365479
1630501957121,0.6510009169578552,0.5972098708152771,0.1317087262868881,0.6777751445770264
1630501957220,0.6627289056777954,0.6179891228675842,0.1414866298437118,0.685028612613678
1630501957313,0.6778503060340881,0.6245245933532715,0.150309607386589,0.697620689868927
1630501957376,0.6957308053970337,0.6244425177574158,0.1545751392841339,0.7139289379119873
