timestamp,TP9,AF7,AF8,TP10
1630501821654,0.035750925540924,-0.058671049773693,0.282821774482727,0.2639366388320923
1630501821748,0.035750925540924,-0.058671049773693,0.282821774482727,0.2639366388320923
1630501821857,0.035750925540924,-0.058671049773693,0.282821774482727,0.2639366388320923
1630501821966,0.035750925540924,-0.058671049773693,0.282821774482727,0.2639366388320923
1630501822022,0.035750925540924,-0.058671049773693,0.282821774482727,0.2639366388320923
1630501822116,0.035750925540924,-0.058671049773693,0.282821774482727,0.2639366388320923
1630501822256,0.035750925540924,-0.058671049773693,0.282821774482727,0.2639366388320923
1630501822350,0.035750925540924,-0.0317758545279502,0.282821774482727,0.2639366388320923
1630501822459,0.035750925540924,-0.0579792745411396,0.282821774482727,0.2639366388320923
1630501822553,0.035750925540924,-0.0898519158363342,0.2795019149780273,0.2639366388320923
1630501822631,0.035750925540924,-0.1161343231797218,0.2695195376873016,0.2639366388320923
1630501822709,0.035750925540924,-0.1302413642406463,0.2705320119857788,0.2639366388320923
1630501822897,0.035750925540924,-0.1278814077377319,0.2887468934059143,0.2639366388320923
1630501822959,0.035750925540924,-0.1113522946834564,0.326057881116867,0.2639366388320923
1630501823053,0.035750925540924,-0.0885962918400764,0.3673683404922485,0.2639366388320923
1630501823162,0.035750925540924,-0.0710871964693069,0.3945713639259338,0.2639366388320923
1630501823240,0.035750925540924,-0.065067708492279,0.4006103277206421,0.2639366388320923
1630501823350,0.035750925540924,-0.0699388161301612,0.3898672759532928,0.2639366388320923
1630501823491,0.035750925540924,-0.0813261345028877,0.3714230060577392,0.2639366388320923
1630501823600,0.035750925540924,-0.0994291678071022,0.3519077897071838,0.2639366388320923
1630501823694,0.035750925540924,-0.1225565746426582,0.3343691527843475,0.2639366388320923
1630501823756,0.035750925540924,-0.1456402242183685,0.3112794160842895,0.2639366388320923
1630501823865,0.035750925540924,-0.1576044410467147,0.3019304573535919,0.2639366388320923
1630501823943,0.035750925540924,-0.1536487191915512,0.2990214824676513,0.2639366388320923
1630501824084,0.035750925540924,-0.1402602195739746,0.2954151630401611,0.2639366388320923
1630501824193,0.035750925540924,-0.1291244029998779,0.2910122871398926,0.2639366388320923
1630501824287,0.035750925540924,-0.1279826015233993,0.286156415939331,0.3570018708705902
1630501824396,0.035750925540924,-0.1394861191511154,0.2737987041473388,0.4327811598777771
1630501824490,0.035750925540924,-0.1604094952344894,0.2439021468162536,0.4816520512104034
1630501824600,0.1781294345855713,-0.1845662295818328,0.1949147880077362,0.5021639466285706
1630501824725,0.1781294345855713,-0.2046234756708145,0.1379613727331161,0.5001821517944336
1630501824818,0.1781294345855713,-0.2173996120691299,0.0893573984503746,0.4854613840579986
1630501824896,0.1781294345855713,-0.2241154313087463,0.0569745637476444,0.4684623777866363
1630501824990,0.1781294345855713,-0.2269477546215057,0.0360115878283977,0.4565733969211578
1630501825086,0.1781294345855713,-0.2261607348918914,0.0189055781811475,0.4531991481781006
1630501825211,0.1781294345855713,-0.2235530614852905,0.0004444769292604,0.4587781429290771
1630501825320,0.1781294345855713,-0.222839668393135,-0.0243478249758481,0.4709475934505462
1630501825415,0.1781294345855713,-0.2285182029008865,-0.0549447387456893,0.4844751954078674
1630501825477,0.1781294345855713,-0.2410411685705185,-0.0862131416797638,0.5087804198265076
1630501825586,0.1781294345855713,-0.2564092874526977,-0.1161316260695457,0.5270690321922302
1630501825711,0.2227897942066192,-0.2688034772872925,-0.1494627892971038,0.5359625816345215
1630501825789,0.2737990617752075,-0.27574223279953,-0.1914494186639785,0.534972608089447
1630501825914,0.2913417518138885,-0.278856098651886,-0.2412798404693603,0.5241071581840515
1630501826008,0.2783927619457245,-0.2814536392688751,-0.2910309731960296,0.5123432874679565
1630501826086,0.2450533807277679,-0.2903061509132385,-0.3317593336105346,0.5081548690795898
1630501826226,0.2240403145551681,-0.3077924251556396,-0.3568616807460785,0.5140523910522461
1630501826289,0.200788676738739,-0.325752854347229,-0.3641054034233093,0.5251312851905823
1630501826398,0.1729158759117126,-0.3354375958442688,-0.3590853810310364,0.5338771939277649
1630501826523,0.1430609226226806,-0.3355025947093963,-0.349568247795105,0.5345398187637329
1630501826617,0.116739921271801,-0.3301520049571991,-0.3388301134109497,0.5261370539665222
1630501826726,0.0964399129152298,-0.3226748406887054,-0.3240717053413391,0.5098360180854797
1630501826820,0.0815586969256401,-0.3151188790798187,-0.3046180009841919,0.4872800707817077
1630501826898,0.0707656145095825,-0.3103452026844024,-0.2840395271778106,0.4596859514713287
1630501827023,0.0640883445739746,-0.3403770327568054,-0.2681103348731994,0.4294372797012329
1630501827148,0.0627986192703247,-0.3811459243297577,-0.2604111135005951,0.4020408689975738
1630501827257,0.0302659291774034,-0.4257237315177917,-0.2609206736087799,0.3985625505447387
1630501827320,-0.0004398355667944,-0.4605622887611389,-0.2660074830055237,0.4096438288688659
1630501827414,-0.0260035581886768,-0.4850527644157409,-0.2720616161823272,0.4302375912666321
1630501827523,-0.0470083281397819,-0.5281542539596558,-0.2790845930576324,0.4404555559158325
1630501827617,-0.0683923587203025,-0.5404962301254272,-0.2895194590091705,0.4416234195232391
1630501827757,-0.0629525557160377,-0.5585079789161682,-0.3046144247055053,0.4353569746017456
1630501827851,-0.0741840824484825,-0.5678268074989319,-0.3203597366809845,0.4291964471340179
1630501827965,-0.0713076218962669,-0.5575140118598938,-0.3301486074924469,0.4292671382427215
1630501828012,-0.0534153953194618,-0.5262863039970398,-0.3315541744232178,0.4356518685817718
1630501828121,-0.0286288261413574,-0.4871424734592438,-0.32724329829216,0.4467616379261017
1630501828215,-0.0029554311186075,-0.455838531255722,-0.323903739452362,0.4590784311294555
1630501828355,0.0234755612909793,-0.439810037612915,-0.3257327079772949,0.470216304063797
1630501828465,0.0234755612909793,-0.4357233047485351,-0.3339635729789734,0.4826855063438415
1630501828558,0.0234755612909793,-0.4300456047058105,-0.3446801304817199,0.5011600255966187
1630501828652,0.0234755612909793,-0.4198980331420898,-0.3512277901172638,0.5249900817871094
1630501828746,0.0234755612909793,-0.406476229429245,-0.3467263877391815,0.5446813106536865
1630501828824,0.0234755612909793,-0.3967695236206054,-0.3491099178791046,0.5466495752334595
1630501828994,0.0234755612909793,-0.3945604562759399,-0.3493790924549103,0.5233854651451111
1630501829118,0.0234755612909793,-0.3960632979869842,-0.3459704518318176,0.4825802743434906
1630501829149,0.0234755612909793,-0.3941727876663208,-0.3365009725093841,0.4825802743434906
1630501829245,0.0234755612909793,-0.3859122097492218,-0.3209548890590668,0.4825802743434906
1630501829353,0.0254954397678375,-0.3788510262966156,-0.3040317893028259,0.4825802743434906
1630501829434,0.0193644240498542,-0.3810458481311798,-0.2903507351875305,0.4825802743434906
1630501829557,0.0205951780080795,-0.3944895267486572,-0.2821744084358215,0.4825802743434906
1630501829698,0.0227501560002565,-0.410133421421051,-0.2809447348117828,0.4825802743434906
1630501829761,0.0242229867726564,-0.4164690673351288,-0.2859575748443603,0.4825802743434906
1630501829841,0.0243603624403476,-0.4094579517841339,-0.2925517857074737,0.4825802743434906
1630501829935,0.0234117768704891,-0.395374596118927,-0.2925517857074737,0.4825802743434906
1630501830023,0.0229168739169836,-0.3834012448787689,-0.2925517857074737,0.4825802743434906
1630501830195,0.0246920306235551,-0.3746582567691803,-0.2925517857074737,0.4825802743434906
1630501830273,0.0292896553874015,-0.3622848093509674,-0.2925517857074737,0.4825802743434906
1630501830367,0.0350048020482063,-0.3400547206401825,-0.2925517857074737,0.4825802743434906
1630501830476,0.0350048020482063,-0.3106186091899872,-0.2925517857074737,0.4825802743434906
1630501830554,0.0297178253531456,-0.2802745997905731,-0.2925517857074737,0.4825802743434906
1630501830648,0.0278108026832342,-0.2524386346340179,-0.2925517857074737,0.4825802743434906
1630501830792,0.0320192910730838,-0.2264181524515152,-0.2925517857074737,0.4825802743434906
1630501830917,0.0387510024011135,-0.2011583745479583,-0.0642918869853019,0.4825802743434906
1630501830966,0.0300391465425491,-0.1779591143131256,-0.0987142324447631,0.4825802743434906
1630501831091,0.0283445175737142,-0.1589195132255554,-0.1365439593791961,0.4825802743434906
1630501831185,0.0492175854742527,-0.1455723941326141,-0.1742123663425445,0.4825802743434906
1630501831279,0.0951527878642082,-0.1383907198905944,-0.2054141461849212,0.4825802743434906
1630501831388,0.1529377698898315,-0.1360046565532684,-0.222663015127182,0.4825802743434906
1630501831513,0.2053152322769165,-0.1364012509584427,-0.2263048589229583,0.6258653402328491
1630501831591,0.243900641798973,-0.1362938433885574,-0.2240532040596008,0.6750720143318176
1630501831669,0.2685017883777618,-0.1352220624685287,-0.2236033529043197,0.7154459357261658
1630501831763,0.2820495963096618,-0.1356407850980758,-0.2270075380802154,0.7382373213768005
1630501831888,0.2857492566108703,-0.1407870799303054,-0.2326091676950454,0.7421839833259583
1630501832001,0.2677286565303802,-0.1514495462179184,-0.2377714365720749,0.7308743596076965
1630501832094,0.2456612437963485,-0.1673182100057602,-0.2611759006977081,0.7103091478347778
1630501832188,0.2227138876914978,-0.1889172941446304,-0.2773341238498688,0.6888837218284607
1630501832313,0.2023633569478988,-0.2163480073213577,-0.2794956564903259,0.6736335158348083
1630501832422,0.186517521739006,-0.2461328357458114,-0.2727356553077698,0.6651961803436279
1630501832485,0.1896108239889145,-0.2728730142116546,-0.265061616897583,0.6604185700416565
1630501832626,0.1916983872652053,-0.2923925817012787,-0.2573608160018921,0.6559296250343323
1630501832719,0.1852728575468063,-0.3048495352268219,-0.2440406531095504,0.6536272764205933
1630501832829,0.1650371253490448,-0.3123643696308136,-0.2250058501958847,0.6530539393424988
1630501832907,0.1304583102464676,-0.3193195462226867,-0.2093426138162613,0.6480827331542969
1630501833000,0.0861986801028251,-0.3294905424118042,-0.2047977894544601,0.6322507858276367
1630501833110,0.0379942432045936,-0.3447759747505188,-0.2109921872615814,0.6034347414970398
1630501833266,-0.0102368518710136,-0.364614188671112,-0.2210593670606613,0.5653953552246094
1630501833329,-0.0552855990827083,-0.38789963722229,-0.229684978723526,0.5263928771018982
1630501833471,-0.0885505527257919,-0.4110848009586334,-0.2356757521629333,0.4958088397979736
1630501833565,-0.1021729856729507,-0.4280727803707123,-0.240273892879486,0.4786126613616943
1630501833627,-0.0969616472721099,-0.4338591694831848,-0.244162380695343,0.4728007316589355
1630501833690,-0.0845989137887954,-0.429692268371582,-0.2501017451286316,0.4695497751235962
1630501833862,-0.0779431015253067,-0.4218889772891998,-0.26064532995224,0.4591361284255981
1630501833924,-0.0823000967502594,-0.4150089025497436,-0.273984283208847,0.4386482536792755
1630501834002,-0.0955609157681465,-0.4111559092998504,-0.2853076457977295,0.4109566807746887
1630501834112,-0.1127091124653816,-0.4139989912509918,-0.2927410304546356,0.3816450536251068
1630501834252,-0.1303946822881698,-0.4283520877361297,-0.2996761500835418,0.3547489941120147
1630501834315,-0.1475689709186554,-0.4536100625991821,-0.3086327612400055,0.3302628099918365
1630501834440,-0.1633793860673904,-0.4800113439559936,-0.3154296278953552,0.3071825802326202
1630501834549,-0.173905611038208,-0.4936942160129547,-0.3126319944858551,0.2866829931735992
1630501834627,-0.1743519604206085,-0.4907839000225067,-0.2974827587604522,0.2714803814888
1630501834721,-0.1633802205324173,-0.4776710867881775,-0.2761826813220978,0.2634192109107971
1630501834823,-0.1463192701339721,-0.4627232849597931,-0.2578170895576477,0.2605062425136566
1630501834933,-0.1326693445444107,-0.450629860162735,-0.2481571733951568,0.2574891746044159
1630501835073,-0.1301012933254242,-0.4437628090381622,-0.2471696436405182,0.2508946359157562
1630501835167,-0.1364796757698059,-0.4406421482563019,-0.2514066100120544,0.2420625239610672
1630501835276,-0.1386449187994003,-0.4340859353542328,-0.2553706765174866,0.2352756857872009
1630501835370,-0.1249950528144836,-0.4198182225227356,-0.2536477148532867,0.2335301488637924
1630501835432,-0.0991782397031784,-0.4023371338844299,-0.2449624091386795,0.2352811247110366
1630501835573,-0.0762124881148338,-0.3879739642143249,-0.2334998100996017,0.2367841303348541
1630501835667,-0.0671656429767608,-0.3787180781364441,-0.2260110974311828,0.2350307404994964
1630501835760,-0.0708622857928276,-0.3698312044143677,-0.2276815772056579,0.2297457754611969
1630501835854,-0.077394351363182,-0.3584302961826324,-0.2388154864311218,0.2243565022945404
1630501835963,-0.0767550840973854,-0.3473782837390899,-0.2563710212707519,0.2235506772994995
1630501836073,-0.0680499747395515,-0.3403767347335815,-0.2762881219387054,0.2280197888612747
1630501836153,-0.0575048178434371,-0.337981253862381,-0.2961560785770416,0.2318249940872192
1630501836294,-0.0509068220853805,-0.3368796110153198,-0.3142177164554596,0.2290333658456802
1630501836372,-0.0483695827424526,-0.3331159055233001,-0.3284834027290344,0.2226590663194656
1630501836466,-0.0451037622988224,-0.3260250687599182,-0.3374450802803039,0.2248831540346145
1630501836559,-0.0397262051701545,-0.3177317976951599,-0.3416765630245209,0.2433087527751922
1630501836700,-0.0257440190762281,-0.3112182915210724,-0.3453373312950134,0.2690313160419464
1630501836763,-0.0172909460961818,-0.3097759187221527,-0.3516460061073303,0.2879816889762878
1630501836903,-0.0183125305920839,-0.3129770159721374,-0.362322986125946,0.2951745092868805
1630501837012,-0.0244402568787336,-0.3171343207359314,-0.3750206530094147,0.2982377707958221
1630501837075,-0.0289330426603555,-0.3198406398296356,-0.3844067454338074,0.306849718093872
1630501837169,-0.0299079678952693,-0.3224078118801117,-0.3842996954917907,0.3218786120414734
1630501837262,-0.0307524055242538,-0.3289341330528259,-0.3732614517211914,0.336906224489212
1630501837372,-0.0339266583323478,-0.3397562801837921,-0.3543176054954529,0.3457655012607574
1630501837489,-0.0383844189345836,-0.3496518433094024,-0.3319191634654999,0.3478095829486847
1630501837599,-0.0415320843458175,-0.354554533958435,-0.3111498951911926,0.3469279110431671
1630501837724,-0.0417082644999027,-0.3535144031047821,-0.2958683669567108,0.3483660221099853
1630501837786,-0.0400925390422344,-0.3497216999530792,-0.2869041562080383,0.3532056808471679
1630501837864,-0.0398342534899711,-0.3473443984985351,-0.2799458801746368,0.3555235266685486
1630501837972,-0.0434859544038772,-0.3481934368610382,-0.2649537920951843,0.3463444411754608
1630501838129,-0.0456355474889278,-0.3515157699584961,-0.2352480888366699,0.3218212425708771
1630501838205,-0.0501014739274978,-0.35624760389328,-0.1948629915714264,0.2887426018714905
1630501838299,-0.0485133007168769,-0.3634625375270843,-0.157201737165451,0.2592219114303589
1630501838393,-0.0450324155390262,-0.3762751817703247,-0.132726177573204,0.2390324175357818
1630501838501,-0.045723121613264,-0.3933586478233337,-0.1229163408279419,0.221776932477951
1630501838598,-0.0520494990050792,-0.4023232460021972,-0.1214648485183715,0.1993131339550018
1630501838705,-0.0527306571602821,-0.4078001677989959,-0.1137222945690155,0.1730031818151474
1630501838830,-0.0441609770059585,-0.40531787276268,-0.1050539091229438,0.1510163843631744
1630501838908,-0.0301099456846714,-0.3950898349285126,-0.0959789976477623,0.1390677094459533
1630501839005,-0.0179149378091096,-0.3815822899341583,-0.0874431133270263,0.1309152394533157
1630501839099,-0.0107957860454916,-0.3696372509002685,-0.0792941823601722,0.1206109896302223
1630501839196,-0.0072309044189751,-0.3651853799819946,-0.0694865956902504,0.1008482798933982
1630501839320,-0.0025679445825517,-0.3744111955165863,-0.0550893917679786,0.0692571550607681
1630501839402,-0.0102052548900246,-0.4002668261528015,-0.0352518633008003,0.0319173857569694
1630501839543,-0.0002992177323903,-0.4399122893810272,-0.0169952474534511,0.0007038725889287
1630501839604,0.0202657114714384,-0.4860332608222961,-0.0131721450015902,-0.0165985561907291
1630501839715,0.037053182721138,-0.4860332608222961,-0.0354112088680267,-0.0231309328228235
1630501839778,0.0497257448732852,-0.4860332608222961,-0.0354112088680267,-0.0281734447926282
1630501839919,0.0435042083263397,-0.4860332608222961,-0.0354112088680267,-0.0307935383170843
1630501840059,0.0435459092259407,-0.4860332608222961,-0.0354112088680267,-0.0307935383170843
1630501840105,0.0435459092259407,-0.4860332608222961,-0.0354112088680267,-0.0307935383170843
1630501840203,0.0435459092259407,-0.4860332608222961,-0.0354112088680267,-0.0307935383170843
1630501840307,0.0435459092259407,-0.4860332608222961,-0.0354112088680267,-0.0307935383170843
1630501840419,0.0435459092259407,-0.4860332608222961,-0.0354112088680267,-0.0307935383170843
1630501840561,0.0435459092259407,-0.4860332608222961,-0.0354112088680267,-0.0307935383170843
1630501840657,0.0435459092259407,-0.4860332608222961,-0.0354112088680267,-0.0307935383170843
1630501840716,0.0435459092259407,-0.4860332608222961,-0.0354112088680267,-0.0307935383170843
1630501840826,0.0435459092259407,-0.4860332608222961,-0.0354112088680267,-0.0307935383170843
1630501840920,0.0793103799223899,-0.4860332608222961,-0.0354112088680267,-0.0307935383170843
1630501841013,0.0793103799223899,-0.4860332608222961,-0.0354112088680267,-0.0307935383170843
1630501841154,0.0793103799223899,-0.4860332608222961,-0.0354112088680267,-0.0307935383170843
1630501841297,0.0793103799223899,-0.4860332608222961,-0.0354112088680267,-0.0307935383170843
1630501841363,0.0793103799223899,-0.4860332608222961,-0.0354112088680267,-0.0307935383170843
1630501841420,0.0793103799223899,-0.4860332608222961,-0.0354112088680267,-0.0307935383170843
1630501841516,0.0793103799223899,-0.4860332608222961,-0.0354112088680267,-0.0307935383170843
1630501841624,0.0793103799223899,-0.4860332608222961,-0.0354112088680267,-0.0307935383170843
1630501841751,0.0793103799223899,-0.063526339828968,0.0057607400231063,-0.0307935383170843
1630501841860,0.0793103799223899,-0.0528863370418548,0.0025502326898276,-0.0307935383170843
1630501841956,0.0793103799223899,-0.0500190928578376,-0.0033341124653816,-0.0307935383170843
1630501842019,0.0793103799223899,-0.0585985071957111,-0.0170528814196586,-0.0307935383170843
1630501842163,0.0793103799223899,-0.0766855999827385,-0.0378399230539798,-0.0307935383170843
1630501842256,0.0793103799223899,-0.0981074124574661,-0.0608206652104854,-0.0307935383170843
1630501842350,0.0793103799223899,-0.1159341111779213,-0.0811181291937828,-0.0307935383170843
1630501842475,0.0793103799223899,-0.1263549476861953,-0.0963041260838508,-0.0307935383170843
1630501842570,0.0793103799223899,-0.1296388506889343,-0.1062580049037933,-0.0307935383170843
1630501842646,0.0793103799223899,-0.129797950387001,-0.1133368536829948,-0.0307935383170843
1630501842772,0.0793103799223899,-0.1310743242502212,-0.120710477232933,-0.0307935383170843
1630501842835,0.0793103799223899,-0.1358274221420288,-0.1303910613059997,-0.0307935383170843
1630501842974,0.0793103799223899,-0.152147427201271,-0.159819483757019,-0.0307935383170843
1630501843069,0.0793103799223899,-0.1646702587604522,-0.1888608187437057,-0.0307935383170843
1630501843178,0.0793103799223899,-0.1774585843086242,-0.2222235351800918,-0.0307935383170843
1630501843272,0.0793103799223899,-0.1930000931024551,-0.2605528831481933,-0.0307935383170843
1630501843368,0.0793103799223899,-0.2062245309352874,-0.3006547093391418,-0.0307935383170843
1630501843445,0.0793103799223899,-0.2059781849384308,-0.3294908106327057,-0.0307935383170843
1630501843604,0.0793103799223899,-0.1852622777223587,-0.3282397985458374,-0.0307935383170843
1630501843710,0.0793103799223899,-0.1500134766101837,-0.2908198833465576,-0.0307935383170843
1630501843773,0.0793103799223899,-0.1131523475050926,-0.2273655980825424,-0.0307935383170843
1630501843868,0.0793103799223899,-0.0829231888055801,-0.1528553515672683,-0.0307935383170843
1630501843960,0.0793103799223899,-0.0588566847145557,-0.0766309648752212,-0.0307935383170843
1630501844073,0.0793103799223899,-0.0520445592701435,0.0065844538621604,-0.0307935383170843
1630501844207,0.0793103799223899,-0.0464813336730003,0.0185444466769695,-0.0307935383170843
1630501844305,0.0793103799223899,-0.0390010923147201,0.032866533845663,-0.0307935383170843
1630501844429,0.0793103799223899,-0.0264276638627052,0.0516373291611671,-0.0307935383170843
1630501844490,0.0793103799223899,-0.008155046030879,0.0761098861694336,-0.0307935383170843
1630501844585,0.0793103799223899,0.0148050198331475,0.1068112328648567,-0.0307935383170843
1630501844693,0.0793103799223899,0.0416020788252353,0.1442460417747497,-0.0307935383170843
1630501844820,0.0793103799223899,0.0712617039680481,0.1881789267063141,-0.0307935383170843
1630501844929,0.0793103799223899,0.1006931141018867,0.2372848987579345,-0.0307935383170843
1630501845005,0.0793103799223899,0.1231843158602714,0.2880386710166931,-0.0307935383170843
1630501845116,0.0793103799223899,0.1315014511346817,0.3364492058753967,-0.0307935383170843
1630501845225,0.0793103799223899,0.1315014511346817,0.3808372020721435,-0.0307935383170843
1630501845288,0.0793103799223899,0.1315014511346817,0.3808372020721435,-0.0307935383170843
1630501845444,0.0793103799223899,0.1315014511346817,0.3808372020721435,-0.0307935383170843
1630501845507,0.0793103799223899,0.1315014511346817,0.3808372020721435,-0.0307935383170843
1630501845584,0.0793103799223899,0.1315014511346817,0.3808372020721435,-0.0307935383170843
1630501845694,0.0793103799223899,0.1315014511346817,0.3808372020721435,-0.0307935383170843
1630501845787,0.0793103799223899,0.1315014511346817,0.3808372020721435,-0.0307935383170843
1630501845915,0.0793103799223899,0.1315014511346817,0.3808372020721435,-0.0307935383170843
1630501846039,0.0793103799223899,0.1315014511346817,0.3808372020721435,-0.0307935383170843
1630501846100,0.0793103799223899,0.1315014511346817,0.3808372020721435,-0.0307935383170843
1630501846211,0.0793103799223899,0.1315014511346817,0.3808372020721435,-0.0307935383170843
1630501846305,0.0793103799223899,-0.1940002888441085,0.3808372020721435,0.450748473405838
1630501846384,0.0793103799223899,-0.1872420310974121,0.0230545625090599,0.4766802191734314
1630501846526,0.0793103799223899,-0.1872420310974121,0.0830896347761154,0.4766802191734314
1630501846651,0.0793103799223899,-0.1872420310974121,0.1254691779613495,0.4766802191734314
1630501846729,0.0793103799223899,-0.1872420310974121,0.152445763349533,0.4766802191734314
1630501846822,0.0793103799223899,-0.1872420310974121,0.1645395755767822,0.4766802191734314
1630501846915,0.0793103799223899,-0.1872420310974121,0.1620754301548004,0.4766802191734314
1630501847027,0.0793103799223899,-0.1872420310974121,0.1495813876390457,0.4766802191734314
1630501847121,0.0793103799223899,-0.1872420310974121,0.1349253505468368,0.4766802191734314
1630501847243,0.0793103799223899,-0.1872420310974121,0.1234982162714004,0.4766802191734314
1630501847336,0.0793103799223899,-0.1872420310974121,0.1172271594405174,0.4766802191734314
1630501847414,0.0793103799223899,-0.1872420310974121,0.1185023486614227,0.4766802191734314
1630501847524,0.0793103799223899,-0.2308948338031768,0.1287958174943924,0.4995519518852234
1630501847619,0.0793103799223899,-0.1938223987817764,0.1592410057783126,0.4995519518852234
1630501847728,0.0793103799223899,-0.116276815533638,0.1838960796594619,0.4995519518852234
1630501847868,0.0793103799223899,-0.0454018115997314,0.1919010132551193,0.4995519518852234
1630501847946,0.0793103799223899,-0.0001251972571481,0.1820109486579895,0.4995519518852234
1630501848039,0.0793103799223899,0.0012519079027697,0.1609626710414886,0.4995519518852234
1630501848134,0.179090991616249,0.0002397602220298,0.1376630216836929,0.3597250580787658
1630501848229,0.1890155375003814,0.0029501172248274,0.1176173910498619,0.349610686302185
1630501848322,0.2065755724906921,0.0046327137388288,0.1040219515562057,0.3475783169269562
1630501848449,0.2163877636194229,1.2155314834672026e-05,0.10024444013834,0.3462646901607513
1630501848557,0.2145436108112335,-0.0085322204977273,0.1115794405341148,0.3376225233078003
1630501848651,0.2028769701719284,-0.0147980861365795,0.1459992825984954,0.3203590512275696
1630501848758,0.2028769701719284,-0.0150074260309338,0.2032723128795623,0.3008246421813965
1630501848822,0.2028769701719284,-0.0116812419146299,0.2674395442008972,0.2872101664543152
1630501848962,0.2028769701719284,-0.0080283470451831,0.3183594048023224,0.2828763127326965
1630501849086,0.1751520335674286,0.0094642750918865,0.3481214344501495,0.2843033075332641
1630501849149,0.1552419513463974,0.0183118879795074,0.3635848760604858,0.2846169471740722
1630501849290,0.1455641239881515,0.0190427657216787,0.3779351115226745,0.2795608341693878
1630501849352,0.1326028555631637,0.0184962954372167,0.3977611064910888,0.2629321813583374
1630501849463,0.1297934651374817,0.027228120714426,0.419749766588211,0.2470332235097885
1630501849525,0.1321870982646942,0.0481713339686393,0.4381570816040039,0.2421640455722808
1630501849682,0.1296056509017944,0.071100927889347,0.45130655169487,0.24863301217556
1630501849811,0.119612768292427,0.0841114819049835,0.4610161781311035,0.2441791594028473
1630501849869,0.0989901646971702,0.0847860649228096,0.4687646329402923,0.2361184954643249
1630501849979,0.0748800188302993,0.079180508852005,0.474040538072586,0.2264107018709182
1630501850072,0.0561191774904727,0.0734234228730201,0.4736957848072052,0.2220419943332672
1630501850134,0.0500816069543361,0.0708934590220451,0.4622184336185455,0.2286266088485717
1630501850277,0.0500816069543361,0.076570525765419,0.4360973536968231,0.2432445138692855
1630501850369,0.0500816069543361,0.0799961164593696,0.398366779088974,0.2563894689083099
1630501850479,0.0500816069543361,0.0831590890884399,0.3584790527820587,0.2597496807575226
1630501850575,0.0819982588291168,0.0865137353539466,0.3233569860458374,0.2524636685848236
1630501850669,0.1131312325596809,0.0888231322169303,0.2902944684028625,0.2448447942733764
1630501850779,0.1332393437623977,0.0898411273956298,0.2520274519920349,0.2549715638160705
1630501850890,0.1332393437623977,0.0877518132328987,0.2085750550031662,0.2549715638160705
1630501850996,0.1332393437623977,0.0522579178214073,0.1687401831150055,0.2549715638160705
1630501851090,0.1332393437623977,0.0030102625023573,0.1406460404396057,0.2549715638160705
1630501851186,0.1332393437623977,-0.053718127310276,0.1245853975415229,0.2549715638160705
1630501851293,0.1332393437623977,-0.0991464182734489,0.1084595099091529,0.2549715638160705
1630501851387,0.1332393437623977,-0.117114819586277,0.0902590677142143,0.2549715638160705
1630501851529,0.1332393437623977,-0.1098911464214325,0.0729288235306739,0.2549715638160705
1630501851624,0.1332393437623977,-0.0907858982682228,0.0609489046037197,0.2549715638160705
1630501851689,0.1332393437623977,-0.0780985578894615,0.0533089637756347,0.2549715638160705
1630501851798,0.1332393437623977,-0.0748607665300369,0.0421306118369102,0.2549715638160705
1630501851891,0.1332393437623977,-0.0760845467448234,0.0198146570473909,0.2549715638160705
1630501851985,0.1332393437623977,-0.0810541212558746,-0.0145130939781665,0.2549715638160705
1630501852109,0.1332393437623977,-0.089467741549015,-0.0494295954704284,0.2549715638160705
1630501852187,0.1332393437623977,-0.1014071255922317,-0.0664431154727935,0.2549715638160705
1630501852325,0.1332393437623977,-0.1159194335341453,-0.0664431154727935,0.2549715638160705
1630501852390,0.1332393437623977,-0.1296054273843765,-0.0664431154727935,0.2549715638160705
1630501852484,0.1332393437623977,-0.1410416215658188,-0.0664431154727935,0.2549715638160705
1630501852564,0.1332393437623977,-0.1563051342964172,-0.0664431154727935,0.2549715638160705
1630501852768,0.1332393437623977,-0.175372838973999,-0.0664431154727935,0.2549715638160705
1630501852799,0.1332393437623977,-0.1907912492752075,-0.0664431154727935,0.2549715638160705
1630501852939,0.1332393437623977,-0.1938798129558563,-0.0664431154727935,0.2549715638160705
1630501853002,0.1332393437623977,-0.185483381152153,-0.0664431154727935,0.2549715638160705
1630501853099,0.1332393437623977,-0.1785243451595306,-0.0664431154727935,0.2549715638160705
1630501853209,0.1332393437623977,-0.182511419057846,-0.0664431154727935,0.2549715638160705
1630501853336,0.1332393437623977,-0.1942577213048935,-0.0664431154727935,0.2549715638160705
1630501853428,0.1332393437623977,-0.2040482610464096,0.2154778242111206,0.2549715638160705
1630501853524,0.1332393437623977,-0.2064521163702011,0.1928430050611496,0.2549715638160705
1630501853651,0.1332393437623977,-0.2041539996862411,0.1835839301347732,0.2549715638160705
1630501853760,0.1332393437623977,-0.2024097740650177,0.1785842627286911,0.2549715638160705
1630501853822,0.1332393437623977,-0.2036248594522476,0.1715576350688934,0.2549715638160705
1630501853932,0.1332393437623977,-0.2086515426635742,0.1596374362707138,0.2549715638160705
1630501854042,0.1332393437623977,-0.2145015299320221,0.143428087234497,0.2549715638160705
1630501854135,0.1332393437623977,-0.2119401693344116,0.1252763420343399,0.2549715638160705
1630501854245,0.1332393437623977,-0.204193964600563,0.1252763420343399,0.2549715638160705
1630501854323,0.1332393437623977,-0.1994940936565399,0.1252763420343399,0.2549715638160705
1630501854418,0.1332393437623977,-0.2059607654809951,0.1252763420343399,0.2549715638160705
1630501854575,0.1332393437623977,-0.2279111742973327,0.1252763420343399,0.2549715638160705
1630501854638,0.1332393437623977,-0.2578723728656769,0.1010261252522468,0.2549715638160705
1630501854779,0.1332393437623977,-0.2810345590114593,0.0781146362423896,0.2549715638160705
1630501854841,0.1332393437623977,-0.2559866905212402,0.0662211030721664,0.2549715638160705
1630501854936,0.1332393437623977,-0.2333923429250717,0.0638419166207313,0.2549715638160705
1630501855063,0.1332393437623977,-0.2426172941923141,0.0596346259117126,0.2549715638160705
1630501855156,0.1332393437623977,-0.2554076611995697,0.0430833734571933,0.2549715638160705
1630501855250,0.1332393437623977,-0.2566185593605041,0.0125868842005729,0.2549715638160705
1630501855358,0.1332393437623977,-0.2333139777183532,0.0125868842005729,0.2549715638160705
1630501855454,0.1332393437623977,-0.1836882978677749,0.0125868842005729,0.2549715638160705
1630501855530,0.1332393437623977,-0.1836882978677749,0.0125868842005729,0.2549715638160705
1630501855623,0.1332393437623977,-0.1836882978677749,0.0125868842005729,0.2549715638160705
1630501855781,0.1332393437623977,-0.1836882978677749,0.0125868842005729,0.2549715638160705
1630501855862,0.1332393437623977,-0.2110223174095153,-0.1210189387202262,0.2549715638160705
1630501855970,0.1332393437623977,-0.2502197027206421,-0.1433438509702682,0.2549715638160705
1630501856078,0.1332393437623977,-0.2681533992290497,-0.1618003100156784,0.2549715638160705
1630501856141,0.1332393437623977,-0.2768226265907287,-0.1776958554983139,0.2549715638160705
1630501856253,0.1332393437623977,-0.285146415233612,-0.1875503063201904,0.2549715638160705
1630501856392,0.1332393437623977,-0.3428150415420532,-0.1908659636974334,0.2549715638160705
1630501856485,0.1332393437623977,-0.4098566174507141,-0.1924989074468612,0.2549715638160705
1630501856595,0.1332393437623977,-0.4145406484603882,-0.1989114135503769,0.2549715638160705
1630501856658,0.1332393437623977,-0.4145654439926147,-0.2130300998687744,0.2549715638160705
1630501856752,0.1332393437623977,-0.410913735628128,-0.2320244759321212,0.2549715638160705
1630501856848,0.1332393437623977,-0.4071809649467468,-0.249894693493843,0.2549715638160705
1630501856989,0.1332393437623977,-0.4030742943286896,-0.260952889919281,0.2549715638160705
1630501857086,0.1332393437623977,-0.3962389826774597,-0.2870367169380188,0.2549715638160705
1630501857189,0.1332393437623977,-0.3844351768493652,-0.2983927428722381,0.2549715638160705
1630501857287,0.1332393437623977,-0.3658268749713897,-0.2985756397247314,0.2549715638160705
1630501857363,0.1332393437623977,-0.3445112705230713,-0.298149824142456,0.2549715638160705
1630501857490,0.1332393437623977,-0.3305186331272125,-0.3020676970481872,0.2549715638160705
1630501857616,0.1332393437623977,-0.3261265158653259,-0.3111206293106079,0.2549715638160705
1630501857694,0.1332393437623977,-0.3264710903167724,-0.3243767023086548,0.2549715638160705
1630501857789,0.1332393437623977,-0.3263156414031982,-0.3432181775569916,0.2549715638160705
1630501857882,0.1332393437623977,-0.3228507936000824,-0.3679769337177276,0.2549715638160705
1630501857990,0.1332393437623977,-0.3172830939292907,-0.3927870988845825,0.2549715638160705
1630501858086,0.1332393437623977,-0.312139481306076,-0.4072098433971405,0.2549715638160705
1630501858230,0.1332393437623977,-0.3096751272678375,-0.4042861759662628,0.2549715638160705
1630501858323,0.1332393437623977,-0.311162382364273,-0.3891089260578155,0.2549715638160705
1630501858386,0.1332393437623977,-0.3163300156593323,-0.3750889897346496,0.2549715638160705
1630501858496,0.1332393437623977,-0.3253912925720215,-0.3735438585281372,0.2549715638160705
1630501858590,0.1332393437623977,-0.3391976058483124,-0.3866863846778869,0.2549715638160705
1630501858684,0.1332393437623977,-0.3595329225063324,-0.4095153212547302,0.2549715638160705
1630501858828,0.1332393437623977,-0.3859829902648926,-0.4336939752101898,0.2549715638160705
1630501858922,0.1332393437623977,-0.4141720235347748,-0.4530108869075775,0.2549715638160705
1630501859032,0.1332393437623977,-0.4394676685333252,-0.4645128548145294,0.2549715638160705
1630501859123,0.1332393437623977,-0.4587280750274658,-0.4686256051063537,0.2549715638160705
1630501859250,0.1332393437623977,-0.4718591868877411,-0.4675854742527008,0.2549715638160705
1630501859295,0.1332393437623977,-0.4800293743610382,-0.4638674855232239,0.2549715638160705
1630501859421,0.1332393437623977,-0.4851246476173401,-0.4560557603836059,0.2549715638160705
1630501859512,0.1332393437623977,-0.4867979884147644,-0.4392302632331848,0.2549715638160705
1630501859607,0.1332393437623977,-0.4823070764541626,-0.4111191034317016,0.2549715638160705
1630501859685,0.1332393437623977,-0.4711614847183227,-0.3798110485076904,0.2549715638160705
1630501859828,0.1332393437623977,-0.4570454061031341,-0.3557748794555664,0.2549715638160705
1630501859890,0.1332393437623977,-0.4407632350921631,-0.3414919078350067,0.2549715638160705
1630501860062,0.1332393437623977,-0.4188900887966156,-0.3321348428726196,0.2549715638160705
1630501860155,0.1332393437623977,-0.3876697719097137,-0.3234747648239136,0.2549715638160705
1630501860217,0.1332393437623977,-0.3483994305133819,-0.3166150152683258,0.2549715638160705
1630501860326,0.1332393437623977,-0.3064935803413391,-0.3145076036453247,0.2549715638160705
1630501860422,0.1332393437623977,-0.2674359977245331,-0.3157553076744079,0.2549715638160705
1630501860517,0.1332393437623977,-0.2352491319179535,-0.3164697885513305,0.2549715638160705
1630501860659,0.1332393437623977,-0.2104185074567794,-0.309904932975769,0.2549715638160705
1630501860755,0.1332393437623977,-0.1886130273342132,-0.2883252799510956,0.2549715638160705
1630501860848,0.1332393437623977,-0.1650208979845047,-0.252734363079071,0.2549715638160705
1630501860959,0.1332393437623977,-0.1386348754167556,-0.2152245640754699,0.2549715638160705
1630501861020,0.1332393437623977,-0.125911146402359,-0.1903316229581833,0.2549715638160705
1630501861115,0.1332393437623977,-0.114464096724987,-0.1842217594385147,0.2549715638160705
1630501861258,0.1332393437623977,-0.104522168636322,-0.1911136656999588,0.2549715638160705
1630501861350,0.1332393437623977,-0.0934626460075378,-0.2002125531435012,0.2549715638160705
1630501861490,0.1332393437623977,-0.0794433578848838,-0.2049109041690826,0.2549715638160705
1630501861528,0.1332393437623977,-0.0645466148853302,-0.2052086144685745,0.2549715638160705
1630501861661,0.1332393437623977,-0.053690381348133,-0.2037920504808426,0.2549715638160705
1630501861760,0.1332393437623977,-0.0502648949623107,-0.2022492438554763,0.2549715638160705
1630501861852,0.1332393437623977,-0.0538734309375286,-0.201145589351654,0.2549715638160705
1630501861962,0.1332393437623977,-0.060041569173336,-0.2012097090482711,0.2549715638160705
1630501862071,0.1332393437623977,-0.1240939870476722,-0.2028657495975494,0.2549715638160705
1630501862151,0.1332393437623977,-0.1781392842531204,-0.2063276767730713,0.2549715638160705
1630501862256,0.1332393437623977,-0.2270593047142028,-0.215164765715599,0.2549715638160705
1630501862319,0.1332393437623977,-0.2911478281021118,-0.2328412979841232,0.2549715638160705
1630501862474,0.1332393437623977,-0.3856374621391296,-0.2564605176448822,0.2549715638160705
1630501862571,0.1332393437623977,-0.3582804203033447,-0.2769794464111328,0.2549715638160705
1630501862678,0.1332393437623977,-0.3324901759624481,-0.2880098521709442,0.2549715638160705
1630501862742,0.1332393437623977,-0.3110080659389496,-0.2931079268455505,0.2549715638160705
1630501862869,0.1332393437623977,-0.2984814047813415,-0.298938125371933,0.2549715638160705
1630501862943,0.1332393437623977,-0.29643714427948,-0.3061672747135162,-0.069435991346836
1630501863085,-0.1049536317586898,-0.3027214109897613,-0.312889963388443,-0.0912960469722747
1630501863194,-0.1417214721441269,-0.3140881061553955,-0.3189684152603149,-0.1135380566120147
1630501863272,-0.1728519052267074,-0.3274219036102295,-0.3254797458648681,-0.1331610977649688
1630501863366,-0.1963784098625183,-0.338231086730957,-0.3305069804191589,-0.1421585530042648
1630501863477,-0.1963784098625183,-0.3426311314105987,-0.3328506052494049,-0.1421585530042648
1630501863554,-0.1963784098625183,-0.3280762135982513,-0.3338192403316498,-0.1421585530042648
1630501863726,-0.1963784098625183,-0.3115344941616058,-0.3396694958209991,-0.1421585530042648
1630501863790,-0.1963784098625183,-0.2973155975341797,-0.3553259670734405,-0.1421585530042648
1630501863884,-0.1963784098625183,-0.2881041467189789,-0.3787795007228851,-0.1421585530042648
1630501863992,-0.1963784098625183,-0.2868088781833648,-0.4049087762832641,-0.1421585530042648
1630501864087,-0.1963784098625183,-0.2957144677639007,-0.4315815567970276,-0.1421585530042648
1630501864152,-0.1963784098625183,-0.315316379070282,-0.4600894451141357,-0.1662227511405944
1630501864324,-0.2366160750389099,-0.3413944542407989,-0.4886630177497864,-0.1930943727493286
1630501864387,-0.2834127247333526,-0.366037905216217,-0.5119146108627319,-0.2129304856061935
1630501864495,-0.3283884823322296,-0.3823582828044891,-0.5269097089767456,-0.2295571565628051
1630501864589,-0.3283884823322296,-0.3890626728534698,-0.5351797938346863,-0.2295571565628051
1630501864684,-0.3283884823322296,-0.3872586190700531,-0.5400487780570984,-0.2295571565628051
1630501864793,-0.3283884823322296,-0.3786071538925171,-0.541917622089386,-0.2295571565628051
1630501864922,-0.3283884823322296,-0.369937926530838,-0.5445747971534729,-0.2295571565628051
1630501865030,-0.3283884823322296,-0.3668035566806793,-0.5466001033782959,-0.2295571565628051
1630501865123,-0.3283884823322296,-0.3736234009265899,-0.5483659505844116,0.1926121413707733
1630501865185,-0.3283884823322296,-0.3930122852325439,-0.5478342175483704,0.1872249096632003
1630501865326,-0.3283884823322296,-0.4258514642715454,-0.5429328680038452,0.1736022979021072
1630501865388,-0.3283884823322296,-0.4682873487472534,-0.5342236161231995,0.1549963504076004
1630501865560,-0.3283884823322296,-0.509728729724884,-0.5258600115776062,0.1353785097599029
1630501865622,-0.3283884823322296,-0.5351545810699463,-0.5209876298904419,0.1353785097599029
1630501865748,-0.3283884823322296,-0.5349278450012207,-0.5183925628662109,0.1353785097599029
1630501865826,-0.3283884823322296,-0.5127946734428406,-0.5142817497253418,0.1353785097599029
1630501865919,-0.3283884823322296,-0.5127946734428406,-0.5058490633964539,0.1353785097599029
1630501865996,-0.3283884823322296,-0.5127946734428406,-0.5058490633964539,0.1353785097599029
1630501866152,-0.3283884823322296,-0.5127946734428406,-0.5058490633964539,0.1353785097599029
1630501866215,-0.3283884823322296,-0.5127946734428406,-0.5058490633964539,0.1353785097599029
1630501866322,-0.3283884823322296,-0.5127946734428406,-0.5058490633964539,0.1218215227127075
1630501866418,-0.3283884823322296,-0.5127946734428406,-0.5058490633964539,0.1100702285766601
1630501866526,-0.3283884823322296,-0.5127946734428406,-0.5058490633964539,0.0948789566755294
1630501866621,-0.3283884823322296,-0.310939073562622,-0.5058490633964539,0.0694407299160957
1630501866761,-0.3283884823322296,-0.31781005859375,-0.5058490633964539,0.0694407299160957
1630501866824,-0.3283884823322296,-0.3208464980125427,-0.5058490633964539,0.0694407299160957
1630501866933,-0.3283884823322296,-0.3321341574192047,-0.5058490633964539,0.0694407299160957
1630501867042,-0.3283884823322296,-0.3519021868705749,-0.5058490633964539,0.0694407299160957
1630501867106,-0.3283884823322296,-0.3705728352069855,-0.5058490633964539,0.3835707902908325
1630501867200,-0.3283884823322296,-0.376719981431961,-0.5058490633964539,0.3835707902908325
1630501867373,-0.3283884823322296,-0.3669026494026184,-0.5058490633964539,0.3835707902908325
1630501867435,-0.3283884823322296,-0.3473813533782959,-0.5058490633964539,0.3835707902908325
1630501867545,-0.3283884823322296,-0.3267460167407989,-0.5058490633964539,0.3835707902908325
1630501867642,-0.3283884823322296,-0.3099643290042877,-0.5058490633964539,0.3835707902908325
1630501867733,-0.3283884823322296,-0.2989908158779144,-0.5058490633964539,0.3835707902908325
1630501867843,-0.3283884823322296,-0.3036999404430389,-0.5058490633964539,0.3835707902908325
1630501867969,-0.3283884823322296,-0.3045027256011963,-0.5058490633964539,0.3835707902908325
1630501868064,-0.3283884823322296,-0.3018178641796112,-0.5058490633964539,0.3835707902908325
1630501868142,-0.3283884823322296,-0.2981929183006286,-0.5058490633964539,0.3835707902908325
1630501868236,-0.3283884823322296,-0.2964862883090973,-0.5058490633964539,0.3835707902908325
1630501868343,-0.3283884823322296,-0.2976395189762115,-0.5058490633964539,0.3835707902908325
1630501868437,-0.3283884823322296,-0.2989816069602966,-0.5058490633964539,0.3835707902908325
1630501868578,-0.3283884823322296,-0.2969421744346618,-0.2539385855197906,0.3835707902908325
1630501868671,-0.3283884823322296,-0.2912600040435791,-0.2921197712421417,0.3835707902908325
1630501868767,-0.3283884823322296,-0.2843846082687378,-0.3244304060935974,0.3835707902908325
1630501868878,-0.3283884823322296,-0.2797520160675049,-0.3498621881008148,0.3835707902908325
1630501868936,-0.3283884823322296,-0.2789045870304107,-0.3708483278751373,0.3835707902908325
1630501869034,-0.3283884823322296,-0.2850141823291778,-0.3891325891017914,0.3835707902908325
1630501869175,-0.3283884823322296,-0.3007231652736664,-0.4053237736225128,0.3835707902908325
1630501869268,-0.3283884823322296,-0.3248295783996582,-0.4192453920841217,0.2634855210781097
1630501869378,-0.1801454722881317,-0.3497799038887024,-0.4294221401214599,0.2358241230249405
1630501869472,-0.2036715149879455,-0.3698620200157165,-0.4346553087234497,0.2114991247653961
1630501869581,-0.2036715149879455,-0.3854681551456451,-0.436168909072876,0.2114991247653961
1630501869675,-0.2036715149879455,-0.401330292224884,-0.436899721622467,0.2114991247653961
1630501869815,-0.2036715149879455,-0.4184131026268005,-0.4639933407306671,0.2114991247653961
1630501869909,-0.2036715149879455,-0.4320952594280243,-0.4954666793346405,0.2114991247653961
1630501870021,-0.2036715149879455,-0.4376552402973175,-0.522514283657074,0.2114991247653961
1630501870068,-0.2036715149879455,-0.4350657165050506,-0.5379853844642639,0.2114991247653961
1630501870178,-0.2036715149879455,-0.4309386014938354,-0.5376685857772827,0.2114991247653961
1630501870240,-0.2036715149879455,-0.4344834685325622,-0.5227606892585754,0.2114991247653961
1630501870412,-0.2036715149879455,-0.4510200619697571,-0.5007057189941406,0.2114991247653961
1630501870490,-0.2036715149879455,-0.4790133535861969,-0.4825858771800995,0.1949880421161651
1630501870599,-0.2323235720396042,-0.5062465071678162,-0.4750383198261261,0.1643148064613342
1630501870693,-0.2323235720396042,-0.5204296708106995,-0.4761403501033783,0.1643148064613342
1630501870787,-0.2323235720396042,-0.5183852314949036,-0.4791939556598663,0.1643148064613342
1630501870865,-0.2323235720396042,-0.5086124539375305,-0.4810231924057007,0.1643148064613342
1630501871009,-0.2323235720396042,-0.4981657564640045,-0.4834925830364227,0.1643148064613342
1630501871118,-0.2323235720396042,-0.4899086952209472,-0.4881516695022583,0.1643148064613342
1630501871212,-0.2628467679023742,-0.4832420945167541,-0.4944107234477997,-0.0110224401578307
1630501871290,-0.2447279691696167,-0.4776456356048584,-0.5000003576278687,0.0181594081223011
1630501871415,-0.2163625061511993,-0.4732714295387268,-0.5040486454963684,0.063591830432415
1630501871493,-0.1793587356805801,-0.4717719554901123,-0.5070856213569641,0.1064037233591079
1630501871618,-0.1427919715642929,-0.4754833579063415,-0.5109822154045105,0.1318635791540146
1630501871743,-0.1141397356986999,-0.4828039407730102,-0.5210012793540955,0.1382835060358047
1630501871821,-0.0959276258945465,-0.4893675446510315,-0.5417098999023438,0.1316018551588058
1630501871900,-0.0839533060789108,-0.4919685125350952,-0.569628119468689,0.1201573088765144
1630501872011,-0.0757205560803413,-0.4923192262649536,-0.5912753343582153,0.1073006317019462
1630501872074,-0.0729213580489158,-0.4963389039039612,-0.5962334275245667,0.0919381156563758
1630501872245,-0.0756132304668426,-0.5048847198486328,-0.5894227623939514,0.0758746191859245
1630501872339,-0.0809783190488815,-0.5141085386276245,-0.5830640196800232,0.0632462799549102
1630501872417,-0.0721251294016838,-0.5198878049850464,-0.5824522376060486,0.0603188313543796
1630501872511,-0.0637116208672523,-0.5227283835411072,-0.5815311670303345,0.0706071630120277
1630501872620,-0.0552729293704032,-0.527104377746582,-0.5719099044799805,0.0933458656072616
1630501872714,-0.046976838260889,-0.5350118279457092,-0.5481932759284973,0.1211028844118118
1630501872855,-0.0403507091104984,-0.5446829199790955,-0.5132879614830017,0.1453751772642135
1630501872949,-0.0373158268630504,-0.5478008389472961,-0.4752717614173889,0.1599897146224975
1630501873042,-0.0368611104786396,-0.5516163110733032,-0.4421716928482055,0.1675716638565063
1630501873104,-0.0381754450500011,-0.5573386549949646,-0.417522519826889,0.1745652109384536
1630501873214,-0.0465800203382968,-0.567078173160553,-0.4011919200420379,0.183855652809143
1630501873308,-0.0540775395929813,-0.5831332802772522,-0.3915303647518158,0.1946620494127273
1630501873433,-0.0609130971133708,-0.6045327186584473,-0.3866786062717438,0.2035099864006042
1630501873542,-0.0675215125083923,-0.6265060305595398,-0.383256733417511,0.2105542570352554
1630501873651,-0.0703006163239479,-0.6371470093727112,-0.3784320056438446,0.2184753715991974
1630501873745,-0.0658835470676422,-0.6311301589012146,-0.3717336356639862,0.2265974283218383
1630501873854,-0.0550411604344844,-0.5508632063865662,-0.3660111725330353,0.2325198054313659
1630501873917,-0.0421652123332023,-0.4556616842746734,-0.3635383248329162,0.2331789582967758
1630501874077,-0.0322274044156074,-0.3443454205989837,-0.3633584678173065,0.2271174043416977
1630501874140,-0.0310401860624551,-0.2327373921871185,-0.3621127009391784,0.216186910867691
1630501874233,-0.0197527315467596,-0.136812537908554,-0.3597225248813629,0.2053906768560409
1630501874343,-0.0076468326151371,-0.0642028898000717,-0.3577749729156494,0.1979059725999832
1630501874437,-0.0109305260702967,-0.0627956390380859,-0.3567932546138763,0.1919442862272262
1630501874546,-0.0428649708628654,-0.0699134990572929,-0.3549264669418335,0.1836025863885879
1630501874671,-0.1040891781449318,-0.080584742128849,-0.3506953716278076,0.1724662631750106
1630501874749,-0.1416623443365097,-0.0919866561889648,-0.3436827659606933,0.1620220690965652
1630501874874,-0.1695098429918289,-0.1022351458668708,-0.3320237696170807,0.155262291431427
1630501874952,-0.187989130616188,-0.1113426610827446,-0.3127214312553406,0.1523533165454864
1630501875046,-0.1923910677433014,-0.116895392537117,-0.2866897881031036,0.1542647331953048
1630501875139,-0.1802826225757599,-0.1179054826498031,-0.2594169378280639,0.1619161665439605
1630501875280,-0.1577260643243789,-0.1157676801085472,-0.2369315177202224,0.1731368154287338
1630501875374,-0.1377895474433899,-0.1027733087539672,-0.2214429229497909,0.1832092553377151
1630501875483,-0.1294127404689788,-0.0985037758946418,-0.2115661650896072,0.1904145628213882
1630501875577,-0.1331773400306701,-0.1072120442986488,-0.2055870443582534,0.1941039860248565
1630501875639,-0.1493846327066421,-0.1282069683074951,-0.2033222317695617,0.1919590085744857
1630501875733,-0.1762128323316574,-0.1575896143913269,-0.2049754709005355,0.1799969971179962
1630501875905,-0.2056055665016174,-0.1892981380224228,-0.2101888358592987,0.1583491712808609
1630501875967,-0.2272998541593551,-0.2185852080583572,-0.2167534679174423,0.1356610506772995
1630501876092,-0.2333847880363464,-0.2421959340572357,-0.219385027885437,0.1234997287392616
1630501876155,-0.2242994457483291,-0.2595697045326233,-0.2114847004413604,0.1300898045301437
1630501876264,-0.2085756808519363,-0.2713102996349334,-0.1926261931657791,0.1564055979251861
1630501876358,-0.1884509325027465,-0.2798459231853485,-0.1717391908168792,0.193445473909378
1630501876499,-0.1668406873941421,-0.2866035997867584,-0.1607323288917541,0.2285882234573364
1630501876592,-0.1520734876394271,-0.2948926985263824,-0.1644770950078964,0.2500201761722564
1630501876686,-0.1533853113651275,-0.3067035973072052,-0.1775975972414016,0.2538804709911346
1630501876780,-0.1738220006227493,-0.3227090537548065,-0.1903723180294037,0.2456633150577545
1630501876858,-0.2042966187000274,-0.3422404825687408,-0.1969891637563705,0.2345347553491592
1630501876998,-0.2294206917285919,-0.362917810678482,-0.1991247981786728,0.2289569824934005
1630501877126,-0.2386098653078079,-0.3798266649246216,-0.2024984061717987,0.2309630662202835
1630501877204,-0.2334650158882141,-0.3876261711120605,-0.2104613035917282,0.2384677678346634
1630501877330,-0.2217461317777633,-0.3835460543632507,-0.2219047397375106,0.2463236898183822
1630501877423,-0.2101299613714218,-0.3704889416694641,-0.2338754534721374,0.2508107125759125
1630501877486,-0.2009160816669464,-0.3538839817047119,-0.2453559041023254,0.2503561079502105
1630501877579,-0.196766510605812,-0.3390214741230011,-0.2603074312210083,0.2457007616758346
1630501877752,-0.1973517537117004,-0.3295993506908417,-0.285017728805542,0.236640378832817
1630501877814,-0.204066663980484,-0.3274702429771423,-0.3204371333122253,0.2176220566034317
1630501877892,-0.2212455421686172,-0.3305590152740478,-0.3571626842021942,0.1843583285808563
1630501878001,-0.2487863898277282,-0.333435982465744,-0.379006564617157,0.1415040045976638
1630501878095,-0.2806791663169861,-0.3327367305755615,-0.3776957988739013,0.1026174128055572
1630501878189,-0.3060111403465271,-0.3297216594219208,-0.3603281378746032,0.0804286077618599
1630501878329,-0.3125883042812347,-0.3288395404815674,-0.3373436629772186,0.0820255354046821
1630501878423,-0.3093139231204986,-0.3309087455272674,-0.3139856457710266,0.0909409150481224
1630501878532,-0.3026783168315887,-0.3314414620399475,-0.2919675409793854,0.0975726395845413
1630501878626,-0.2997501790523529,-0.3265705108642578,-0.273971825838089,0.0957680195569992
1630501878704,-0.3049608469009399,-0.3166515231132507,-0.2631893157958984,0.0848393738269805
1630501878798,-0.3175831735134125,-0.3057600557804107,-0.2600642144680023,0.0738246813416481
1630501878923,-0.3336437344551086,-0.2971735894680023,-0.2622239291667938,0.0725664049386978
1630501879036,-0.3514399826526642,-0.2928141951560974,-0.2656537890434265,0.0820014551281929
1630501879129,-0.3692556321620941,-0.2924498617649078,-0.2662121653556824,0.0893353074789047
1630501879239,-0.3933624029159546,-0.2942392826080322,-0.2615762948989868,0.0746335387229919
1630501879317,-0.4239568710327148,-0.2960313558578491,-0.2530582845211029,0.0304537881165742
1630501879395,-0.4239568710327148,-0.298694759607315,-0.2456940561532974,0.0304537881165742
1630501879551,-0.4239568710327148,-0.3066641688346863,-0.2452881634235382,0.0304537881165742
1630501879629,-0.4239568710327148,-0.3234449028968811,-0.2557558417320251,0.0304537881165742
1630501879723,-0.4239568710327148,-0.3482464551925659,-0.2758196294307709,0.0304537881165742
1630501879832,-0.0507131665945053,-0.3743627071380615,-0.3004088699817657,0.1186383068561554
1630501879926,-0.0503652952611446,-0.3936927616596222,-0.3238141536712646,0.0902005583047866
1630501880021,-0.0383640564978122,-0.4032603800296783,-0.3428994417190552,0.0782321020960807
1630501880163,-0.0177702661603689,-0.407221108675003,-0.3554262816905975,0.0879885703325271
1630501880256,0.0081997932866215,-0.4116405248641968,-0.3588576018810272,0.0879885703325271
1630501880350,0.0324667021632194,-0.4200274348258972,-0.3507063388824463,0.0879885703325271
1630501880444,0.0471544936299324,-0.4326420128345489,-0.3268976807594299,0.0879885703325271
1630501880537,0.0484960079193115,-0.4469746947288513,-0.2841639816761017,0.0879885703325271
1630501880631,0.0396925471723079,-0.4585243463516235,-0.2283893972635269,0.0879885703325271
1630501880772,0.0299128256738185,-0.461531400680542,-0.1739775240421295,0.0879885703325271
1630501880881,0.0261252075433731,-0.4542056918144226,-0.1312033534049987,0.0879885703325271
1630501880928,0.0281438566744327,-0.4398452043533325,-0.0984733179211616,0.0879885703325271
1630501881056,0.0345908924937248,-0.424371600151062,-0.0683678165078163,0.0626823604106903
1630501881134,0.0404034815728664,-0.4101655185222626,-0.0372625701129436,0.0365186296403408
1630501881243,0.0435498319566249,-0.3956785500049591,-0.0100423544645309,0.0267513655126094
1630501881368,0.0452470742166042,-0.3795168399810791,0.0075830868445336,0.0267513655126094
1630501881477,0.0459064990282058,-0.3653930127620697,0.0154094686731696,0.0267513655126094
1630501881571,0.0442803725600242,-0.3591513931751251,0.0182209257036447,0.0267513655126094
1630501881665,0.0427190512418746,-0.3595319390296936,0.0208032801747322,0.0267513655126094
1630501881743,0.0435195043683052,-0.3584944307804107,0.0238398816436529,0.0267513655126094
1630501881829,0.0471030175685882,-0.3498749136924743,0.0244641378521919,0.0267513655126094
1630501881986,0.0523349493741989,-0.3370853364467621,0.0185131523758173,0.0267513655126094
1630501882079,0.0575040578842163,-0.3266463577747345,0.0013582335086539,0.0267513655126094
1630501882173,0.0614580512046813,-0.3193584382534027,-0.0293182134628295,0.0267513655126094
1630501882290,0.0623332634568214,-0.3120947778224945,-0.0707457140088081,0.0267513655126094
1630501882376,0.0574935935437679,-0.3033408224582672,-0.1165591105818748,0.0267513655126094
1630501882439,0.0460663996636867,-0.2941292226314544,-0.1632737517356872,0.0267513655126094
1630501882579,0.0314760729670524,-0.2810702323913574,-0.212155669927597,0.7826834917068481
1630501882679,0.0188048798590898,-0.2602783143520355,-0.2602317929267883,0.8367878794670105
1630501882770,0.012080892920494,-0.2338429987430572,-0.2939046025276184,0.8794460296630859
1630501882874,0.0106139061972498,-0.2100012004375457,-0.3022550046443939,0.908933401107788
1630501882967,0.0090917665511369,-0.1950937062501907,-0.2904331386089325,0.908933401107788
1630501883080,0.0034466122742742,-0.1887661963701248,-0.2718188762664795,0.908933401107788
1630501883205,-0.0113543588668107,-0.1885188072919845,-0.2533694207668304,0.908933401107788
1630501883299,-0.0368420369923114,-0.1933477818965912,-0.2341121435165405,0.8950581550598145
1630501883377,-0.066672034561634,-0.2012854516506195,-0.2142290771007537,0.8761597275733948
1630501883471,-0.0910132378339767,-0.2061597853899002,-0.197667121887207,0.853915274143219
1630501883576,-0.1007153093814849,-0.2022415995597839,-0.1874305754899978,0.8306708931922913
1630501883685,-0.0986115410923957,-0.1912872195243835,-0.1832375675439834,0.8075498938560486
1630501883821,-0.0931268036365509,-0.181039810180664,-0.1821548789739608,0.7931408882141113
1630501883899,-0.0847803205251693,-0.177210733294487,-0.1808361262083053,0.781842827796936
1630501884008,-0.0711145922541618,-0.1797681599855423,-0.1788755506277084,0.765192985534668
1630501884086,-0.0564353242516517,-0.1879563331604004,-0.1772297173738479,0.7358918190002441
1630501884183,-0.0489816144108772,-0.2024573236703872,-0.1790570020675659,0.6884075999259949
1630501884292,-0.0533650815486907,-0.2224946916103363,-0.1881731003522873,0.6197458505630493
1630501884417,-0.0642783567309379,-0.2410784512758255,-0.2055060565471649,0.5334622859954834
1630501884527,-0.0715550929307937,-0.2486022263765335,-0.2284594923257827,0.528910756111145
1630501884636,-0.0715924873948097,-0.2424444854259491,-0.2523123025894165,0.5357743501663208
1630501884683,-0.0639297142624855,-0.228742241859436,-0.2743141055107116,0.548541247844696
1630501884792,-0.0505896024405956,-0.2127252072095871,-0.2944410741329193,0.5400872230529785
1630501884901,-0.0360059663653373,-0.1955332905054092,-0.311502605676651,0.5399646162986755
1630501885058,-0.0232984516769647,-0.1790910363197326,-0.3210033178329468,0.5487343072891235
1630501885120,-0.0166474990546703,-0.1692882627248764,-0.3194745182991028,0.5625473260879517
1630501885233,-0.0133921494707465,-0.1709120869636535,-0.307692289352417,0.5763105154037476
1630501885326,-0.0109061552211642,-0.1828169375658035,-0.2902235388755798,0.582921028137207
1630501885389,-0.0122832162305712,-0.1983234882354736,-0.2723058462142944,0.5796217322349548
1630501885529,-0.0199764631688594,-0.2115400433540344,-0.2566205561161041,0.5679547786712646
1630501885670,-0.0321975387632846,-0.2209936082363128,-0.2448281347751617,0.5516621470451355
1630501885732,-0.0433961078524589,-0.2273714691400528,-0.2377881556749344,0.537011444568634
1630501885826,-0.0484845265746116,-0.2303483337163925,-0.234435349702835,0.5289368033409119
1630501885938,-0.047820508480072,-0.2307607978582382,-0.2317805737257003,0.5262525677680969
1630501886032,-0.0436745844781398,-0.2326449304819107,-0.2278992682695388,0.5216220021247864
1630501886125,-0.0379230491816997,-0.2413679212331771,-0.2246332913637161,0.5076646208763123
1630501886297,-0.0360719263553619,-0.2593905329704284,-0.2241631746292114,0.4836619794368744
1630501886328,-0.0423484295606613,-0.287025898694992,-0.2272719442844391,0.453521579504013
1630501886443,-0.0566600784659385,-0.3234054148197174,-0.2327715307474136,0.4196703433990478
1630501886537,-0.0762808546423912,-0.3647668659687042,-0.2395997047424316,0.3804954886436462
1630501886615,-0.0956552401185035,-0.4005899727344513,-0.2480532079935073,0.3355841934680938
1630501886724,-0.114858791232109,-0.4194448590278625,-0.2584930062294006,0.2928774654865265
1630501886880,-0.135112389922142,-0.4199861586093902,-0.2704043686389923,0.2631587982177734
1630501886943,-0.1566630452871322,-0.4088663458824157,-0.2820628881454468,0.250420331954956
1630501887083,-0.1776970773935318,-0.3888612985610962,-0.290516197681427,0.2477923780679702
1630501887146,-0.1905045211315155,-0.360217422246933,-0.2939390242099762,0.2471698075532913
1630501887242,-0.1870037913322448,-0.3291960656642914,-0.2939449846744537,0.2477584183216095
1630501887335,-0.1776807755231857,-0.3058569133281708,-0.2943587303161621,0.2506233155727386
1630501887476,-0.1722653061151504,-0.2937345504760742,-0.2956915199756622,0.2468480616807937
1630501887570,-0.1780199110507965,-0.2838099896907806,-0.291009247303009,0.2332547903060913
1630501887679,-0.1960018426179886,-0.2642457187175751,-0.2722820341587066,0.2132830023765564
1630501887742,-0.2175890356302261,-0.2349270284175872,-0.2425586730241775,0.1931455433368683
1630501887844,-0.2363543361425399,-0.207238495349884,-0.2139284312725067,0.1798562109470367
1630501887942,-0.2558067440986633,-0.1904207617044448,-0.1957125514745712,0.1755262017250061
1630501888051,-0.2815116047859192,-0.1854071766138076,-0.1884979158639907,0.1785379350185394
1630501888145,-0.3151491582393646,-0.1875333935022354,-0.1867610812187194,0.191967099905014
1630501888254,-0.3462643325328827,-0.1921838223934173,-0.1857426017522812,0.207095593214035
1630501888363,-0.364376038312912,-0.1959889084100723,-0.1835571229457855,0.2166719585657119
1630501888457,-0.364376038312912,-0.199433147907257,-0.180919662117958,0.2166719585657119
1630501888566,-0.364376038312912,-0.2079856395721435,-0.1798213720321655,0.2166719585657119
1630501888691,-0.364376038312912,-0.2274462878704071,-0.1811766028404235,0.2166719585657119
1630501888801,-0.364376038312912,-0.2575796544551849,-0.1832120716571808,0.2166719585657119
1630501888863,0.3246690928936004,-0.2906506359577179,-0.1819842606782913,0.0463490486145019
1630501888959,0.2962183356285095,-0.3193078637123108,-0.1768155992031097,0.0463490486145019
1630501889069,0.2727998793125152,-0.3468015789985657,-0.1735802888870239,0.0463490486145019
1630501889162,0.2648335695266723,-0.3822238147258758,-0.1789976358413696,0.0463490486145019
1630501889287,0.2706306874752044,-0.4265245795249939,-0.1930207759141922,0.0463490486145019
1630501889397,0.2798735797405243,-0.4657804667949676,-0.2068291306495666,0.0463490486145019
1630501889490,0.2798735797405243,-0.4850744605064392,-0.2108227014541626,0.0463490486145019
1630501889600,0.2798735797405243,-0.4851177334785461,-0.2051533758640289,0.0463490486145019
1630501889662,0.2798735797405243,-0.4774269759654999,-0.1954286992549896,0.0463490486145019
1630501889756,0.2798735797405243,-0.4685993790626526,-0.1847375482320785,0.0463490486145019
1630501889944,0.2798735797405243,-0.4601946473121643,-0.1740182191133499,0.0463490486145019
1630501889990,0.2798735797405243,-0.450966477394104,-0.1651510894298553,0.0463490486145019
1630501890100,0.2757124602794647,-0.4391906857490539,-0.161636084318161,0.0463490486145019
1630501890193,0.2606228590011596,-0.4236974120140075,-0.1659648418426513,0.0463490486145019
1630501890271,0.2443536072969436,-0.4043547511100769,-0.1782875955104828,0.0463490486145019
1630501890381,0.2403813898563385,-0.3844714164733886,-0.1984056830406189,0.0463490486145019
1630501890508,0.2585377097129822,-0.367270290851593,-0.2252743542194366,0.0463490486145019
1630501890603,0.2585377097129822,-0.3541163206100464,-0.2556327283382416,0.0463490486145019
1630501890713,0.2585377097129822,-0.3435601592063904,-0.2856517732143402,-0.027930200099945
1630501890806,0.2585377097129822,-0.3339567184448242,-0.3133431375026703,-0.0201218742877244
1630501890900,0.2585377097129822,-0.3245469033718109,-0.3399783074855804,-0.0215533506125211
1630501890980,0.2585377097129822,-0.3138113617897033,-0.367855429649353,-0.0279643516987562
1630501891105,-0.1880728900432586,-0.2993787825107574,-0.3965458571910858,-0.0379600711166858
1630501891214,-0.1593983024358749,-0.282079130411148,-0.4259454309940338,-0.0497896447777748
1630501891324,-0.1526754200458526,-0.2680034339427948,-0.458558440208435,-0.0645627900958061
1630501891418,-0.156479924917221,-0.2656495571136474,-0.4905301630496979,-0.082435168325901
1630501891511,-0.1656813025474548,-0.2668433487415313,-0.5294482111930847,-0.1015753969550132
1630501891574,-0.1763794720172882,-0.2694375813007355,-0.5660776495933533,-0.1015753969550132
1630501891746,-0.1763794720172882,-0.269881933927536,-0.5875291228294373,-0.1015753969550132
1630501891839,-0.1763794720172882,-0.2667616307735443,-0.5881460905075073,-0.1015753969550132
1630501891903,-0.1763794720172882,-0.2609453201293945,-0.5709682106971741,-0.1011197865009307
1630501892015,-0.1763794720172882,-0.2542195618152618,-0.5440938472747803,-0.1056383848190307
1630501892124,-0.1763794720172882,-0.246088907122612,-0.5166997313499451,-0.1195252239704132
1630501892187,-0.1763794720172882,-0.2345567643642425,-0.4965874254703522,-0.1436810046434402
1630501892359,-0.157464325428009,-0.2169109582901001,-0.4889368712902069,-0.1708064079284668
1630501892468,-0.1462817937135696,-0.1931909769773483,-0.495970070362091,-0.1997496634721756
1630501892515,-0.1483335196971893,-0.1931909769773483,-0.495970070362091,-0.2315170466899871
1630501892624,-0.1672462671995163,-0.1931909769773483,-0.495970070362091,-0.266203761100769
1630501892718,-0.198584496974945,-0.1931909769773483,-0.495970070362091,-0.266203761100769
1630501892827,-0.198584496974945,-0.1931909769773483,-0.495970070362091,-0.266203761100769
1630501892952,-0.198584496974945,-0.1931909769773483,-0.495970070362091,-0.266203761100769
1630501893061,-0.198584496974945,-0.1931909769773483,-0.495970070362091,-0.266203761100769
1630501893124,-0.198584496974945,-0.1931909769773483,-0.495970070362091,-0.266203761100769
1630501893218,-0.198584496974945,-0.1931909769773483,-0.495970070362091,-0.266203761100769
1630501893327,-0.198584496974945,-0.089337833225727,-0.495970070362091,-0.266203761100769
1630501893405,-0.198584496974945,-0.113183856010437,-0.495970070362091,-0.266203761100769
1630501893577,0.101051814854145,-0.1233148351311683,-0.495970070362091,-0.266203761100769
1630501893671,0.1229671239852905,-0.126913383603096,-0.495970070362091,-0.266203761100769
1630501893796,0.1422837972640991,-0.1314515173435211,-0.0711811035871505,-0.266203761100769
1630501893827,0.1531567871570587,-0.1408144682645797,-0.0738663375377655,-0.266203761100769
1630501893968,0.1513899117708206,-0.1546641141176223,-0.0659477859735488,-0.266203761100769
1630501894061,0.1394899636507034,-0.1706219762563705,-0.0497658513486385,-0.266203761100769
1630501894233,0.1249023079872131,-0.1828721761703491,-0.0227610990405082,-0.266203761100769
1630501894264,0.1128560379147529,-0.1846290230751037,0.0113071035593748,-0.266203761100769
1630501894358,0.1033582240343093,-0.1736615598201751,0.0413221940398216,-0.266203761100769
1630501894452,0.093353122472763,-0.1569128632545471,0.0589140877127647,0.0491064749658107
1630501894561,0.0810731500387191,-0.1570028066635131,0.0629027262330055,0.0222639478743076
1630501894670,0.0661708116531372,-0.1643765568733215,0.0568269453942775,0.0058116833679378
1630501894795,0.0543332546949386,-0.1774713546037674,0.0449815168976783,-0.0039399680681526
1630501894905,0.034095749258995,-0.1937132477760315,0.0302163977175951,-0.040240753442049
1630501894968,0.0100884409621357,-0.2119194418191909,0.0114211114123463,-0.0448051318526268
1630501895093,-0.0149413598701357,-0.232042521238327,-0.0034794344101101,-0.048972237855196
1630501895155,-0.0404937826097011,-0.2529447972774505,-0.0134121840819716,-0.0461840443313121
1630501895248,-0.0678483992815017,-0.2723576128482818,-0.0209353696554899,-0.0461840443313121
1630501895389,-0.099372811615467,-0.2874305248260498,-0.0287640988826751,-0.0461840443313121
1630501895483,-0.1266520917415619,-0.2964529693126678,-0.0391546115279197,-0.0461840443313121
1630501895576,-0.1441940367221832,-0.2986805438995361,-0.0555470958352088,-0.0461840443313121
1630501895670,-0.1568374931812286,-0.295427143573761,-0.072420910000801,-0.0461840443313121
1630501895764,-0.1734325289726257,-0.3031062185764313,-0.1051805987954139,-0.0638915076851844
1630501895858,-0.1975074261426925,-0.3324492275714874,-0.1526843756437301,-0.0713352411985397
1630501895998,-0.22354456782341,-0.3866908252239227,-0.2061419337987899,-0.0727017000317573
1630501896076,-0.2431430667638778,-0.4547643065452575,-0.2540686726570129,-0.0674535259604454
1630501896170,-0.2468265146017074,-0.5110117197036743,-0.289236456155777,-0.0635831877589225
1630501896279,-0.2262845486402511,-0.5324564576148987,-0.3105324506759643,-0.062596894800663
1630501896373,-0.2262845486402511,-0.5211637020111084,-0.3187049925327301,-0.062596894800663
1630501896482,-0.2262845486402511,-0.498044490814209,-0.3121710121631622,-0.062596894800663
1630501896607,-0.2262845486402511,-0.479154109954834,-0.2897663414478302,-0.062596894800663
1630501896717,-0.2262845486402511,-0.4676750600337982,-0.2588038146495819,-0.062596894800663
1630501896811,-0.2262845486402511,-0.4676750600337982,-0.2588038146495819,-0.062596894800663
1630501896873,-0.2262845486402511,-0.4676750600337982,-0.2588038146495819,-0.062596894800663
1630501896998,-0.2262845486402511,-0.4676750600337982,-0.2588038146495819,-0.062596894800663
1630501897079,-0.2262845486402511,-0.4676750600337982,-0.2588038146495819,-0.062596894800663
1630501897220,-0.2262845486402511,-0.4676750600337982,-0.2588038146495819,-0.062596894800663
1630501897313,-0.2262845486402511,-0.4676750600337982,-0.2588038146495819,-0.062596894800663
1630501897407,-0.2262845486402511,-0.4676750600337982,-0.2588038146495819,-0.062596894800663
1630501897516,-0.2262845486402511,-0.4676750600337982,-0.2588038146495819,-0.062596894800663
1630501897579,-0.2262845486402511,-0.4676750600337982,-0.2588038146495819,-0.062596894800663
1630501897673,-0.2262845486402511,-0.4676750600337982,-0.2588038146495819,-0.062596894800663
1630501897844,-0.2262845486402511,-0.4676750600337982,-0.2588038146495819,-0.062596894800663
1630501897907,-0.2262845486402511,-0.4676750600337982,-0.2588038146495819,-0.062596894800663
1630501898017,-0.2262845486402511,-0.4676750600337982,-0.2588038146495819,-0.062596894800663
1630501898114,-0.2262845486402511,-0.4676750600337982,-0.2588038146495819,-0.062596894800663
1630501898223,-0.2262845486402511,-0.4676750600337982,-0.2588038146495819,-0.062596894800663
1630501898301,-0.2262845486402511,-0.4676750600337982,-0.2588038146495819,-0.062596894800663
1630501898443,-0.2262845486402511,-0.4618507325649261,-0.2588038146495819,-0.062596894800663
1630501898551,-0.2262845486402511,-0.4235433042049408,-0.2588038146495819,0.1820279955863952
1630501898645,-0.2262845486402511,-0.3821782171726227,-0.2588038146495819,0.2326196730136871
1630501898721,-0.2262845486402511,-0.3431989252567291,-0.2588038146495819,0.2705838978290558
1630501898800,-0.2262845486402511,-0.3159554600715637,-0.1544478237628936,0.2941872775554657
1630501898910,-0.2262845486402511,-0.3043383657932281,-0.158932477235794,0.3030626475811004
1630501899038,-0.2262845486402511,-0.3017198145389557,-0.1785627454519271,0.3014702796936035
1630501899176,-0.2262845486402511,-0.2991418242454529,-0.2039245963096618,0.2986421883106231
1630501899244,-0.2262845486402511,-0.2933286428451538,-0.2286672741174698,0.2986421883106231
1630501899338,-0.2262845486402511,-0.2882335186004638,-0.2498398572206497,0.2986421883106231
1630501899431,-0.2262845486402511,-0.2886245548725128,-0.2661583423614502,0.2986421883106231
1630501899541,-0.2262845486402511,-0.2940859198570251,-0.275601178407669,0.2986421883106231
1630501899666,-0.2262845486402511,-0.2883757650852203,-0.278876781463623,0.2986421883106231
1630501899744,-0.2262845486402511,-0.283064603805542,-0.2804455757141113,0.3231255412101745
1630501899838,-0.2262845486402511,-0.2776102125644684,-0.2840102314949035,0.3435530066490173
1630501899947,-0.2262845486402511,-0.2718417346477508,-0.2895373702049255,0.3571525812149048
1630501900045,-0.2262845486402511,-0.2699524760246277,-0.2974728047847748,0.3619718849658966
1630501900139,-0.2262845486402511,-0.2744303047657013,-0.3123108744621277,0.3559396266937256
1630501900249,-0.2262845486402511,-0.2861627340316772,-0.3367682695388794,0.3375982940196991
1630501900389,-0.2262845486402511,-0.3007858693599701,-0.3590542078018188,0.3375982940196991
1630501900452,-0.2262845486402511,-0.3106094300746918,-0.3767661154270172,0.3375982940196991
1630501900545,-0.2262845486402511,-0.3147494792938232,-0.3845608830451965,0.3375982940196991
1630501900639,-0.2262845486402511,-0.3208689391613006,-0.3931630849838257,0.3375982940196991
1630501900748,-0.2262845486402511,-0.3371900618076324,-0.4002337157726288,0.3375982940196991
1630501900873,-0.2262845486402511,-0.3618490397930145,-0.4082874655723572,0.3375982940196991
1630501900983,-0.2262845486402511,-0.3806867301464081,-0.4169295132160187,0.3375982940196991
1630501901040,-0.2262845486402511,-0.3806867301464081,-0.4262267053127289,0.3375982940196991
1630501901150,-0.2262845486402511,-0.3806867301464081,-0.4306818544864654,0.3375982940196991
1630501901283,-0.2262845486402511,-0.3806867301464081,-0.4159897863864898,0.3375982940196991
1630501901340,-0.2262845486402511,-0.3806867301464081,-0.3670670986175537,0.3375982940196991
1630501901480,-0.2262845486402511,-0.3806867301464081,-0.2884522676467895,0.3375982940196991
1630501901575,-0.2262845486402511,-0.3806867301464081,-0.2035702913999557,0.3375982940196991
1630501901684,-0.2262845486402511,-0.3806867301464081,-0.1276441067457199,0.3375982940196991
1630501901746,-0.2262845486402511,-0.3806867301464081,-0.0625943541526794,0.3375982940196991
1630501901857,-0.2262845486402511,0.1036994159221649,-0.0282465927302837,0.3375982940196991
1630501901951,-0.2262845486402511,0.0981762036681175,-0.0011729702819138,0.3375982940196991
1630501902094,-0.2262845486402511,0.0921157822012901,0.0194886550307273,0.3375982940196991
1630501902187,-0.2262845486402511,0.0769599378108978,0.0529475547373294,0.3375982940196991
1630501902295,-0.2262845486402511,0.0520013161003589,0.0794910714030265,0.3375982940196991
1630501902359,-0.2262845486402511,0.022034116089344,0.1002219468355178,0.3375982940196991
1630501902436,-0.2262845486402511,-0.0062104095704853,0.1184498891234397,0.3375982940196991
1630501902530,-0.2262845486402511,-0.0276992246508598,0.137463703751564,0.3375982940196991
1630501902739,-0.2262845486402511,-0.0397281870245933,0.1561205685138702,0.3375982940196991
1630501902770,-0.2262845486402511,-0.0434298478066921,0.1685333549976349,0.3375982940196991
1630501902892,-0.2262845486402511,-0.0430214144289493,0.1685729175806045,0.3375982940196991
1630501902986,-0.2262845486402511,-0.0423408336937427,0.1551201045513153,0.3375982940196991
1630501903083,-0.2262845486402511,-0.0552176535129547,0.135032057762146,0.3375982940196991
1630501903161,-0.2262845486402511,-0.067381665110588,0.116659976541996,0.3375982940196991
1630501903292,-0.2262845486402511,-0.0687934085726738,0.1102729216217994,0.3375982940196991
1630501903386,-0.2262845486402511,-0.0577837452292442,0.1253910660743713,0.3375982940196991
1630501903497,-0.2262845486402511,-0.0435472130775451,0.1607310175895691,0.3375982940196991
1630501903606,-0.2262845486402511,-0.0520250387489795,0.2029090374708175,0.3375982940196991
1630501903699,-0.2262845486402511,-0.0540020614862442,0.2036184072494506,0.3375982940196991
1630501903798,-0.2262845486402511,-0.0449731312692165,0.2090260982513427,0.3375982940196991
1630501903924,-0.2262845486402511,-0.0256671458482742,0.219794750213623,0.3375982940196991
1630501904026,-0.2262845486402511,-0.0009080866584554,0.2335272580385208,0.3375982940196991
1630501904120,-0.2262845486402511,0.0242485664784908,0.233737513422966,0.3375982940196991
1630501904221,-0.2262845486402511,0.0456235632300376,0.2217289060354232,0.3375982940196991
1630501904284,-0.2262845486402511,0.0620043873786926,0.2051344960927963,0.3375982940196991
1630501904377,-0.2262845486402511,0.0766100287437439,0.1941478252410888,0.3375982940196991
1630501904534,-0.2262845486402511,0.0955532267689704,0.1927584111690521,0.3375982940196991
1630501904612,-0.2262845486402511,0.1238338723778724,0.1940706819295883,0.3375982940196991
1630501904706,-0.2262845486402511,0.1238338723778724,0.1893715411424636,0.3375982940196991
1630501904815,-0.2262845486402511,0.1238338723778724,0.1677217781543731,0.3375982940196991
1630501904924,-0.2262845486402511,0.1238338723778724,0.1163803339004516,0.3375982940196991
1630501905018,-0.2262845486402511,0.1238338723778724,0.0262171663343906,0.3375982940196991
1630501905143,-0.2262845486402511,0.1238338723778724,-0.1010535508394241,0.3375982940196991
1630501905252,-0.2262845486402511,-0.078900322318077,-0.0834919810295105,0.3375982940196991
1630501905346,-0.2262845486402511,-0.0671139284968376,-0.0585320033133029,0.3375982940196991
1630501905409,-0.2262845486402511,-0.0605684965848922,-0.0280889514833688,0.3375982940196991
1630501905502,-0.2262845486402511,-0.0553423203527927,0.0010817060247063,0.3375982940196991
1630501905658,-0.2262845486402511,-0.0542240180075168,0.0166637264192104,0.3375982940196991
1630501905737,-0.2262845486402511,-0.0602805651724338,0.0315832160413265,0.3375982940196991
1630501905850,-0.2262845486402511,-0.0724371001124382,0.0426139831542968,0.3375982940196991
1630501905956,-0.2262845486402511,-0.0859791487455368,0.0477907918393611,0.3375982940196991
1630501906050,-0.2262845486402511,-0.0960049629211425,0.0463530756533145,0.3375982940196991
1630501906112,-0.2262845486402511,-0.0967490822076797,0.0416527390480041,0.3375982940196991
1630501906222,-0.2262845486402511,-0.0829163640737533,0.0406363122165203,0.3375982940196991
1630501906362,-0.2262845486402511,-0.0550429858267307,0.0492925755679607,0.3375982940196991
1630501906458,-0.2262845486402511,-0.0129309808835387,0.0663521289825439,0.3375982940196991
1630501906567,-0.2262845486402511,0.0204855445772409,0.0844269469380378,0.3375982940196991
1630501906614,-0.2262845486402511,0.0377109572291374,0.0965314209461212,0.3375982940196991
1630501906770,-0.2262845486402511,0.0425887554883956,0.0983989015221595,0.3375982940196991
1630501906864,-0.2262845486402511,0.0469110757112503,0.0871110633015632,0.3375982940196991
1630501906977,-0.2262845486402511,0.052251324057579,0.0638219714164733,0.3375982940196991
1630501907039,-0.2262845486402511,0.0581257604062557,0.0370035097002983,0.3375982940196991
1630501907148,-0.2262845486402511,0.0664952993392944,0.0236243456602096,0.3375982940196991
1630501907242,-0.2262845486402511,0.0800100266933441,0.0346173755824565,0.3375982940196991
1630501907352,-0.2262845486402511,0.0941160172224044,0.0611716322600841,0.3375982940196991
1630501907445,-0.2262845486402511,0.1059501096606254,0.0868516638875007,0.3375982940196991
1630501907589,-0.2262845486402511,0.1111901924014091,0.102602832019329,0.3375982940196991
1630501907683,-0.2262845486402511,0.1064048111438751,0.107545368373394,0.3375982940196991
1630501907746,-0.2262845486402511,0.0891488566994667,0.1031459718942642,0.3375982940196991
1630501907875,-0.2262845486402511,0.0568048134446144,0.0894525349140167,0.3375982940196991
1630501907953,-0.2262845486402511,0.0231225360184907,0.066913329064846,0.3375982940196991
1630501908046,-0.2262845486402511,-0.0197939593344926,0.0572806112468242,0.3375982940196991
1630501908187,-0.2262845486402511,-0.0560953728854656,0.0469955913722515,0.3375982940196991
1630501908281,-0.2262845486402511,-0.0764198377728462,0.0420554801821708,0.3375982940196991
1630501908375,-0.2262845486402511,-0.0764198377728462,0.0465036034584045,0.3375982940196991
1630501908484,-0.2262845486402511,-0.0764198377728462,0.0583526454865932,0.3375982940196991
1630501908546,-0.2262845486402511,-0.0764198377728462,0.0695979297161102,0.3375982940196991
1630501908640,-0.2262845486402511,-0.0764198377728462,0.0655461177229881,0.3375982940196991
1630501908812,-0.2262845486402511,-0.1067272722721099,0.0314844846725463,0.3375982940196991
1630501908874,-0.2262845486402511,-0.1395468711853027,-0.0380651466548442,0.3375982940196991
1630501908984,-0.2262845486402511,-0.1726270765066146,-0.1341230273246765,0.3375982940196991
1630501909077,-0.2262845486402511,-0.1726270765066146,-0.23365418612957,0.3375982940196991
1630501909187,-0.2262845486402511,-0.1726270765066146,-0.23365418612957,0.3375982940196991
1630501909249,-0.2262845486402511,-0.1726270765066146,-0.23365418612957,0.3375982940196991
1630501909390,-0.2262845486402511,-0.1726270765066146,-0.23365418612957,0.3375982940196991
1630501909499,-0.2262845486402511,-0.1726270765066146,-0.23365418612957,0.3375982940196991
1630501909593,-0.2262845486402511,-0.1726270765066146,-0.23365418612957,0.3375982940196991
1630501909702,-0.2262845486402511,-0.1726270765066146,-0.23365418612957,0.3375982940196991
1630501909796,-0.2262845486402511,-0.0863007381558418,-0.23365418612957,0.3375982940196991
1630501909905,-0.2262845486402511,-0.130611166357994,-0.23365418612957,0.3375982940196991
1630501910041,-0.2262845486402511,-0.1665710806846618,-0.23365418612957,0.3375982940196991
1630501910119,-0.2262845486402511,-0.1932912766933441,-0.23365418612957,0.3375982940196991
1630501910197,-0.0163490902632474,-0.2047526985406875,-0.23365418612957,0.3375982940196991
1630501910338,-0.0764591768383979,-0.1990309208631515,-0.23365418612957,0.3375982940196991
1630501910400,-0.0764591768383979,-0.1833283305168151,-0.23365418612957,0.3375982940196991
1630501910463,-0.0764591768383979,-0.1686064600944519,-0.23365418612957,0.3375982940196991
1630501910619,-0.0764591768383979,-0.1618315130472183,-0.4823659360408783,0.3375982940196991
1630501910744,-0.0764591768383979,-0.1631323099136352,-0.4744959473609924,0.3375982940196991
1630501910806,-0.0764591768383979,-0.168016642332077,-0.4763306081295013,0.3375982940196991
1630501910900,-0.0764591768383979,-0.1719887107610702,-0.4839346408843994,0.3375982940196991
1630501911041,-0.0764591768383979,-0.1940898597240448,-0.4933837652206421,0.3375982940196991
1630501911087,-0.0764591768383979,-0.2041884660720825,-0.5059306025505066,0.3375982940196991
1630501911228,-0.2479025870561599,-0.2007981240749359,-0.5220003128051758,0.3375982940196991
1630501911322,-0.2479025870561599,-0.1929639130830764,-0.537351667881012,0.3375982940196991
1630501911431,-0.2479025870561599,-0.1882641464471817,-0.5473679304122925,0.3375982940196991
1630501911494,-0.2479025870561599,-0.1862841844558715,-0.5512455701828003,0.3375982940196991
1630501911634,-0.2479025870561599,-0.185309424996376,-0.5518796443939209,0.3375982940196991
1630501911697,-0.2479025870561599,-0.1873704493045807,-0.550524890422821,0.3375982940196991
1630501911837,-0.2479025870561599,-0.1951810866594314,-0.5540858507156372,0.3375982940196991
1630501911931,-0.2479025870561599,-0.2086412757635116,-0.5526383519172668,0.3375982940196991
1630501912040,-0.2479025870561599,-0.2253004610538482,-0.55706387758255,0.3375982940196991
1630501912134,-0.2479025870561599,-0.2427422702312469,-0.5712727904319763,0.3375982940196991
1630501912231,-0.2479025870561599,-0.2608256638050079,-0.5876845717430115,0.3375982940196991
1630501912308,-0.2479025870561599,-0.2812382280826568,-0.5963765382766724,0.3375982940196991
1630501912465,-0.2479025870561599,-0.3050794303417206,-0.5946212410926819,0.3375982940196991
1630501912527,-0.2479025870561599,-0.3328658044338226,-0.5860403180122375,0.3375982940196991
1630501912637,-0.2479025870561599,-0.3624838292598724,-0.5715374946594238,0.3375982940196991
1630501912761,-0.2479025870561599,-0.3875088393688202,-0.5500809550285339,0.3375982940196991
1630501912824,-0.2479025870561599,-0.4000192582607269,-0.5254185199737549,0.3375982940196991
1630501912933,-0.2479025870561599,-0.3976469933986664,-0.5027229189872742,0.3375982940196991
1630501913058,-0.2479025870561599,-0.4000931680202484,-0.4828643500804901,0.3375982940196991
1630501913153,-0.2479025870561599,-0.4018368124961853,-0.4619278907775879,0.3375982940196991
1630501913234,-0.2479025870561599,-0.4077642560005188,-0.4389419853687286,0.3375982940196991
1630501913328,-0.2479025870561599,-0.4214934706687927,-0.4343926906585693,0.3375982940196991
1630501913437,-0.2479025870561599,-0.4443508088588714,-0.4292407631874084,0.3375982940196991
1630501913531,-0.2479025870561599,-0.4714515209197998,-0.4198432564735412,0.3375982940196991
1630501913668,-0.2479025870561599,-0.4906821548938751,-0.4039923250675201,0.3375982940196991
1630501913744,-0.2479025870561599,-0.4886201918125152,-0.3841607868671417,0.3375982940196991
1630501913854,-0.2479025870561599,-0.4620124995708465,-0.3655360639095306,0.3375982940196991
1630501913947,-0.2479025870561599,-0.4193753600120544,-0.3504065275192261,0.3375982940196991
1630501914041,-0.2479025870561599,-0.3705883026123047,-0.3369243741035461,0.3375982940196991
1630501914150,-0.2479025870561599,-0.3705883026123047,-0.3230871260166168,0.3375982940196991
1630501914339,-0.2479025870561599,-0.3705883026123047,-0.3099702298641205,0.3375982940196991
1630501914367,-0.2479025870561599,-0.3705883026123047,-0.297499805688858,0.3375982940196991
1630501914464,-0.2479025870561599,-0.3705883026123047,-0.297499805688858,0.3375982940196991
1630501914540,-0.2479025870561599,-0.3705883026123047,-0.297499805688858,0.3375982940196991
1630501914634,-0.2479025870561599,-0.3705883026123047,-0.297499805688858,0.3375982940196991
1630501914745,-0.2479025870561599,-0.3705883026123047,-0.297499805688858,0.3375982940196991
1630501914870,-0.2479025870561599,-0.3705883026123047,-0.297499805688858,0.3375982940196991
1630501914973,-0.2479025870561599,-0.3138038218021393,-0.297499805688858,0.3375982940196991
1630501915099,-0.2479025870561599,-0.2884431183338165,-0.297499805688858,0.3375982940196991
1630501915174,-0.2479025870561599,-0.2786929607391357,-0.1399109959602356,0.3375982940196991
1630501915241,-0.2479025870561599,-0.2746536135673523,-0.1323537826538086,0.3375982940196991
1630501915366,-0.2479025870561599,-0.2692447304725647,-0.1356010437011718,0.3375982940196991
1630501915506,-0.2479025870561599,-0.2579925656318664,-0.1480137109756469,0.0802250951528549
1630501915569,-0.2479025870561599,-0.2404604256153106,-0.1642686575651168,0.1017304062843322
1630501915681,-0.2479025870561599,-0.2141508758068084,-0.1767248660326004,0.1076063811779022
1630501915792,-0.2479025870561599,-0.177875131368637,-0.1766290962696075,0.1026639565825462
1630501915886,-0.2479025870561599,-0.1351168602705001,-0.1549061834812164,0.0931655839085578
1630501915982,-0.2479025870561599,-0.0937340632081031,-0.1105374321341514,0.0823727846145629
1630501916123,-0.2479025870561599,-0.0618773959577083,-0.0575075224041938,0.0726313516497612
1630501916201,-0.2479025870561599,-0.0248561650514602,-0.0143766729161143,0.0713042765855789
1630501916279,-0.2479025870561599,-0.0033169358503073,0.0089326230809092,0.0827236697077751
1630501916388,-0.2479025870561599,0.0065579526126384,0.0226009078323841,0.1026521772146225
1630501916467,-0.2479025870561599,0.0102483062073588,0.0266410242766141,0.1237398833036422
1630501916572,-0.2479025870561599,0.0121148973703384,0.0254664402455091,0.1399982869625091
1630501916682,-0.2479025870561599,0.0139129944145679,0.02211245149374,0.1608361303806305
1630501916791,-0.2479025870561599,0.0151488166302442,0.0202264226973056,0.1712932735681533
1630501916900,-0.2479025870561599,0.0139852128922939,0.0227415692061185,0.1698886901140213
1630501917010,-0.2479025870561599,0.0076225418597459,0.0295941345393657,0.1605960428714752
1630501917088,-0.2479025870561599,-0.0050863935612142,0.037887766957283,0.1502507179975509
1630501917166,-0.2479025870561599,-0.0246671363711357,0.0435010194778442,0.1418900489807129
1630501917322,-0.2479025870561599,-0.0525289438664913,0.0426678210496902,0.1349629163742065
1630501917416,-0.2479025870561599,-0.0895550325512886,0.0316713154315948,0.1277273893356323
1630501917494,-0.0082578463479876,-0.1336323916912078,0.0079322829842567,0.121250532567501
1630501917603,0.0284998696297407,-0.1780919730663299,-0.0258578043431043,0.119071215391159
1630501917713,0.064311146736145,-0.2157688438892364,-0.0593150481581687,0.1211242526769638
1630501917791,0.0864573642611503,-0.2434965521097183,-0.0807649567723274,0.1227277442812919
1630501917931,0.0890627354383468,-0.2607841789722442,-0.0870257467031478,0.1198484003543853
1630501918027,0.0775185599923133,-0.2647238373756408,-0.0820998772978782,0.1115657389163971
1630501918121,0.0633774772286415,-0.251176118850708,-0.067240335047245,0.1042673885822296
1630501918241,0.0545661635696888,-0.2228586077690124,-0.0377276688814163,0.1049275398254394
1630501918288,0.0502576120197773,-0.1879311800003051,0.004817740060389,0.1169330924749374
1630501918397,0.0457252264022827,-0.1515959203243255,0.0511442981660366,0.136508971452713
1630501918522,0.0387379936873912,-0.1144377067685127,0.0926733613014221,0.1591430157423019
1630501918632,0.030781028792262,-0.0743341445922851,0.1255397647619247,0.1819730848073959
1630501918725,0.0277563147246837,-0.0313733704388141,0.1493021994829177,0.2056148052215576
1630501918819,0.0246775187551975,0.0103881396353244,0.1640612334012985,0.2276318520307541
1630501918928,0.0182364806532859,0.0436567403376102,0.1699831485748291,0.2445333302021026
1630501918991,0.0032377508468925,0.0628125220537185,0.1678361147642135,0.254915714263916
1630501919163,-0.0232541151344776,0.0686317384243011,0.1598119735717773,0.2711172699928283
1630501919272,-0.0609243214130401,0.0678465142846107,0.148816242814064,0.2687925696372986
1630501919366,-0.1025602221488952,0.066887080669403,0.1387415379285812,0.2590623795986175
1630501919458,-0.1365714073181152,0.0664283037185669,0.1328509449958801,0.245660051703453
1630501919552,-0.1454828381538391,0.0629916340112686,0.129935160279274,0.2453769147396087
1630501919599,-0.1500411480665207,0.0533475801348686,0.1236112117767334,0.2452156841754913
1630501919757,-0.1600536853075027,0.0384787805378437,0.1060004085302352,0.2415598332881927
1630501919867,-0.1779872477054596,0.0220905803143978,0.0734396427869796,0.2319735586643219
1630501919976,-0.1985806971788406,0.0066486014984548,0.0277898870408535,0.2184137403964996
1630501920043,-0.2164579778909683,-0.007781172171235,-0.0259452909231185,0.20139080286026
1630501920120,-0.2335984855890274,-0.0244433190673589,-0.080283336341381,0.1783494353294372
1630501920230,-0.2566550970077514,-0.0477268248796463,-0.1257217675447464,0.141750693321228
1630501920433,-0.2891822755336761,-0.0786023810505867,-0.1543997675180435,0.0943150371313095
1630501920448,-0.3270775377750397,-0.1103652194142341,-0.1645154058933258,0.0509663820266723
1630501920542,-0.362337201833725,-0.1317692101001739,-0.1609272807836532,0.0509663820266723
1630501920636,-0.362337201833725,-0.1369291692972183,-0.1503328382968902,0.0509663820266723
1630501920745,-0.362337201833725,-0.1313583552837371,-0.1369891613721847,0.0509663820266723
1630501920855,-0.362337201833725,-0.1236136257648468,-0.1232950314879417,0.0509663820266723
1630501920980,-0.362337201833725,-0.117233395576477,-0.1100015714764595,0.0509663820266723
1630501921076,0.0108330398797988,-0.1139380559325218,-0.0968948900699615,0.1757628768682479
1630501921186,-0.0127343302592635,-0.1157562509179115,-0.0850562006235122,0.1656313389539718
1630501921248,-0.0335198044776916,-0.1249248757958412,-0.0774080976843833,0.1621347069740295
1630501921342,-0.0527547895908355,-0.1418300718069076,-0.0757999420166015,0.165315181016922
1630501921451,-0.0674092397093772,-0.1646424382925033,-0.0780523493885994,0.169942170381546
1630501921576,-0.0750615373253822,-0.1902044713497162,-0.0791447460651397,0.1724066734313964
1630501921670,-0.0756062716245651,-0.2161634415388107,-0.0765329599380493,0.1730435788631439
1630501921795,-0.0686763525009155,-0.2387436181306839,-0.0704673826694488,0.1744734495878219
1630501921904,-0.0535246171057224,-0.2497088611125946,-0.0602059289813041,0.1793864667415619
1630501921967,-0.026056645438075,-0.2398495525121688,-0.0436925888061523,0.1893087178468704
1630501922048,0.0129129663109779,-0.2098525613546371,-0.022273575887084,0.2032209932804107
1630501922220,0.0526857860386371,-0.175814613699913,-0.0026047818828374,0.2166144996881485
1630501922275,0.0771416425704956,-0.1538114696741104,0.0078374026343226,0.2270885854959488
1630501922385,0.0932616367936134,-0.1486242264509201,0.0064895134419202,0.2339023053646087
1630501922478,0.0997998416423797,-0.1542503386735916,-0.0038190647028386,0.2400233596563339
1630501922572,0.1015895009040832,-0.1601210087537765,-0.0177213363349437,0.2472676038742065
1630501922666,0.1025726944208145,-0.1577437818050384,-0.0294197965413332,0.2527861297130584
1630501922853,0.1046896427869796,-0.1435943841934204,-0.035423532128334,0.252267450094223
1630501922931,0.1087890192866325,-0.1196459606289863,-0.0345938242971897,0.2448798269033432
1630501923025,0.1139487475156784,-0.0911535024642944,-0.0287858862429857,0.2332706153392791
1630501923127,0.1170970425009727,-0.0641489326953888,-0.0220724567770957,0.2196869850158691
1630501923190,0.1144652292132377,-0.0395228713750839,-0.0185572151094675,0.2040736228227615
1630501923299,0.1029102727770805,-0.016735702753067,-0.0205074474215507,0.1860606074333191
1630501923424,0.0814956650137901,0.0012315761996433,-0.0279433391988277,0.1645394563674926
1630501923564,0.0469126552343368,0.0078298971056938,-0.0405466891825199,0.1366676986217498
1630501923580,-0.00469950446859,0.0003534956485964,-0.0582796856760978,0.1008790135383606
1630501923689,-0.0707917883992195,-0.0138783445581793,-0.0780186802148819,0.0613741688430309
1630501923783,-0.1374342590570449,-0.0224193260073661,-0.0924922376871109,0.0271985474973917
1630501923893,-0.1835468858480453,-0.0200945138931274,-0.096258595585823,0.0030575373675674
1630501924049,-0.195655882358551,-0.0118755176663398,-0.0917643681168556,-0.0175163745880126
1630501924111,-0.1759231835603714,-0.0053192456252872,-0.085514985024929,-0.0381725691258907
1630501924221,-0.1390579789876938,-0.0035195120144635,-0.0785230845212936,-0.0555949658155441
1630501924314,-0.1049342900514602,-0.0069962451234459,-0.0669967383146286,-0.0635169446468353
1630501924424,-0.0861356630921363,-0.0158945526927709,-0.0514191724359989,-0.0600547641515731
1630501924502,-0.0843048691749572,-0.0295765250921249,-0.0377492420375347,-0.0499830991029739
1630501924642,-0.0915052071213722,-0.0449083782732486,-0.0310090817511081,-0.0392054840922355
1630501924736,-0.0984421670436859,-0.0602796673774719,-0.0290545802563428,-0.0292665958404541
1630501924830,-0.1016429886221885,-0.077133260667324,-0.0272690840065479,-0.0212713330984115
1630501924939,-0.1008482426404953,-0.0968496203422546,-0.0247016474604606,-0.012852587737143
1630501925002,-0.0952408239245414,-0.1170458123087883,-0.0239016599953174,-0.0003306332801003
1630501925095,-0.0836666747927665,-0.1337046027183532,-0.026078637689352,0.0159036684781312
1630501925268,-0.0664087235927581,-0.1458406299352646,-0.0300685558468103,0.0315335094928741
1630501925330,-0.0472002476453781,-0.1561046689748764,-0.0342039130628109,0.0413808152079582
1630501925439,-0.0331442803144454,-0.1637464761734008,-0.0386198908090591,0.0441201291978359
1630501925533,-0.0317865125834941,-0.1663319617509842,-0.0449857152998447,0.0450597703456878
1630501925673,-0.0485251136124134,-0.163024753332138,-0.0541174076497554,0.0491606369614601
1630501925705,-0.0811783671379089,-0.1573967486619949,-0.067182645201683,0.0594032146036624
1630501925861,-0.1187075823545456,-0.1539507657289505,-0.0843857750296592,0.0740095898509025
1630501925970,-0.1487291753292083,-0.1525272130966186,-0.1026888266205787,0.0859438106417656
1630501926018,-0.1640316247940063,-0.1515016555786132,-0.116884596645832,0.0910760536789894
1630501926129,-0.1655295342206955,-0.1518085449934005,-0.1223390847444534,0.0914747267961502
1630501926223,-0.1577769368886947,-0.1562245935201645,-0.1198808252811431,0.0913071855902671
1630501926332,-0.1430502980947494,-0.1651831567287445,-0.1137042418122291,0.0914241001009941
1630501926473,-0.1264281421899795,-0.1754151135683059,-0.1082237288355827,0.0874845013022422
1630501926555,-0.1146894097328186,-0.1840300112962722,-0.1070258170366287,0.0757239088416099
1630501926664,-0.1144443824887275,-0.1913546174764633,-0.1104232370853424,0.0576043725013732
1630501926758,-0.1295720934867859,-0.1993323564529419,-0.1160746961832046,0.0398143753409385
1630501926836,-0.1552075147628784,-0.2067949771881103,-0.1210050880908966,0.0287603978067636
1630501926961,-0.1772131770849228,-0.2114715725183487,-0.1236226856708526,0.0250903591513633
1630501927070,-0.1816925853490829,-0.2121192216873169,-0.1233175471425056,0.0242724735289812
1630501927195,-0.1881282031536102,-0.2094353288412094,-0.1203204840421676,0.0168443545699119
1630501927258,-0.1914211213588714,-0.2049271613359451,-0.1164368838071823,0.0009334670612588
1630501927399,-0.1918820142745971,-0.2008209228515625,-0.1155346184968948,-0.0254709664732217
1630501927476,-0.1883343905210495,-0.2017565816640854,-0.1215302422642707,-0.0572192892432212
1630501927539,-0.1827382296323776,-0.209667682647705,-0.1348922252655029,-0.0848615691065788
1630501927680,-0.1804253756999969,-0.2200890630483627,-0.1538456082344055,-0.1025060191750526
1630501927773,-0.184061586856842,-0.2256083190441131,-0.1763519644737243,-0.1130177602171897
1630501927867,-0.1930352747440338,-0.22270168364048,-0.2005440443754196,-0.1181364879012107
1630501927976,-0.204982116818428,-0.2125551849603653,-0.2215594351291656,-0.1120917722582817
1630501928073,-0.2173015475273132,-0.1986665427684784,-0.2326156944036483,-0.0866414830088615
1630501928151,-0.223176896572113,-0.1854585260152816,-0.2317652702331543,-0.0422978289425373
1630501928292,-0.223176896572113,-0.1775770485401153,-0.22499980032444,-0.0422978289425373
1630501928385,-0.223176896572113,-0.1790968179702758,-0.2213580310344696,-0.0422978289425373
1630501928479,-0.223176896572113,-0.1889092475175857,-0.2231455445289611,-0.0422978289425373
1630501928588,-0.223176896572113,-0.2001731544733047,-0.2247145324945449,-0.0422978289425373
1630501928682,-0.0850176736712455,-0.2046488225460052,-0.2190589606761932,0.0989766493439674
1630501928760,-0.0550340823829174,-0.197721928358078,-0.2059259563684463,0.1340765506029129
1630501928901,0.0009424652671441,-0.1807918697595596,-0.1911991685628891,0.1637970954179763
1630501928994,0.0643409341573715,-0.1580179780721664,-0.1797021329402923,0.1785500198602676
1630501929108,0.1143807992339134,-0.1326625794172287,-0.1716566383838653,0.1762832403182983
1630501929202,0.1406872570514679,-0.107840321958065,-0.1646257042884826,0.1604762524366378
1630501929296,0.1447788774967193,-0.0860951468348503,-0.1561639010906219,0.1403817981481552
1630501929358,0.1359562575817108,-0.06766277551651,-0.1448799520730972,0.1252103596925735
1630501929499,0.1246376931667327,-0.0526561737060546,-0.1323882341384887,0.1178838387131691
1630501929592,0.1166008114814758,-0.0410554520785808,-0.1224982514977455,0.1152543351054191
1630501929702,0.1126469448208808,-0.0311354100704193,-0.1176624968647956,0.1125499978661537
1630501929811,0.1094183623790741,-0.0206973850727081,-0.1158581972122192,0.1075072288513183
1630501929874,0.1102944165468216,-0.0093455929309129,-0.1126918047666549,0.1013580560684204
1630501929983,0.1083258241415023,-0.0005705015501007,-0.1078794077038765,0.096515379846096
1630501930123,0.1018728837370872,-1.8118060324923132e-05,-0.1061433404684066,0.0894392430782318
1630501930233,0.0910862535238266,-0.0104437600821256,-0.1114181131124496,0.0768359526991844
1630501930295,0.0741963312029838,-0.0304531622678041,-0.1219453960657119,0.0581659413874149
1630501930405,0.0482047833502292,-0.0550634041428566,-0.1316860765218734,0.0374194644391536
1630501930498,0.0132617261260747,-0.0791884288191795,-0.1356705278158188,0.0196481868624687
1630501930592,-0.0235499329864978,-0.1015838235616684,-0.1331052780151367,0.0094691356644034
1630501930733,-0.0514630191028118,-0.1240105926990509,-0.1268070638179779,0.0106312120333313
1630501930826,-0.0661349445581436,-0.1487929373979568,-0.1201578453183174,0.0202091857790946
1630501930936,-0.0732184201478958,-0.1775116771459579,-0.1141461282968521,0.0287553835660219
1630501930998,-0.0820497572422027,-0.2103944420814514,-0.1081933006644249,0.0277771148830652
1630501931092,-0.0958753824234008,-0.2447872459888458,-0.1016786843538284,0.0168133489787578
1630501931233,-0.1146198362112045,-0.2758747339248657,-0.0962959453463554,0.0024949009530246
1630501931373,-0.1361838728189468,-0.2993465960025787,-0.095092549920082,-0.0102691166102886
1630501931420,-0.1562644243240356,-0.3147090971469879,-0.0992519482970237,-0.0218879543244838
1630501931529,-0.1698967218399047,-0.3237919509410858,-0.1069881916046142,-0.0342865362763404
1630501931623,-0.1736572384834289,-0.3265099227428436,-0.1157654374837875,-0.0472237728536129
1630501931733,-0.1689100265502929,-0.3237479031085968,-0.1247849315404892,-0.0603800639510154
1630501931795,-0.1603035926818847,-0.3193933963775635,-0.1351095139980316,-0.0764972120523452
1630501931967,-0.1527129113674163,-0.3171461820602417,-0.1466118991374969,-0.0975728705525398
1630501932032,-0.1506773680448532,-0.3147195875644684,-0.1560617536306381,-0.1202707514166832
1630501932126,-0.1551064997911453,-0.3073364198207855,-0.1603446155786514,-0.1389397382736206
1630501932235,-0.1604791283607483,-0.2956059873104095,-0.1593300402164459,-0.1526372581720352
1630501932329,-0.1580182760953903,-0.2841253876686096,-0.1571846902370453,-0.1646668463945388
1630501932438,-0.1415847986936569,-0.2754129469394684,-0.1603691279888153,-0.1689620316028595
1630501932579,-0.1152102574706077,-0.2679900527000427,-0.1705624610185623,-0.1487549245357513
1630501932657,-0.0919508337974548,-0.2600178718566894,-0.1817889511585235,-0.1013679280877113
1630501932766,-0.0804584547877311,-0.2522852122783661,-0.1857926696538925,-0.0453568361699581
1630501932845,-0.0800380483269691,-0.245288461446762,-0.1791338920593261,0.0022901408374309
1630501932938,-0.0831813588738441,-0.2360070049762725,-0.1650500744581222,0.0379943400621414
1630501933032,-0.0823685601353645,-0.2206493467092514,-0.1463319361209869,0.0658944100141525
1630501933173,-0.0753650292754173,-0.1993637830018997,-0.1245512291789054,0.0897133201360702
1630501933266,-0.067569114267826,-0.1767127364873886,-0.1028730645775795,0.1096957698464393
1630501933376,-0.0636850968003273,-0.1585853397846222,-0.0849450975656509,0.1257530301809311
1630501933454,-0.0653640404343605,-0.1487449258565902,-0.0723280310630798,0.1373640298843383
1630501933532,-0.0708676129579544,-0.1481716930866241,-0.0644531846046447,0.1431175768375396
1630501933641,-0.0787239149212837,-0.1558037996292114,-0.0607317127287387,0.142550840973854
1630501933781,-0.0919054448604583,-0.168264091014862,-0.0591614432632923,0.1364933252334594
1630501933859,-0.1137400195002555,-0.181535318493843,-0.0573378205299377,0.1264142096042633
1630501933967,-0.1450277417898178,-0.1929641216993332,-0.054686389863491,0.1104403510689735
1630501934058,-0.1799393892288208,-0.2018970996141433,-0.0541345812380313,0.0831590220332145
1630501934168,-0.2043823450803756,-0.2071645855903625,-0.0601220205426216,0.041922241449356
1630501934266,-0.2086525857448578,-0.2080074846744537,-0.0735079199075698,-0.0075858258642256
1630501934403,-0.1968750953674316,-0.2079368829727172,-0.091248832643032,-0.0536302998661994
1630501934479,-0.1815275698900222,-0.2140320688486099,-0.1097422838211059,-0.0879450291395187
1630501934574,-0.1728239953517913,-0.2306923121213913,-0.1283361613750457,-0.1140211075544357
1630501934671,-0.1731050163507461,-0.2557852268218994,-0.146533653140068,-0.1401281356811523
1630501934782,-0.1776925325393676,-0.2811892032623291,-0.1610820740461349,-0.1696875244379043
1630501934843,-0.1830719411373138,-0.2986076474189758,-0.1687549352645874,-0.1992415487766266
1630501935000,-0.1881989687681198,-0.3045556545257568,-0.1700930893421173,-0.2190028578042984
1630501935094,-0.1918311864137649,-0.3023979365825653,-0.1696542352437973,-0.2217202335596084
1630501935188,-0.1920411735773086,-0.2963035106658935,-0.1715616434812545,-0.2097741216421127
1630501935298,-0.1863561570644378,-0.2882284820079803,-0.1789595037698745,-0.1913841366767883
1630501935360,-0.1778455078601837,-0.2793673872947693,-0.1930196434259414,-0.1786734163761139
1630501935469,-0.169249951839447,-0.2717264890670776,-0.2117344439029693,-0.1630140393972396
1630501935610,-0.1624603122472763,-0.2664027214050293,-0.2295443564653396,-0.1449415534734726
1630501935719,-0.1639527529478073,-0.2636865079402923,-0.2394833415746688,-0.1274560838937759
1630501935813,-0.1745713800191879,-0.2591499388217926,-0.2375871688127517,-0.1156440153717994
1630501935891,-0.1872295290231704,-0.2450625449419021,-0.2260670214891433,-0.1126525551080703
1630501935969,-0.1940939575433731,-0.2180075347423553,-0.2109276801347732,-0.1196753606200218
1630501936047,-0.1910435110330581,-0.1851077079772949,-0.1990159749984741,-0.1306575238704681
1630501936222,-0.1827859580516815,-0.1575227081775665,-0.1955214738845825,-0.1365986913442611
1630501936316,-0.1751678884029388,-0.1411003768444061,-0.2033395767211914,-0.1302513778209686
1630501936425,-0.1672416478395462,-0.1342997699975967,-0.2223793417215347,-0.1122399866580963
1630501936519,-0.1825228780508041,-0.1331299096345901,-0.2494964897632599,-0.0035945286508649
1630501936582,-0.1848242580890655,-0.1322458684444427,-0.2803151905536651,0.0834558382630348
1630501936675,-0.1650154590606689,-0.1262999773025512,-0.3095504939556122,0.1498060673475265
1630501936816,-0.1305380910634994,-0.1141048893332481,-0.3309405744075775,0.1990714371204376
1630501936910,-0.092888094484806,-0.09926737844944,-0.3382253050804138,0.188423290848732
1630501937019,-0.0857447460293769,-0.085881732404232,-0.3309447467327118,0.1740092784166336
1630501937113,-0.094431847333908,-0.073726899921894,-0.3170687556266784,0.1538631319999694
1630501937222,-0.1068354994058609,-0.0597599670290946,-0.3067426681518554,0.1265872716903686
1630501937285,-0.1178575232625007,-0.0433142334222793,-0.3047424852848053,0.0938579514622688
1630501937425,-0.1272408366203308,-0.027283351868391,-0.309459239244461,0.0617780648171901
1630501937550,-0.1337213367223739,-0.0158901680260896,-0.3171345293521881,0.036893606185913
1630501937613,-0.13771852850914,-0.0115091921761631,-0.323599636554718,0.0199409052729606
1630501937707,-0.1375206261873245,-0.013049921952188,-0.3236576020717621,0.0095808738842606
1630501937816,-0.1325746923685073,-0.0160207096487283,-0.3123024106025696,0.0028548415284603
1630501937878,-0.1237084418535232,-0.0150841670110821,-0.2906808853149414,-0.0028024602215737
1630501938051,-0.1019157245755195,-0.0068637076765298,-0.2665435969829559,-0.026240661740303
1630501938146,-0.0852393582463264,0.0061240522190928,-0.2472409009933471,-0.0575446188449859
1630501938208,-0.0796984136104583,0.0185821168124675,-0.233536034822464,-0.0920531749725341
1630501938307,-0.0825030803680419,0.0285583846271038,-0.2221698760986328,-0.1205519214272499
1630501938416,-0.0816025882959365,0.0384856797754764,-0.2098161727190017,-0.1346167773008346
1630501938510,-0.066525712609291,0.0502613149583339,-0.1976335197687149,-0.1286349147558212
1630501938651,-0.0397394113242626,0.0600343532860279,-0.1889913827180862,-0.1039135232567787
1630501938760,-0.009242401458323,0.0613990016281604,-0.1860620081424713,-0.0657394677400589
1630501938838,0.0224723219871521,0.0504085309803485,-0.1882880628108978,-0.0212677903473377
1630501938904,0.0542645268142223,0.0278862304985523,-0.1934655755758285,0.0215365551412105
1630501939013,0.0804567709565162,-0.000382699916372,-0.1981915533542633,0.0541657768189907
1630501939123,0.0961688160896301,-0.0261612962931394,-0.2014648169279098,0.0741052404046058
1630501939248,0.0995605364441871,-0.0439737699925899,-0.2060214430093765,0.0811042264103889
1630501939326,0.0930100604891777,-0.0562977343797683,-0.2163502275943756,0.0790857598185539
1630501939466,0.079485185444355,-0.0699059292674064,-0.2317414432764053,0.0733847469091415
1630501939576,0.0611195154488086,-0.0895779430866241,-0.2448589950799942,0.0690522417426109
1630501939628,0.0415101796388626,-0.1147715672850608,-0.2481522262096405,0.0694886595010757
1630501939769,0.0236662030220031,-0.1430368423461914,-0.2440004497766494,0.0724682286381721
1630501939862,0.0077299810945987,-0.1720402836799621,-0.2410904914140701,0.0724018663167953
1630501939972,-0.0100056817755103,-0.1995714157819748,-0.2460877001285553,0.0652970150113105
1630501940066,-0.0334439277648925,-0.2241986244916916,-0.2557179033756256,0.0507695749402046
1630501940159,-0.0627299323678016,-0.2444594204425811,-0.2607156932353973,0.0300999004393816
1630501940253,-0.0974236130714416,-0.2601649165153503,-0.2567335367202759,0.0024824247229844
1630501940347,-0.1408877670764923,-0.2721567749977112,-0.2489611059427261,-0.0339696332812309
1630501940487,-0.1954854130744934,-0.2824393808841705,-0.2450600564479828,-0.0792479515075683
1630501940581,-0.2524148821830749,-0.2914680242538452,-0.2469823509454727,-0.1273608952760696
1630501940690,-0.2936941981315613,-0.2983214855194092,-0.2503233850002289,-0.1701962500810623
1630501940753,-0.3078627288341522,-0.3011698126792907,-0.2493834644556045,-0.2000587284564972
1630501940847,-0.301371693611145,-0.2987798452377319,-0.2426942586898803,-0.2153047323226928
1630501940940,-0.2871493101119995,-0.292041927576065,-0.2338434606790542,-0.2186942249536514
1630501941081,-0.2724147439002991,-0.2837473452091217,-0.2290593683719635,-0.2161216288805008
1630501941190,-0.2609693706035614,-0.2730914950370788,-0.2318591624498367,-0.2147657126188278
1630501941284,-0.2537721991539001,-0.2634871304035187,-0.2395834028720855,-0.2154381573200225
1630501941393,-0.2499438524246215,-0.2574986219406128,-0.2466586381196975,-0.2175161689519882
1630501941456,-0.2514762580394745,-0.2597723305225372,-0.2515247464179992,-0.2213982045650482
1630501941550,-0.2587325870990753,-0.2726581394672394,-0.2572650611400604,-0.2317087203264236
1630501941721,-0.2626337110996246,-0.2930496335029602,-0.2650560140609741,-0.2493332773447036
1630501941768,-0.2673152089118957,-0.3138584792613983,-0.2694281935691833,-0.2652091681957245
1630501941878,-0.2697456777095794,-0.3304720818996429,-0.2637908458709717,-0.2684897482395172
1630501941974,-0.2683303654193878,-0.3401667773723602,-0.2476660311222076,-0.2528555393218994
1630501942083,-0.2656853795051574,-0.3435486853122711,-0.2286523580551147,-0.2210426479578018
1630501942177,-0.2671366035938263,-0.3403742611408233,-0.2145033627748489,-0.1841941475868225
1630501942327,-0.2766704559326172,-0.3403742611408233,-0.2088142335414886,-0.1696149706840515
1630501942376,-0.2940645217895508,-0.3403742611408233,-0.2097479701042175,-0.1557868868112564
1630501942486,-0.3139648735523224,-0.3403742611408233,-0.2149117588996887,-0.145895853638649
1630501942595,-0.3305249810218811,-0.3403742611408233,-0.2219116389751434,-0.1417005658149719
1630501942673,-0.3414897918701172,-0.3403742611408233,-0.2286296188831329,-0.140869140625
1630501942751,-0.3414897918701172,0.0941392704844474,-0.2338477075099945,-0.1414133161306381
1630501942908,-0.3414897918701172,0.0558622404932975,-0.2385223507881164,-0.1393017917871475
1630501943017,-0.3414897918701172,0.0133504616096615,-0.2449583411216735,-0.1336779445409774
1630501943111,-0.3414897918701172,-0.0260930992662906,-0.2545963823795318,-0.1214039176702499
1630501943220,-0.3414897918701172,-0.0605336725711822,-0.2684867084026336,-0.0971512049436569
1630501943314,-0.3414897918701172,-0.089694894850254,-0.2883818745613098,-0.06104177236557
1630501943392,-0.3414897918701172,-0.1122192218899726,-0.3157091736793518,-0.06104177236557
1630501943517,-0.3414897918701172,-0.1268057078123092,-0.3495682775974273,-0.06104177236557
1630501943611,-0.3414897918701172,-0.1333418637514114,-0.3847306668758392,-0.06104177236557
1630501943751,-0.3414897918701172,-0.1334823220968246,-0.4154152274131775,-0.06104177236557
1630501943814,-0.3414897918701172,-0.128462016582489,-0.4379948675632477,-0.06104177236557
1630501943876,-0.3414897918701172,-0.1185863688588142,-0.4500866532325744,-0.06104177236557
1630501943986,-0.3414897918701172,-0.1205724105238914,-0.4481452107429504,-0.06104177236557
1630501944142,-0.3414897918701172,-0.1310773640871048,-0.4306072294712066,-0.06104177236557
1630501944204,-0.3414897918701172,-0.1450828462839126,-0.4015396535396576,-0.06104177236557
1630501944314,-0.3414897918701172,-0.1563332974910736,-0.3690526187419891,-0.06104177236557
1630501944407,-0.3414897918701172,-0.1603851914405822,-0.339912086725235,-0.06104177236557
1630501944517,-0.3414897918701172,-0.160047248005867,-0.316109836101532,-0.06104177236557
1630501944626,-0.3414897918701172,-0.1597942858934402,-0.2971508502960205,-0.06104177236557
1630501944751,-0.3414897918701172,-0.1611596494913101,-0.2815198600292206,-0.06104177236557
1630501944860,-0.3414897918701172,-0.1628893613815307,-0.2673189640045166,-0.06104177236557
1630501944907,-0.3414897918701172,-0.1636669784784317,-0.2535295784473419,-0.06104177236557
1630501945017,-0.3414897918701172,-0.1625966280698776,-0.240884318947792,-0.06104177236557
1630501945110,-0.3414897918701172,-0.1601715981960296,-0.2318330854177475,-0.06104177236557
1630501945204,-0.3414897918701172,-0.1587570011615753,-0.228016585111618,-0.06104177236557
1630501945345,-0.3414897918701172,-0.162873089313507,-0.2288345247507095,-0.06104177236557
1630501945438,-0.3414897918701172,-0.1761591881513595,-0.2326800674200058,-0.06104177236557
1630501945548,-0.3414897918701172,-0.1978202015161514,-0.2353934794664383,-0.06104177236557
1630501945657,-0.3414897918701172,-0.2221144884824752,-0.2327422648668289,-0.06104177236557
1630501945751,-0.3414897918701172,-0.2419272065162658,-0.2255317568778991,-0.06104177236557
1630501945813,-0.3414897918701172,-0.2520222961902618,-0.220395416021347,-0.06104177236557
1630501945954,-0.3414897918701172,-0.2528013586997986,-0.2228118777275085,-0.06104177236557
1630501946063,-0.3414897918701172,-0.2471763640642166,-0.2325495183467865,-0.06104177236557
1630501946157,-0.3414897918701172,-0.2385063767433166,-0.2448298633098602,-0.06104177236557
1630501946235,-0.3414897918701172,-0.2298455983400344,-0.2561214864253998,-0.06104177236557
1630501946360,-0.3414897918701172,-0.223419114947319,-0.2674657702445984,-0.06104177236557
1630501946422,-0.3414897918701172,-0.2202048301696777,-0.2800040245056152,-0.06104177236557
1630501946594,-0.3414897918701172,-0.2217429131269455,-0.2930610179901123,-0.06104177236557
1630501946688,-0.3414897918701172,-0.2300408035516739,-0.3035281598567962,-0.06104177236557
1630501946751,-0.3414897918701172,-0.2456832528114318,-0.3059196472167969,-0.06104177236557
1630501946844,-0.3414897918701172,-0.2657475173473358,-0.2980338931083679,-0.06104177236557
1630501946985,-0.3414897918701172,-0.2859642207622528,-0.2854222953319549,-0.06104177236557
1630501947054,-0.3414897918701172,-0.3033536672592163,-0.2802973985671997,-0.06104177236557
1630501947179,-0.3414897918701172,-0.3175018727779388,-0.2929684817790985,-0.06104177236557
1630501947288,-0.3414897918701172,-0.3304964900016784,-0.3236576914787292,-0.06104177236557
1630501947382,-0.3414897918701172,-0.345660924911499,-0.3596895933151245,-0.06104177236557
1630501947445,-0.3414897918701172,-0.3652503788471222,-0.3820796012878418,-0.06104177236557
1630501947585,-0.3414897918701172,-0.3885484933853149,-0.3772097826004028,-0.06104177236557
1630501947648,-0.3414897918701172,-0.4108529686927795,-0.3477922976016998,-0.06104177236557
1630501947804,-0.3414897918701172,-0.4206232130527496,-0.3069736361503601,-0.06104177236557
1630501947882,-0.3414897918701172,-0.4270414113998413,-0.2661091983318329,-0.06104177236557
1630501947976,-0.3414897918701172,-0.4344956576824188,-0.2278166860342025,-0.06104177236557
1630501948085,-0.3414897918701172,-0.4472929835319519,-0.1876009702682495,-0.06104177236557
1630501948179,-0.3414897918701172,-0.465081512928009,-0.1416961401700973,-0.06104177236557
1630501948241,-0.3414897918701172,-0.3642494678497314,-0.0946567431092262,-0.06104177236557
1630501948398,-0.3414897918701172,-0.2366071790456771,-0.0529025606811046,-0.06104177236557
1630501948491,-0.3414897918701172,-0.1237157881259918,-0.0189885254949331,-0.06104177236557
1630501948601,-0.3414897918701172,-0.0499318540096282,0.0082067307084798,-0.06104177236557
1630501948663,-0.3414897918701172,-0.0132976351305842,0.0299739222973585,-0.06104177236557
1630501948772,-0.3414897918701172,0.0025683811400085,0.0459254905581474,-0.06104177236557
1630501948866,-0.3414897918701172,0.0143913403153419,0.0552728734910488,-0.06104177236557
1630501948991,-0.3414897918701172,0.0279480516910552,0.0590328350663185,-0.06104177236557
1630501949103,-0.3414897918701172,0.0409044548869133,0.0596657358109951,-0.06104177236557
1630501949197,-0.3414897918701172,0.0513433068990707,0.0607586912810802,-0.06104177236557
1630501949306,-0.3414897918701172,0.0300013124942779,0.0640989243984222,-0.06104177236557
1630501949400,-0.3414897918701172,0.0128126302734017,0.0677894726395607,-0.06104177236557
1630501949462,-0.3414897918701172,-0.0021702812518924,0.0665929615497589,-0.06104177236557
1630501949634,-0.3414897918701172,-0.0171908903867006,0.0558721907436847,-0.06104177236557
1630501949744,-0.3414897918701172,-0.0326382108032703,0.0338365547358989,-0.06104177236557
1630501949806,-0.3414897918701172,-0.0609834156930446,0.0045122541487216,-0.06104177236557
1630501949884,-0.3414897918701172,-0.1059323623776435,-0.0239168014377355,-0.06104177236557
1630501950009,-0.3414897918701172,-0.1597686260938644,-0.0429413169622421,-0.06104177236557
1630501950091,-0.3414897918701172,-0.2052484899759292,-0.0498922765254974,-0.06104177236557
1630501950231,-0.3414897918701172,-0.2299782335758209,-0.0503705330193042,-0.06104177236557
1630501950341,-0.3414897918701172,-0.2367968261241912,-0.0508187636733055,-0.06104177236557
1630501950435,-0.3414897918701172,-0.2350770384073257,-0.0526332557201385,-0.06104177236557
1630501950528,-0.3414897918701172,-0.2285519242286682,-0.0543207637965679,-0.06104177236557
1630501950622,-0.3414897918701172,-0.2192368358373642,-0.0569126084446907,-0.06104177236557
1630501950701,-0.3414897918701172,-0.2160874605178833,-0.0655286610126495,-0.06104177236557
1630501950856,-0.3414897918701172,-0.2119202762842178,-0.0839371606707573,-0.06104177236557
1630501950935,-0.3414897918701172,-0.2094909101724624,-0.1078069955110549,-0.06104177236557
1630501951032,-0.3414897918701172,-0.2068498432636261,-0.1274563670158386,-0.06104177236557
1630501951141,-0.3414897918701172,-0.1999387890100479,-0.1357843875885009,-0.06104177236557
1630501951235,-0.3414897918701172,-0.186857670545578,-0.1333428919315338,-0.06104177236557
1630501951298,-0.3414897918701172,-0.172093003988266,-0.1279338896274566,-0.06104177236557
1630501951485,-0.3414897918701172,-0.1624899953603744,-0.1290444284677505,-0.06104177236557
1630501951563,-0.3414897918701172,-0.1607531607151031,-0.1428378969430923,-0.06104177236557
1630501951626,-0.3414897918701172,-0.1611264497041702,-0.1686012148857116,-0.06104177236557
1630501951719,-0.3414897918701172,-0.1527748107910156,-0.1978283524513244,-0.06104177236557
1630501951829,-0.3414897918701172,-0.1527748107910156,-0.2206054180860519,-0.06104177236557
1630501951938,-0.3414897918701172,-0.1527748107910156,-0.2320150882005691,-0.06104177236557
1630501952063,-0.3414897918701172,-0.1527748107910156,-0.2336560487747192,-0.06104177236557
1630501952125,-0.3414897918701172,-0.1527748107910156,-0.2302216738462448,-0.06104177236557
1630501952235,-0.3414897918701172,-0.1527748107910156,-0.2261293679475784,-0.06104177236557
1630501952328,-0.3414897918701172,-0.1527748107910156,-0.2231893539428711,-0.06104177236557
1630501952422,-0.3414897918701172,-0.1216413974761962,-0.2226382046937942,-0.06104177236557
1630501952532,-0.3414897918701172,-0.1269085109233856,-0.2257615327835083,-0.06104177236557
1630501952657,-0.3414897918701172,-0.1331653892993927,-0.2352274954319,-0.06104177236557
1630501952766,-0.3414897918701172,-0.1408743411302566,-0.2516853213310241,-0.06104177236557
1630501952875,-0.3414897918701172,-0.1408743411302566,-0.2699603140354156,-0.06104177236557
1630501952953,-0.3414897918701172,-0.1408743411302566,-0.28231081366539,-0.06104177236557
1630501953034,-0.3414897918701172,-0.1408743411302566,-0.2865594923496246,-0.06104177236557
1630501953128,-0.3414897918701172,-0.1408743411302566,-0.2868843972682953,-0.06104177236557
1630501953269,-0.3414897918701172,-0.1408743411302566,-0.2846466600894928,-0.06104177236557
1630501953362,-0.3414897918701172,-0.1408743411302566,-0.2760246396064758,-0.06104177236557
1630501953456,-0.3414897918701172,-0.1408743411302566,-0.2624072730541229,-0.06104177236557
1630501953565,-0.3414897918701172,-0.1408743411302566,-0.2542125880718231,-0.06104177236557
1630501953628,-0.3414897918701172,-0.1688911616802215,-0.2607578933238983,-0.06104177236557
1630501953753,-0.3414897918701172,-0.2023824900388717,-0.2822173237800598,-0.06104177236557
