timestamp,TP9,AF7,AF8,TP10
1630501821654,0.908262014389038,0.4720140099525451,-0.0027621572371572,0.1050200834870338
1630501821748,0.908262014389038,0.4720140099525451,-0.0027621572371572,0.1050200834870338
1630501821857,0.908262014389038,0.4720140099525451,-0.0027621572371572,0.1050200834870338
1630501821966,0.908262014389038,0.4720140099525451,-0.0027621572371572,0.1050200834870338
1630501822022,0.908262014389038,0.4720140099525451,-0.0027621572371572,0.1050200834870338
1630501822116,0.908262014389038,0.4720140099525451,-0.0027621572371572,0.1050200834870338
1630501822256,0.908262014389038,0.4720140099525451,-0.0027621572371572,0.1050200834870338
1630501822350,0.908262014389038,0.0774276331067085,-0.0027621572371572,0.1050200834870338
1630501822459,0.908262014389038,0.1928080022335052,-0.0027621572371572,0.1050200834870338
1630501822553,0.908262014389038,0.2912437915802002,0.0241533666849136,0.1050200834870338
1630501822631,0.908262014389038,0.350405603647232,0.1057644486427307,0.1050200834870338
1630501822709,0.908262014389038,0.3845268487930298,0.1978378295898437,0.1050200834870338
1630501822897,0.908262014389038,0.4260970056056976,0.2767494916915893,0.1050200834870338
1630501822959,0.908262014389038,0.4889847040176391,0.324500173330307,0.1050200834870338
1630501823053,0.908262014389038,0.5520454049110413,0.3413425385951996,0.1050200834870338
1630501823162,0.908262014389038,0.594039261341095,0.3359785377979278,0.1050200834870338
1630501823256,0.908262014389038,0.6119022965431213,0.3193735480308532,0.1050200834870338
1630501823350,0.908262014389038,0.6135225892066956,0.299429714679718,0.1050200834870338
1630501823491,0.908262014389038,0.6075882911682129,0.2779637575149536,0.1050200834870338
1630501823600,0.908262014389038,0.6179903745651245,0.2563839256763458,0.1050200834870338
1630501823694,0.908262014389038,0.6248085498809814,0.2360287010669708,0.1050200834870338
1630501823756,0.908262014389038,0.6276480555534363,0.2288390100002288,0.1050200834870338
1630501823865,0.908262014389038,0.6237882375717163,0.2246213555335998,0.1050200834870338
1630501823943,0.908262014389038,0.6113469004631042,0.2244099825620651,0.1050200834870338
1630501824084,0.908262014389038,0.5919603109359741,0.2332957535982132,0.1050200834870338
1630501824193,0.908262014389038,0.5711709260940552,0.249922975897789,0.1050200834870338
1630501824287,0.908262014389038,0.5511113405227661,0.2589147090911865,0.4754182398319244
1630501824396,0.908262014389038,0.5241925120353699,0.2473242431879043,0.4772863388061523
1630501824490,0.908262014389038,0.4791463613510132,0.217404305934906,0.4710038900375366
1630501824600,0.5920088887214661,0.4151794910430908,0.183813065290451,0.4659866392612457
1630501824725,0.5920088887214661,0.3432252109050751,0.1601478010416031,0.4654284417629242
1630501824818,0.5920088887214661,0.2758798003196716,0.1482626497745514,0.4710806906223297
1630501824896,0.5920088887214661,0.218599185347557,0.1457697302103042,0.4824548661708832
1630501824990,0.5920088887214661,0.1706275641918182,0.1519438773393631,0.4958401322364807
1630501825086,0.5920088887214661,0.1341294199228286,0.1624194681644439,0.5050516128540039
1630501825227,0.5920088887214661,0.1122788041830062,0.1704556941986084,0.5076101422309875
1630501825320,0.5920088887214661,0.0986487865447998,0.1725119799375534,0.5057138204574585
1630501825415,0.5920088887214661,0.0894181579351425,0.170269101858139,0.5070865154266357
1630501825477,0.5920088887214661,0.0841670259833335,0.1607677191495895,0.5224856734275818
1630501825586,0.5920088887214661,0.086008533835411,0.1303884536027908,0.5321796536445618
1630501825711,0.6013978123664856,0.0946794524788856,0.0690035969018936,0.5318083167076111
1630501825789,0.6058963537216187,0.1072894856333732,-0.0166263710707426,0.5316578149795532
1630501825914,0.6131809949874878,0.1127964109182357,-0.0951704010367393,0.5353526473045349
1630501826008,0.6034743189811707,0.1058039665222168,-0.1281090080738067,0.5381324887275696
1630501826086,0.5601564049720764,0.0829601660370826,-0.12400833517313,0.5417778491973877
1630501826226,0.5498149991035461,0.0620428398251533,-0.1138972640037536,0.5448276996612549
1630501826289,0.5742695927619934,0.0567495226860046,-0.1126300916075706,0.5471597909927368
1630501826398,0.6502135396003723,0.0681082904338836,-0.1227282211184501,0.5567644238471985
1630501826523,0.7471528649330139,0.0860645473003387,-0.1409315913915634,0.579147219657898
1630501826617,0.8259418606758118,0.1016820222139358,-0.1552653908729553,0.6091722846031189
1630501826726,0.8680748343467712,0.118336908519268,-0.1559592932462692,0.633521556854248
1630501826820,0.8761163353919983,0.1418995857238769,-0.1493783295154571,0.6413483023643494
1630501826898,0.8631008863449097,0.1707917302846908,-0.143503725528717,0.6288683414459229
1630501827023,0.8422719836235046,0.1915902197360992,-0.1412070989608764,0.6048750877380371
1630501827164,0.8194555044174194,0.2112194150686264,-0.1442978084087371,0.5819248557090759
1630501827257,0.8299663066864014,0.2198665589094162,-0.1456142663955688,0.5697004199028015
1630501827320,0.8437444567680359,0.2104166746139526,-0.1390107423067093,0.5655356645584106
1630501827414,0.860683023929596,0.1889243274927139,-0.1317718923091888,0.5672997236251831
1630501827523,0.8820503354072571,0.1615751534700393,-0.1302827596664428,0.5911360383033752
1630501827617,0.9075156450271606,0.1390108168125152,-0.1129213124513626,0.658700168132782
1630501827757,1.0171843767166138,0.1223679333925247,-0.0458789058029651,0.7738999724388123
1630501827851,1.0416184663772583,0.1187236085534095,0.0579191520810127,0.895780086517334
1630501827965,1.049041748046875,0.1440640538930893,0.1518417000770568,0.9893609285354614
1630501828012,1.030171036720276,0.215021476149559,0.2109779715538025,1.0000001192092896
1630501828121,0.9877883791923524,0.3150847852230072,0.2340784966945648,1.00926411151886
1630501828230,0.945788025856018,0.4025494158267975,0.235852912068367,1.02306067943573
1630501828355,0.9432098269462584,0.4549353718757629,0.2336423844099044,1.0470402240753174
1630501828465,0.9432098269462584,0.4710964858531952,0.2340827733278274,1.0817644596099854
1630501828558,0.9432098269462584,0.477019727230072,0.2381141632795334,1.1233326196670532
1630501828652,0.9432098269462584,0.4701212346553802,0.246710255742073,1.1687555313110352
1630501828746,0.9432098269462584,0.4658496975898742,0.2532869875431061,1.217668890953064
1630501828824,0.9432098269462584,0.4706219732761383,0.2724655568599701,1.2723541259765625
1630501828994,0.9432098269462584,0.4847684204578399,0.2902644276618957,1.3361819982528689
1630501829118,0.9432098269462584,0.5000085830688477,0.3067923784255981,1.4078112840652466
1630501829150,0.9432098269462584,0.5093229413032532,0.3154141902923584,1.4078112840652466
1630501829245,0.9432098269462584,0.5109601020812988,0.2974151372909546,1.4078112840652466
1630501829353,0.5087766051292419,0.5072234869003296,0.2352222204208374,1.4078112840652466
1630501829434,0.4880983531475067,0.4949736893177032,0.1285267919301986,1.4078112840652466
1630501829557,0.4790549576282501,0.4621680974960327,0.0044195861555635,1.4078112840652466
1630501829697,0.4838779270648956,0.3953986167907715,-0.0824454054236412,1.4078112840652466
1630501829761,0.5055403113365173,0.2956037521362304,-0.1077187657356262,1.4078112840652466
1630501829841,0.5477292537689209,0.1853774636983871,-0.0969272777438163,1.4078112840652466
1630501829935,0.5976163744926453,0.1043232679367065,-0.0969272777438163,1.4078112840652466
1630501830023,0.6373916864395142,0.0729202851653099,-0.0969272777438163,1.4078112840652466
1630501830195,0.6565661430358887,0.0665931776165962,-0.0969272777438163,1.4078112840652466
1630501830273,0.6556401252746582,0.0508182607591152,-0.0969272777438163,1.4078112840652466
1630501830367,0.6424368619918823,0.0140571817755699,-0.0969272777438163,1.4078112840652466
1630501830476,0.6424368619918823,-0.0451202616095542,-0.0969272777438163,1.4078112840652466
1630501830554,0.639365553855896,-0.1079257652163505,-0.0969272777438163,1.4078112840652466
1630501830648,0.6467991471290588,-0.1510517299175262,-0.0969272777438163,1.4078112840652466
1630501830792,0.6643709540367126,-0.1691072434186935,-0.0969272777438163,1.4078112840652466
1630501830901,0.6861780881881714,-0.1805659234523773,0.1295012533664703,1.4078112840652466
1630501830982,0.6760838627815247,-0.1915022134780883,0.0843318626284599,1.4078112840652466
1630501831091,0.6715380549430847,-0.1962782442569732,0.0286415107548236,1.4078112840652466
1630501831185,0.6704329252243042,-0.1938414573669433,-0.0285670887678861,1.4078112840652466
1630501831279,0.6620709300041199,-0.1920993328094482,-0.0814274176955223,1.4078112840652466
1630501831388,0.6307504773139954,-0.2013394385576248,-0.1271870136260986,1.4078112840652466
1630501831513,0.5714273452758789,-0.2225926965475082,-0.1633173078298568,-0.0796901881694793
1630501831576,0.4935244023799896,-0.2530418336391449,-0.1905151903629303,-0.1098223105072975
1630501831669,0.4212021827697754,-0.2884557247161865,-0.2110965549945831,-0.1247098892927169
1630501831763,0.3864496648311615,-0.3187755048274994,-0.22872094810009,-0.1128324270248413
1630501831888,0.4059467315673828,-0.34088134765625,-0.2437394261360168,-0.063341736793518
1630501832001,0.4472892582416534,-0.3598309159278869,-0.250984638929367,0.0124140977859497
1630501832094,0.4857394993305206,-0.3806133866310119,-0.2879660129547119,0.0871846228837966
1630501832188,0.5048272013664246,-0.3980515599250793,-0.3298555910587311,0.1456700414419174
1630501832313,0.5029069781303406,-0.4047644138336181,-0.3728474378585815,0.1805674731731414
1630501832422,0.4897122681140899,-0.3993063867092132,-0.405396431684494,0.1926361471414566
1630501832485,0.4938096702098846,-0.3800749182701111,-0.4125026762485504,0.1890793889760971
1630501832626,0.497239351272583,-0.3461846113204956,-0.3873783051967621,0.1834665536880493
1630501832735,0.5004122257232666,-0.2954902052879333,-0.3257256150245666,0.2003486305475235
1630501832829,0.5068228244781494,-0.2279013395309448,-0.2227101027965545,0.2421146482229232
1630501832907,0.5208396911621094,-0.1529562771320343,-0.1014785915613174,0.303176075220108
1630501833000,0.5421469211578369,-0.0836510434746742,0.0028410230297595,0.3650323450565338
1630501833110,0.5661879181861877,-0.0312296412885189,0.0720737501978874,0.4125891327857971
1630501833266,0.5871127843856812,0.0007845378131605,0.1077863574028015,0.4438160061836242
1630501833329,0.5993471741676331,0.0158748142421245,0.123061679303646,0.4671556949615478
1630501833456,0.59760582447052,0.0237563271075487,0.1288854777812957,0.4884827435016632
1630501833565,0.5820364356040955,0.0345877259969711,0.1281891465187072,0.505534827709198
1630501833627,0.560142457485199,0.0530344061553478,0.1247988268733024,0.5168306231498718
1630501833690,0.5416573882102966,0.0790948942303657,0.1264601051807403,0.5214687585830688
1630501833862,0.5307632088661194,0.1110765859484672,0.1371365040540695,0.5228127837181091
1630501833940,0.5242303609848022,0.1403390318155288,0.153231605887413,0.5245871543884277
1630501834002,0.5150563716888428,0.1557404398918151,0.1674376428127288,0.5279160737991333
1630501834112,0.4990059733390808,0.1521111875772476,0.1750395148992538,0.530142605304718
1630501834252,0.4746902585029602,0.13032828271389,0.1721520572900772,0.5256893634796143
1630501834315,0.4454031586647033,0.0959456488490104,0.1514366418123245,0.5091930627822876
1630501834455,0.4151147603988647,0.0544290393590927,0.1113846451044082,0.4826034307479858
1630501834549,0.383726418018341,0.008585400879383,0.0643561631441116,0.4550771415233612
1630501834627,0.3482244908809662,-0.0347764566540718,0.0334697850048542,0.4390932023525238
1630501834721,0.3130769431591034,-0.0669209212064743,0.0316594280302524,0.4385372400283813
1630501834839,0.2920127809047699,-0.0854956656694412,0.0467413663864135,0.4474334716796875
1630501834933,0.2955839335918426,-0.0991830602288246,0.0619359612464904,0.4573262631893158
1630501835058,0.3181541562080383,-0.11937166005373,0.0711882412433624,0.4629011154174804
1630501835167,0.3442914187908172,-0.153396725654602,0.0715666562318801,0.4599798917770386
1630501835276,0.3674351871013641,-0.2027771323919296,0.0588771849870681,0.4493941366672516
1630501835370,0.3888916075229645,-0.2701037228107452,0.0348093174397945,0.4358435273170471
1630501835432,0.4090669751167297,-0.3388043344020843,0.0089761968702077,0.4264896214008331
1630501835573,0.4263894557952881,-0.3564877212047577,-0.0051970155909657,0.4264355301856994
1630501835667,0.4419351816177368,-0.2807380259037018,-0.0017336847959086,0.4355606734752655
1630501835760,0.4601512253284454,-0.1584036648273468,0.0130921956151723,0.4496062099933624
1630501835854,0.481562852859497,-0.0590950287878513,0.0274142362177371,0.4621442854404449
1630501835963,0.5030477643013,-0.004973473958671,0.0352971032261848,0.4707098007202148
1630501836073,0.5201639533042908,0.0154177667573094,0.0372522957623004,0.4816548228263855
1630501836169,0.5338783264160156,0.0205542892217636,0.0358565598726272,0.502933144569397
1630501836278,0.5472148656845093,0.0238306131213903,0.0325465127825737,0.5347914099693298
1630501836356,0.558090090751648,0.0355786643922328,0.0278811883181333,0.5643656849861145
1630501836466,0.5569276809692383,0.0588834136724472,0.0262802243232727,0.5788050889968872
1630501836559,0.5453968644142151,0.0908393487334251,0.0310400500893592,0.5785511136054993
1630501836700,0.535147488117218,0.1244382113218307,0.0418851934373378,0.5765070915222168
1630501836763,0.5323601365089417,0.1497269868850708,0.0595335327088832,0.5851094126701355
1630501836903,0.5411177277565002,0.1627826988697052,0.0803945884108543,0.605424702167511
1630501837012,0.5559645295143127,0.1657683551311493,0.0952867195010185,0.6270595788955688
1630501837075,0.5695710182189941,0.1579897105693817,0.0952125266194343,0.640014111995697
1630501837169,0.5750446319580078,0.1327351778745651,0.0779815018177032,0.641563892364502
1630501837262,0.5694397687911987,0.0901838690042495,0.0493520982563495,0.6365368962287903
1630501837372,0.5557035207748413,0.0456909909844398,0.0192079842090606,0.6328341364860535
1630501837489,0.5470280051231384,0.0225385315716266,-0.0100322170183062,0.6405436396598816
1630501837599,0.5592384338378906,0.025284145027399,-0.0447170548141002,0.6634315848350525
1630501837724,0.5902441740036011,0.0389254800975322,-0.0902063176035881,0.6920076608657837
1630501837786,0.6215696334838867,0.0509750954806804,-0.145523190498352,0.7131929993629456
1630501837864,0.6362061500549316,0.0555428639054298,-0.1997540742158889,0.717773973941803
1630501837972,0.631362795829773,0.054337840527296,-0.2466041147708892,0.7081478834152222
1630501838130,0.6202880144119263,0.0544676780700683,-0.2847331762313843,0.6937534809112549
1630501838205,0.6192870140075684,0.0591770932078361,-0.3165917992591858,0.6807833909988403
1630501838299,0.637387752532959,0.0672301724553108,-0.3493498265743255,0.6684996485710144
1630501838407,0.6715819835662842,0.0753959417343139,-0.3912969827651977,0.6554256081581116
1630501838501,0.7048460245132446,0.0767972394824028,-0.4302413165569305,0.6443602442741394
1630501838597,0.7125041484832764,0.0850945711135864,-0.4344545900821686,0.640896737575531
1630501838704,0.7271230220794678,0.0919666737318039,-0.4427059888839721,0.6453486680984497
1630501838832,0.7488582730293274,0.0973238125443458,-0.4378416538238525,0.6523751616477966
1630501838908,0.7743830680847168,0.1033656448125839,-0.4341500401496887,0.6683290600776672
1630501839003,0.7947515845298767,0.1105900779366493,-0.4348075985908508,0.6738004684448242
1630501839099,0.8013178706169128,0.1197602227330207,-0.4307942688465118,0.6549360156059265
1630501839198,0.7935826182365417,0.1349139660596847,-0.4147346317768097,0.6040341854095459
1630501839320,0.7813958525657654,0.1594131290912628,-0.3835780322551727,0.5239750146865845
1630501839400,0.7787901163101196,0.1902517527341842,-0.3420735001564026,0.4423938393592834
1630501839544,0.8027262091636658,0.2184146791696548,-0.2954987585544586,0.3997666835784912
1630501839603,0.8305503726005554,0.2245223075151443,-0.250526875257492,0.4068545401096344
1630501839714,0.8372429609298706,0.2245223075151443,-0.215796947479248,0.4360031485557556
1630501839777,0.8056403994560242,0.2245223075151443,-0.215796947479248,0.4653756022453308
1630501839918,0.7663317918777466,0.2245223075151443,-0.215796947479248,0.4860605299472809
1630501840058,0.7009755373001099,0.2245223075151443,-0.215796947479248,0.4860605299472809
1630501840106,0.7009755373001099,0.2245223075151443,-0.215796947479248,0.4860605299472809
1630501840206,0.7009755373001099,0.2245223075151443,-0.215796947479248,0.4860605299472809
1630501840308,0.7009755373001099,0.2245223075151443,-0.215796947479248,0.4860605299472809
1630501840419,0.7009755373001099,0.2245223075151443,-0.215796947479248,0.4860605299472809
1630501840560,0.7009755373001099,0.2245223075151443,-0.215796947479248,0.4860605299472809
1630501840657,0.7009755373001099,0.2245223075151443,-0.215796947479248,0.4860605299472809
1630501840716,0.7009755373001099,0.2245223075151443,-0.215796947479248,0.4860605299472809
1630501840829,0.7009755373001099,0.2245223075151443,-0.215796947479248,0.4860605299472809
1630501840921,0.6899012327194214,0.2245223075151443,-0.215796947479248,0.4860605299472809
1630501841028,0.6899012327194214,0.2245223075151443,-0.215796947479248,0.4860605299472809
1630501841154,0.6899012327194214,0.2245223075151443,-0.215796947479248,0.4860605299472809
1630501841299,0.6899012327194214,0.2245223075151443,-0.215796947479248,0.4860605299472809
1630501841359,0.6899012327194214,0.2245223075151443,-0.215796947479248,0.4860605299472809
1630501841420,0.6899012327194214,0.2245223075151443,-0.215796947479248,0.4860605299472809
1630501841516,0.6899012327194214,0.2245223075151443,-0.215796947479248,0.4860605299472809
1630501841626,0.6899012327194214,0.2245223075151443,-0.215796947479248,0.4860605299472809
1630501841751,0.6899012327194214,0.1009771004319191,-0.1284114867448806,0.4860605299472809
1630501841860,0.6899012327194214,0.0686558783054351,-0.0703562349081039,0.4860605299472809
1630501841955,0.6899012327194214,0.1324608325958252,0.0165224056690931,0.4860605299472809
1630501842018,0.6899012327194214,0.3117310702800751,0.1064568012952804,0.4860605299472809
1630501842162,0.6899012327194214,0.5097960233688354,0.1747696101665496,0.4860605299472809
1630501842255,0.6899012327194214,0.6515875458717346,0.2162525057792663,0.4860605299472809
1630501842348,0.6899012327194214,0.7240022420883179,0.2390051633119583,0.4860605299472809
1630501842475,0.6899012327194214,0.7414739727973938,0.255171000957489,0.4860605299472809
1630501842569,0.6899012327194214,0.7280688881874084,0.2705667316913605,0.4860605299472809
1630501842646,0.6899012327194214,0.7081987261772156,0.2828068733215332,0.4860605299472809
1630501842773,0.6899012327194214,0.69304358959198,0.2892907559871673,0.4860605299472809
1630501842834,0.6899012327194214,0.6815827488899231,0.2903973758220672,0.4860605299472809
1630501842975,0.6899012327194214,0.686271071434021,0.309799462556839,0.4860605299472809
1630501843070,0.6899012327194214,0.6991029381752014,0.3272981345653534,0.4860605299472809
1630501843179,0.6899012327194214,0.7254053354263306,0.3424668610095978,0.4860605299472809
1630501843272,0.6899012327194214,0.769641101360321,0.3544298708438873,0.4860605299472809
1630501843367,0.6899012327194214,0.8214934468269348,0.3598811030387878,0.4860605299472809
1630501843446,0.6899012327194214,0.8601675629615784,0.3534707725048065,0.4860605299472809
1630501843604,0.6899012327194214,0.8675313591957092,0.3338223993778229,0.4860605299472809
1630501843711,0.6899012327194214,0.83720862865448,0.3052468597888946,0.4860605299472809
1630501843773,0.6899012327194214,0.7804521918296814,0.2746874988079071,0.4860605299472809
1630501843868,0.6899012327194214,0.7244304418563843,0.2452781498432159,0.4860605299472809
1630501843960,0.6899012327194214,0.6916136741638184,0.214105799794197,0.4860605299472809
1630501844072,0.6899012327194214,0.700440526008606,0.1791872382164001,0.4860605299472809
1630501844207,0.6899012327194214,0.718561053276062,0.1571455746889114,0.4860605299472809
1630501844302,0.6899012327194214,0.7360248565673828,0.1360350996255874,0.4860605299472809
1630501844429,0.6899012327194214,0.7533649206161499,0.1183956712484359,0.4860605299472809
1630501844490,0.6899012327194214,0.7735032439231873,0.100617229938507,0.4860605299472809
1630501844585,0.6899012327194214,0.7934231758117676,0.0768452584743499,0.4860605299472809
1630501844693,0.6899012327194214,0.7989296317100525,0.0451522655785083,0.4860605299472809
1630501844821,0.6899012327194214,0.7686877250671387,0.0072134174406528,0.4860605299472809
1630501844927,0.6899012327194214,0.6856459379196167,-0.0369287244975566,0.4860605299472809
1630501845023,0.6899012327194214,0.5452632308006287,-0.0833471491932869,0.4860605299472809
1630501845116,0.6899012327194214,0.3747400939464569,-0.1263555884361267,0.4860605299472809
1630501845226,0.6899012327194214,0.3747400939464569,-0.1581796407699585,0.4860605299472809
1630501845288,0.6899012327194214,0.3747400939464569,-0.1581796407699585,0.4860605299472809
1630501845444,0.6899012327194214,0.3747400939464569,-0.1581796407699585,0.4860605299472809
1630501845507,0.6899012327194214,0.3747400939464569,-0.1581796407699585,0.4860605299472809
1630501845584,0.6899012327194214,0.3747400939464569,-0.1581796407699585,0.4860605299472809
1630501845694,0.6899012327194214,0.3747400939464569,-0.1581796407699585,0.4860605299472809
1630501845787,0.6899012327194214,0.3747400939464569,-0.1581796407699585,0.4860605299472809
1630501845913,0.6899012327194214,0.3747400939464569,-0.1581796407699585,0.4860605299472809
1630501846039,0.6899012327194214,0.3747400939464569,-0.1581796407699585,0.4860605299472809
1630501846099,0.6899012327194214,0.3747400939464569,-0.1581796407699585,0.4860605299472809
1630501846212,0.6899012327194214,0.3747400939464569,-0.1581796407699585,0.4860605299472809
1630501846304,0.6899012327194214,0.3848500847816467,-0.1581796407699585,0.5579229593276978
1630501846383,0.6899012327194214,0.3904225528240204,0.4942031502723694,0.6562724709510803
1630501846528,0.6899012327194214,0.3904225528240204,0.5982264876365662,0.6562724709510803
1630501846650,0.6899012327194214,0.3904225528240204,0.647157609462738,0.6562724709510803
1630501846728,0.6899012327194214,0.3904225528240204,0.6585801839828491,0.6562724709510803
1630501846822,0.6899012327194214,0.3904225528240204,0.6682571768760681,0.6562724709510803
1630501846916,0.6899012327194214,0.3904225528240204,0.7004774212837219,0.6562724709510803
1630501847024,0.6899012327194214,0.3904225528240204,0.7420941591262817,0.6562724709510803
1630501847122,0.6899012327194214,0.3904225528240204,0.7689368724822998,0.6562724709510803
1630501847244,0.6899012327194214,0.3904225528240204,0.7714249491691589,0.6562724709510803
1630501847336,0.6899012327194214,0.3904225528240204,0.7562189698219299,0.6562724709510803
1630501847414,0.6899012327194214,0.3904225528240204,0.7336536049842834,0.6562724709510803
1630501847523,0.6899012327194214,0.33663010597229,0.7098157405853271,0.7008953094482422
1630501847618,0.6899012327194214,0.2548905313014984,0.7087159156799316,0.7008953094482422
1630501847728,0.6899012327194214,0.1864193081855774,0.7039162516593933,0.7008953094482422
1630501847867,0.6899012327194214,0.1282887458801269,0.690388023853302,0.7008953094482422
1630501847946,0.6899012327194214,0.0336058475077152,0.6621673703193665,0.7008953094482422
1630501848039,0.6899012327194214,0.0438561588525772,0.6201635599136353,0.7008953094482422
1630501848134,0.0417724400758743,0.0479559004306793,0.5759956240653992,0.25079146027565
1630501848230,0.0420275963842868,0.0456949695944786,0.5384798645973206,0.3045571744441986
1630501848322,0.0519829951226711,0.0347371287643909,0.4963241219520569,0.3465019464492798
1630501848449,0.0882624089717865,0.0201663933694362,0.4250694513320923,0.3950163424015045
1630501848557,0.1596601754426956,0.0175479911267757,0.3156079053878784,0.4615114033222198
1630501848651,0.2736063301563263,0.0472005233168602,0.1933096796274185,0.537223219871521
1630501848758,0.2736063301563263,0.1071468368172645,0.1121642515063285,0.6000152826309204
1630501848822,0.2736063301563263,0.1719248592853546,0.0927652269601821,0.6352565288543701
1630501848962,0.2736063301563263,0.2204741984605789,0.1028039827942848,0.6422407627105713
1630501849087,0.3904406130313873,0.2574413418769836,0.1130753681063652,0.6315147280693054
1630501849149,0.4348587989807129,0.2782871127128601,0.1149733439087867,0.6152909994125366
1630501849291,0.4597088098526001,0.2821975648403168,0.1093839108943939,0.5995208621025085
1630501849352,0.4947981536388397,0.2753625214099884,0.1008858010172844,0.5992977619171143
1630501849448,0.5297704935073853,0.2672640979290008,0.0974866151809692,0.6001165509223938
1630501849525,0.563308835029602,0.2659325897693634,0.101311445236206,0.5964858531951904
1630501849684,0.5955393314361572,0.2710736095905304,0.1090604960918426,0.5875515341758728
1630501849811,0.6230659484863281,0.2786275744438171,0.1157783940434455,0.5948126316070557
1630501849870,0.6524941325187683,0.2857310771942138,0.1201537325978279,0.6006397008895874
1630501849978,0.6803460717201233,0.30501589179039,0.1261437088251114,0.5999940037727356
1630501850073,0.7004232406616211,0.3575582802295685,0.1365841031074524,0.5818783640861511
1630501850135,0.6963565945625305,0.4548770487308502,0.1489162445068359,0.5333571434020996
1630501850275,0.6963565945625305,0.4503953754901886,0.1619234532117843,0.4496098756790161
1630501850369,0.6963565945625305,0.434217244386673,0.1766322404146194,0.3438918888568878
1630501850479,0.6963565945625305,0.4151108562946319,0.193263903260231,0.2518787384033203
1630501850575,0.6550830006599426,0.4045843780040741,0.2116328477859497,0.1998326331377029
1630501850669,0.638460636138916,0.4104258716106415,0.2323731184005737,0.1715779900550842
1630501850779,0.6310215592384338,0.4342386424541473,0.2637388110160827,0.1386623084545135
1630501850890,0.6310215592384338,0.4719635546207428,0.3110637366771698,0.1386623084545135
1630501850996,0.6310215592384338,0.5033308267593384,0.3655498623847961,0.1386623084545135
1630501851089,0.6310215592384338,0.5329725742340088,0.4143019616603851,0.1386623084545135
1630501851186,0.6310215592384338,0.5497141480445862,0.4318894147872925,0.1386623084545135
1630501851293,0.6310215592384338,0.5570593476295471,0.4537397623062134,0.1386623084545135
1630501851388,0.6310215592384338,0.5820245742797852,0.4792245328426361,0.1386623084545135
1630501851529,0.6310215592384338,0.6421518921852112,0.504281222820282,0.1386623084545135
1630501851623,0.6310215592384338,0.7085608243942261,0.5246763229370117,0.1386623084545135
1630501851690,0.6310215592384338,0.7237695455551147,0.5385077595710754,0.1386623084545135
1630501851798,0.6310215592384338,0.7580398321151733,0.5466562509536743,0.1386623084545135
1630501851891,0.6310215592384338,0.7504420280456543,0.5528464913368225,0.1386623084545135
1630501851983,0.6310215592384338,0.7229196429252625,0.5647768378257751,0.1386623084545135
1630501852108,0.6310215592384338,0.6924751996994019,0.5906751155853271,0.1386623084545135
1630501852186,0.6310215592384338,0.66511070728302,0.6352893114089966,0.1386623084545135
1630501852326,0.6310215592384338,0.640971302986145,0.6352893114089966,0.1386623084545135
1630501852389,0.6310215592384338,0.6214580535888672,0.6352893114089966,0.1386623084545135
1630501852484,0.6310215592384338,0.6215471625328064,0.6352893114089966,0.1386623084545135
1630501852564,0.6310215592384338,0.627849817276001,0.6352893114089966,0.1386623084545135
1630501852771,0.6310215592384338,0.647103488445282,0.6352893114089966,0.1386623084545135
1630501852799,0.6310215592384338,0.6798915266990662,0.6352893114089966,0.1386623084545135
1630501852939,0.6310215592384338,0.7163572907447815,0.6352893114089966,0.1386623084545135
1630501853003,0.6310215592384338,0.7419415712356567,0.6352893114089966,0.1386623084545135
1630501853100,0.6310215592384338,0.7452130913734436,0.6352893114089966,0.1386623084545135
1630501853209,0.6310215592384338,0.7277399897575378,0.6352893114089966,0.1386623084545135
1630501853337,0.6310215592384338,0.70516037940979,0.6352893114089966,0.1386623084545135
1630501853429,0.6310215592384338,0.69291752576828,0.5192846655845642,0.1386623084545135
1630501853526,0.6310215592384338,0.6906681656837463,0.4459152817726135,0.1386623084545135
1630501853651,0.6310215592384338,0.693408727645874,0.3879891633987427,0.1386623084545135
1630501853759,0.6310215592384338,0.7031787037849426,0.3516871035099029,0.1386623084545135
1630501853822,0.6310215592384338,0.7321037650108337,0.3371554613113403,0.1386623084545135
1630501853932,0.6310215592384338,0.778595507144928,0.3325851857662201,0.1386623084545135
1630501854041,0.6310215592384338,0.8232800960540771,0.3265937566757202,0.1386623084545135
1630501854135,0.6310215592384338,0.8509349226951599,0.3129346966743469,0.1386623084545135
1630501854245,0.6310215592384338,0.8579893708229065,0.3129346966743469,0.1386623084545135
1630501854328,0.6310215592384338,0.8577390313148499,0.3129346966743469,0.1386623084545135
1630501854417,0.6310215592384338,0.8469652533531189,0.3129346966743469,0.1386623084545135
1630501854575,0.6310215592384338,0.8222079873085022,0.3129346966743469,0.1386623084545135
1630501854638,0.6310215592384338,0.7906380295753479,0.2379313856363296,0.1386623084545135
1630501854779,0.6310215592384338,0.7706530094146729,0.1674424707889557,0.1386623084545135
1630501854841,0.6310215592384338,0.8382747173309326,0.1275360882282257,0.1386623084545135
1630501854936,0.6310215592384338,0.8775203227996826,0.1274727880954742,0.1386623084545135
1630501855063,0.6310215592384338,0.9193301796913148,0.1589352190494537,0.1386623084545135
1630501855156,0.6310215592384338,0.9676923751831056,0.2014615386724472,0.1386623084545135
1630501855249,0.6310215592384338,1.0162078142166138,0.2354876101016998,0.1386623084545135
1630501855358,0.6310215592384338,1.0487658977508545,0.2354876101016998,0.1386623084545135
1630501855452,0.6310215592384338,1.0540757179260254,0.2354876101016998,0.1386623084545135
1630501855514,0.6310215592384338,1.0540757179260254,0.2354876101016998,0.1386623084545135
1630501855623,0.6310215592384338,1.0540757179260254,0.2354876101016998,0.1386623084545135
1630501855796,0.6310215592384338,1.0540757179260254,0.2354876101016998,0.1386623084545135
1630501855861,0.6310215592384338,0.801154613494873,-0.2250643223524093,0.1386623084545135
1630501855970,0.6310215592384338,0.7177358865737915,-0.1024514883756637,0.1386623084545135
1630501856078,0.6310215592384338,0.6475421786308289,0.0039492142386734,0.1386623084545135
1630501856141,0.6310215592384338,0.5859086513519287,0.0781993418931961,0.1386623084545135
1630501856252,0.6310215592384338,0.5333241820335388,0.1189724430441856,0.1386623084545135
1630501856392,0.6310215592384338,0.2544223070144653,0.1405578404664993,0.1386623084545135
1630501856485,0.6310215592384338,0.0910153910517692,0.1538743674755096,0.1386623084545135
1630501856595,0.6310215592384338,0.3142569065093994,0.1597557067871093,0.1386623084545135
1630501856658,0.6310215592384338,0.4879660606384277,0.1551419198513031,0.1386623084545135
1630501856752,0.6310215592384338,0.5859884023666382,0.1392013728618621,0.1386623084545135
1630501856850,0.6310215592384338,0.6198776960372925,0.1174560263752937,0.1386623084545135
1630501856989,0.6310215592384338,0.6122342944145203,0.0950426906347274,0.1386623084545135
1630501857084,0.6310215592384338,0.589128851890564,0.0927001312375068,0.1386623084545135
1630501857191,0.6310215592384338,0.5660622715950012,0.0887334123253822,0.1386623084545135
1630501857286,0.6310215592384338,0.5602166056632996,0.0880669578909874,0.1386623084545135
1630501857365,0.6310215592384338,0.5593432784080505,0.0921931862831115,0.1386623084545135
1630501857490,0.6310215592384338,0.5652815699577332,0.1054264232516288,0.1386623084545135
1630501857616,0.6310215592384338,0.5897048115730286,0.1253338009119033,0.1386623084545135
1630501857695,0.6310215592384338,0.6376002430915833,0.1476455330848693,0.1386623084545135
1630501857791,0.6310215592384338,0.6945419311523438,0.1739002168178558,0.1386623084545135
1630501857882,0.6310215592384338,0.7370580434799194,0.2004304230213165,0.1386623084545135
1630501857990,0.6310215592384338,0.7453985214233398,0.2201994657516479,0.1386623084545135
1630501858086,0.6310215592384338,0.7123832702636719,0.2331167161464691,0.1386623084545135
1630501858234,0.6310215592384338,0.6460632085800171,0.2446475774049759,0.1386623084545135
1630501858324,0.6310215592384338,0.5709713101387024,0.2607172429561615,0.1386623084545135
1630501858386,0.6310215592384338,0.5190901160240173,0.2790329158306122,0.1386623084545135
1630501858498,0.6310215592384338,0.504036009311676,0.295833557844162,0.1386623084545135
1630501858590,0.6310215592384338,0.5087797045707703,0.311351865530014,0.1386623084545135
1630501858684,0.6310215592384338,0.5151787996292114,0.3262637555599212,0.1386623084545135
1630501858829,0.6310215592384338,0.5201224088668823,0.3371403515338897,0.1386623084545135
1630501858923,0.6310215592384338,0.5291568636894226,0.3394291996955871,0.1386623084545135
1630501859030,0.6310215592384338,0.547821581363678,0.3305608928203583,0.1386623084545135
1630501859124,0.6310215592384338,0.5713205933570862,0.3130319714546203,0.1386623084545135
1630501859259,0.6310215592384338,0.584064245223999,0.2881887257099151,0.1386623084545135
1630501859294,0.6310215592384338,0.5761071443557739,0.2536559104919433,0.1386623084545135
1630501859423,0.6310215592384338,0.5529671311378479,0.2087030112743377,0.1386623084545135
1630501859512,0.6310215592384338,0.531886637210846,0.1597785800695419,0.1386623084545135
1630501859607,0.6310215592384338,0.5219153761863708,0.1133922934532165,0.1386623084545135
1630501859685,0.6310215592384338,0.5194603800773621,0.0723100751638412,0.1386623084545135
1630501859828,0.6310215592384338,0.5171700716018677,0.0359416268765926,0.1386623084545135
1630501859890,0.6310215592384338,0.5152096152305603,0.0087109906598925,0.1386623084545135
1630501860061,0.6310215592384338,0.5191752314567566,-0.0046158591285347,0.1386623084545135
1630501860155,0.6310215592384338,0.5336742401123047,-0.007823146879673,0.1386623084545135
1630501860217,0.6310215592384338,0.5540618300437927,-0.0094817066565155,0.1386623084545135
1630501860326,0.6310215592384338,0.5695465803146362,-0.0124673321843147,0.1386623084545135
1630501860422,0.6310215592384338,0.570776104927063,-0.0200495887547731,0.1386623084545135
1630501860517,0.6310215592384338,0.5509151816368103,-0.0382259897887706,0.1386623084545135
1630501860659,0.6310215592384338,0.5092328190803528,-0.0667256340384483,0.1386623084545135
1630501860755,0.6310215592384338,0.468521773815155,-0.0918817147612571,0.1386623084545135
1630501860870,0.6310215592384338,0.4579583704471588,-0.1029752865433693,0.1386623084545135
1630501860959,0.6310215592384338,0.4816029369831085,-0.0983297079801559,0.1386623084545135
1630501861021,0.6310215592384338,0.4816383123397827,-0.0819821432232856,0.1386623084545135
1630501861115,0.6310215592384338,0.4990100562572479,-0.0561836250126361,0.1386623084545135
1630501861258,0.6310215592384338,0.5234203338623047,-0.0268542524427175,0.1386623084545135
1630501861352,0.6310215592384338,0.5520126819610596,-0.0027373181656003,0.1386623084545135
1630501861491,0.6310215592384338,0.5810802578926086,0.0075996364466845,0.1386623084545135
1630501861535,0.6310215592384338,0.6036174297332764,0.0059689921326935,0.1386623084545135
1630501861661,0.6310215592384338,0.6127297878265381,0.0099534355103969,0.1386623084545135
1630501861763,0.6310215592384338,0.613444447517395,0.0351302474737167,0.1386623084545135
1630501861852,0.6310215592384338,0.6249325275421143,0.0818254947662353,0.1386623084545135
1630501861962,0.6310215592384338,0.6654919981956482,0.135178729891777,0.1386623084545135
1630501862072,0.6310215592384338,0.7526993155479431,0.1778444498777389,0.1386623084545135
1630501862150,0.6310215592384338,0.7833541035652161,0.2002577930688858,0.1386623084545135
1630501862257,0.6310215592384338,0.7439934015274048,0.2038122564554214,0.1386623084545135
1630501862319,0.6310215592384338,0.6320029497146606,0.1960067600011825,0.1386623084545135
1630501862475,0.6310215592384338,0.4519819021224975,0.1851930916309356,0.1386623084545135
1630501862570,0.6310215592384338,0.398622453212738,0.1736601889133453,0.1386623084545135
1630501862679,0.6310215592384338,0.3489713370800018,0.1598595231771469,0.1386623084545135
1630501862742,0.6310215592384338,0.3028478324413299,0.1442233026027679,0.1386623084545135
1630501862867,0.6310215592384338,0.2614472806453705,0.1276493221521377,0.1386623084545135
1630501862943,0.6310215592384338,0.2256426513195037,0.1136747822165489,0.553289532661438
1630501863085,0.1641527116298675,0.1967763602733612,0.1010384038090705,0.5833830237388611
1630501863194,0.3046165108680725,0.1747026741504669,0.079224981367588,0.6095703840255737
1630501863272,0.394195944070816,0.1588531136512756,0.0397964902222156,0.626966118812561
1630501863366,0.4279131591320038,0.1456784307956695,-0.0237416718155145,0.6409206390380859
1630501863477,0.4279131591320038,0.133877620100975,-0.1074551790952682,0.6409206390380859
1630501863554,0.4279131591320038,-0.0006765628349967,-0.1906519681215286,0.6409206390380859
1630501863726,0.4279131591320038,-0.0576818212866783,-0.236701488494873,0.6409206390380859
1630501863790,0.4279131591320038,0.0286685954779386,-0.2264286279678344,0.6409206390380859
1630501863882,0.4279131591320038,0.1883503049612045,-0.1775055974721908,0.6409206390380859
1630501863992,0.4279131591320038,0.331470787525177,-0.1269586831331253,0.6409206390380859
1630501864087,0.4279131591320038,0.4271867871284485,-0.0931987166404724,0.6409206390380859
1630501864151,0.4279131591320038,0.476136714220047,-0.0739141106605529,0.6641191840171814
1630501864325,0.4722790122032165,0.4931736588478088,-0.0554820075631141,0.6843894720077515
1630501864389,0.529941201210022,0.4967232942581177,-0.0221673287451267,0.7017490267753601
1630501864493,0.5904620289802551,0.4980326890945434,0.0299887489527463,0.7138039469718933
1630501864590,0.5904620289802551,0.5016900897026062,0.0897775813937187,0.7138039469718933
1630501864685,0.5904620289802551,0.5075188875198364,0.142433151602745,0.7138039469718933
1630501864793,0.5904620289802551,0.5302355289459229,0.1775086373090744,0.7138039469718933
1630501864920,0.5904620289802551,0.5546787977218628,0.1909125298261642,0.7138039469718933
1630501865029,0.5904620289802551,0.5815814137458801,0.2040091156959533,0.7138039469718933
1630501865123,0.5904620289802551,0.6099068522453308,0.2181721180677414,0.8797765374183655
1630501865185,0.5904620289802551,0.6312105655670166,0.2315640598535537,0.839869499206543
1630501865326,0.5904620289802551,0.6262500882148743,0.2405871152877807,0.8311980962753296
1630501865388,0.5904620289802551,0.5724274516105652,0.2456736117601394,0.8477239608764648
1630501865559,0.5904620289802551,0.45311039686203,0.2547946572303772,0.8818633556365967
1630501865623,0.5904620289802551,0.2659627199172973,0.2782818078994751,0.8818633556365967
1630501865748,0.5904620289802551,0.0548429079353809,0.3180690109729767,0.8818633556365967
1630501865825,0.5904620289802551,-0.0650531724095344,0.3648631870746612,0.8818633556365967
1630501865920,0.5904620289802551,-0.0650531724095344,0.4056420624256134,0.8818633556365967
1630501865981,0.5904620289802551,-0.0650531724095344,0.4056420624256134,0.8818633556365967
1630501866152,0.5904620289802551,-0.0650531724095344,0.4056420624256134,0.8818633556365967
1630501866230,0.5904620289802551,-0.0650531724095344,0.4056420624256134,0.8818633556365967
1630501866324,0.5904620289802551,-0.0650531724095344,0.4056420624256134,0.8502016663551331
1630501866419,0.5904620289802551,-0.0650531724095344,0.4056420624256134,0.8287492990493774
1630501866525,0.5904620289802551,-0.0650531724095344,0.4056420624256134,0.8399443626403809
1630501866620,0.5904620289802551,0.0325016118586063,0.4056420624256134,0.8839401602745056
1630501866761,0.5904620289802551,-0.0147699201479554,0.4056420624256134,0.8839401602745056
1630501866824,0.5904620289802551,-0.0404036231338977,0.4056420624256134,0.8839401602745056
1630501866935,0.5904620289802551,-0.0494121275842189,0.4056420624256134,0.8839401602745056
1630501867043,0.5904620289802551,-0.0507393255829811,0.4056420624256134,0.8839401602745056
1630501867106,0.5904620289802551,-0.0500343441963195,0.4056420624256134,0.585502564907074
1630501867199,0.5904620289802551,-0.0556736513972282,0.4056420624256134,0.585502564907074
1630501867373,0.5904620289802551,-0.0684583932161331,0.4056420624256134,0.585502564907074
1630501867435,0.5904620289802551,-0.0835164934396743,0.4056420624256134,0.585502564907074
1630501867546,0.5904620289802551,-0.0964899733662605,0.4056420624256134,0.585502564907074
1630501867641,0.5904620289802551,-0.1077523529529571,0.4056420624256134,0.585502564907074
1630501867733,0.5904620289802551,-0.1174395158886909,0.4056420624256134,0.585502564907074
1630501867844,0.5904620289802551,-0.1496270149946212,0.4056420624256134,0.585502564907074
1630501867971,0.5904620289802551,-0.1680692732334137,0.4056420624256134,0.585502564907074
1630501868066,0.5904620289802551,-0.1444569826126098,0.4056420624256134,0.585502564907074
1630501868142,0.5904620289802551,-0.0740267485380172,0.4056420624256134,0.585502564907074
1630501868236,0.5904620289802551,0.0108545776456594,0.4056420624256134,0.585502564907074
1630501868345,0.5904620289802551,0.0716868340969085,0.4056420624256134,0.585502564907074
1630501868437,0.5904620289802551,0.0989110544323921,0.4056420624256134,0.585502564907074
1630501868579,0.5904620289802551,0.1022228747606277,-0.5417542457580566,0.585502564907074
1630501868672,0.5904620289802551,0.0957209840416908,-0.5542150735855103,0.585502564907074
1630501868767,0.5904620289802551,0.0897070989012718,-0.5620220899581909,0.585502564907074
1630501868878,0.5904620289802551,0.0872393995523452,-0.561351478099823,0.585502564907074
1630501868935,0.5904620289802551,0.0892530381679534,-0.5356439352035522,0.585502564907074
1630501869034,0.5904620289802551,0.0973191410303115,-0.4600113034248352,0.585502564907074
1630501869175,0.5904620289802551,0.108746238052845,-0.3430197238922119,0.585502564907074
1630501869268,0.5904620289802551,0.1173268482089042,-0.2333433181047439,0.476659208536148
1630501869378,0.601348876953125,0.119154468178749,-0.1627629548311233,0.4718208312988281
1630501869472,0.5722578167915344,0.1125648766756057,-0.1319265514612198,0.4671383798122406
1630501869581,0.5722578167915344,0.0890990644693374,-0.1279961466789245,0.4671383798122406
1630501869675,0.5722578167915344,0.0444652140140533,-0.1346925944089889,0.4671383798122406
1630501869815,0.5722578167915344,0.0053870836272835,-0.1191348955035209,0.4671383798122406
1630501869909,0.5722578167915344,0.0448930114507675,-0.0885002836585044,0.4671383798122406
1630501870021,0.5722578167915344,0.1756712198257446,-0.0460067875683307,0.4671383798122406
1630501870084,0.5722578167915344,0.3175573647022247,-0.0054114572703838,0.4671383798122406
1630501870178,0.5722578167915344,0.417754590511322,0.0216996520757675,0.4671383798122406
1630501870240,0.5722578167915344,0.471407949924469,0.0379391126334667,0.4671383798122406
1630501870412,0.5722578167915344,0.4947253763675689,0.050543438643217,0.4671383798122406
1630501870490,0.5722578167915344,0.5029944181442261,0.061576671898365,0.4777491986751556
1630501870584,0.5693470239639282,0.503695547580719,0.0665300190448761,0.4844948053359985
1630501870693,0.5693470239639282,0.5014133453369141,0.0596057251095771,0.4844948053359985
1630501870802,0.5693470239639282,0.5003921985626221,0.0414563789963722,0.4844948053359985
1630501870849,0.5693470239639282,0.5019519925117493,0.0189666263759136,0.4844948053359985
1630501871025,0.5693470239639282,0.5058799386024475,-0.0012589996913447,0.4844948053359985
1630501871118,0.5693470239639282,0.5114209651947021,-0.01558768004179,0.4844948053359985
1630501871212,0.4903035163879394,0.5162639617919922,-0.0248331483453512,0.2263498604297638
1630501871290,0.5504973530769348,0.5129360556602478,-0.0359190255403518,0.3129073977470398
1630501871400,0.5907469987869263,0.4848473370075226,-0.0565231442451477,0.3930131793022156
1630501871478,0.6217821836471558,0.416214108467102,-0.0853903219103813,0.4698415398597717
1630501871618,0.6529542207717896,0.303631067276001,-0.1096654534339904,0.5419629216194153
1630501871743,0.6819862723350525,0.1655857264995575,-0.115385465323925,0.5996724367141724
1630501871821,0.7025002241134644,0.0444001890718936,-0.1099438667297363,0.6343820691108704
1630501871915,0.7115803360939026,-0.0263916980475187,-0.1101042330265045,0.6442075371742249
1630501872011,0.710608959197998,-0.040616326034069,-0.1221720576286315,0.6357725262641907
1630501872074,0.7031278610229492,-0.0009198380867019,-0.1406956017017364,0.6190342903137207
1630501872245,0.6931728720664978,0.0798838585615158,-0.1599915027618408,0.6029542684555054
1630501872339,0.6824100017547607,0.1665526330471038,-0.1795683205127716,0.5915445685386658
1630501872417,0.688387930393219,0.233444482088089,-0.1970577389001846,0.6045024991035461
1630501872511,0.6904746294021606,0.2677814960479736,-0.2062652707099914,0.6174859404563904
1630501872620,0.6863617897033691,0.272993266582489,-0.2066534608602523,0.6283122897148132
1630501872714,0.6741384267807007,0.260162353515625,-0.199453666806221,0.6333703994750977
1630501872855,0.6556342840194702,0.2398881316184997,-0.1897501200437545,0.6294593811035156
1630501872949,0.634463906288147,0.247061014175415,-0.1820922046899795,0.6122431755065918
1630501873042,0.611131489276886,0.2599730193614959,-0.1828773766756057,0.5780006051063538
1630501873104,0.5839316248893738,0.2803833186626434,-0.1902940422296524,0.5261428356170654
1630501873214,0.5550205111503601,0.3087795674800873,-0.1996838599443435,0.4647713303565979
1630501873308,0.5207105278968811,0.3436704874038696,-0.1936590522527694,0.4130334258079529
1630501873433,0.4879064559936523,0.380577027797699,-0.1594547927379608,0.3923779428005218
1630501873542,0.4623421430587768,0.4104010760784149,-0.1050052195787429,0.4026365876197815
1630501873651,0.4456094205379486,0.4183664917945862,-0.0538073256611824,0.4240649938583374
1630501873745,0.434103786945343,0.3837691247463226,-0.0172778069972991,0.4388006031513214
1630501873854,0.4259333610534668,0.2775081694126129,0.0080884210765361,0.4412463009357452
1630501873917,0.4178987741470337,0.1012946963310241,0.0345023237168788,0.4338958263397217
1630501874077,0.4123652577400207,-0.0837444067001342,0.0651913881301879,0.4218841791152954
1630501874140,0.3721775114536285,-0.1817833334207534,0.094068206846714,0.4036759436130523
1630501874233,0.3354082405567169,-0.1743381023406982,0.1157643646001815,0.3817705512046814
1630501874343,0.2959131300449371,-0.1232373043894767,0.132737249135971,0.3619750142097473
1630501874437,0.2617799639701843,-0.1330823898315429,0.1480273306369781,0.3496003150939941
1630501874546,0.2399095296859741,-0.145991712808609,0.1614048928022384,0.3457316756248474
1630501874686,0.2150289267301559,-0.152875080704689,0.1678393483161926,0.3450601696968078
1630501874749,0.2408243864774704,-0.141838252544403,0.1668941527605056,0.3406922817230224
1630501874874,0.2448101341724395,-0.1093081310391426,0.1577683240175247,0.3260673284530639
1630501874952,0.2352273017168045,-0.0697878822684288,0.1411397159099578,0.2946107387542724
1630501875046,0.2314086705446243,-0.0406821221113204,0.1194286942481994,0.2500857412815094
1630501875139,0.2497630715370178,-0.0280951131135225,0.0962208956480026,0.2158805876970291
1630501875280,0.2910679876804352,-0.0243472773581743,0.0720087736845016,0.2250968217849731
1630501875374,0.3448897004127502,-0.036056138575077,0.0465882904827594,0.2782712280750274
1630501875483,0.4034043848514557,-0.0069706235080957,0.0150766735896468,0.3414134085178375
1630501875577,0.4586074650287628,0.0383541919291019,-0.0240130480378866,0.3868942260742187
1630501875639,0.5188857316970825,0.0787528753280639,-0.0645322203636169,0.4158892035484314
1630501875733,0.5597361922264099,0.1039852499961853,-0.1004253625869751,0.4380800724029541
1630501875905,0.5806934833526611,0.1132290884852409,-0.1330340504646301,0.4569414556026459
1630501875967,0.5855758190155029,0.1135828793048858,-0.1664215177297592,0.4738693833351135
1630501876092,0.5819475650787354,0.1118575930595398,-0.1994892507791519,0.4909051656723022
1630501876155,0.5779760479927063,0.1115833595395088,-0.2253045439720153,0.5113155245780945
1630501876264,0.5798093676567078,0.1092177703976631,-0.2411263436079025,0.5311646461486816
1630501876358,0.5900755524635315,0.0978014096617698,-0.2506750524044037,0.5462285876274109
1630501876499,0.6060915589332581,0.0757911577820777,-0.262014776468277,0.555819571018219
1630501876592,0.6203067898750305,0.0495206750929355,-0.2810894250869751,0.5623909831047058
1630501876701,0.6251540780067444,0.0298842210322618,-0.3054569661617279,0.5631374716758728
1630501876780,0.6170986890792847,0.0225509796291589,-0.3249044418334961,0.5487905144691467
1630501876858,0.595617949962616,0.0201040394604206,-0.3310315608978271,0.5129601359367371
1630501876998,0.5588709115982056,0.0111297061666846,-0.314187228679657,0.4649231433868408
1630501877126,0.5061669945716858,-0.011344782076776,-0.2721294164657593,0.4268831014633178
1630501877204,0.4446571469306946,-0.0417266860604286,-0.21839240193367,0.412934273481369
1630501877330,0.3928412795066833,-0.0655362978577613,-0.1744831800460815,0.4150192141532898
1630501877423,0.3657749891281128,-0.0730755701661109,-0.1531367748975753,0.4189521372318268
1630501877486,0.3644965291023254,-0.0653714463114738,-0.1536886841058731,0.4169723987579345
1630501877579,0.3768424987792969,-0.0474318191409111,-0.1655014753341674,0.4069313108921051
1630501877752,0.3917203843593597,-0.0259850360453128,-0.1779900193214416,0.3889053761959076
1630501877814,0.3997810781002044,-0.0091247120872139,-0.1860794574022293,0.3674041628837585
1630501877892,0.4019190371036529,0.0024825006257742,-0.1885114908218383,0.3480043411254883
1630501878001,0.4036320447921753,0.0145011711865663,-0.1869082897901535,0.3333607316017151
1630501878095,0.4085582494735718,0.0294656176120042,-0.1863467544317245,0.3180156052112579
1630501878189,0.4130073189735412,0.0403903201222419,-0.1895297169685363,0.2968746125698089
1630501878329,0.4111548960208893,0.0409196764230728,-0.1939965784549713,0.2940062582492828
1630501878423,0.4146092236042022,0.0466500669717788,-0.1962957084178924,0.2975276112556457
1630501878532,0.4244420826435089,0.1013837605714798,-0.2008860558271408,0.3061878681182861
1630501878626,0.441718727350235,0.2139421850442886,-0.2161421179771423,0.3078283369541168
1630501878704,0.4634426534175873,0.3325637280941009,-0.2409186214208603,0.2872374355792999
1630501878798,0.4850187599658966,0.4164590239524841,-0.2621830701828003,0.2400228679180145
1630501878923,0.50745689868927,0.4580142199993133,-0.2654160559177398,0.179959088563919
1630501879036,0.5295933485031128,0.4698939919471741,-0.2482737600803375,0.1316623091697693
1630501879129,0.5477397441864014,0.4673301875591278,-0.2210230976343155,0.1095782592892646
1630501879239,0.5581548810005188,0.458926111459732,-0.1943371444940567,0.0983192771673202
1630501879317,0.5682240724563599,0.4488880038261413,-0.1759421974420547,0.0792382657527923
1630501879395,0.5682240724563599,0.440054714679718,-0.1666031628847122,0.0792382657527923
1630501879551,0.5682240724563599,0.4335810840129852,-0.1600873917341232,0.0792382657527923
1630501879629,0.5682240724563599,0.4306147396564483,-0.1487626135349273,0.0792382657527923
1630501879723,0.5682240724563599,0.4320006966590881,-0.1332649886608123,0.0792382657527923
1630501879832,0.5437468886375427,0.4359022974967956,-0.1213727816939354,0.098036952316761
1630501879926,0.4982178807258606,0.4334610104560852,-0.1187640130519867,0.0868133679032325
1630501880020,0.4479253590106964,0.4054099917411804,-0.1217151135206222,0.0912147387862205
1630501880163,0.4008097350597381,0.3309780657291412,-0.1241777166724205,0.1082873046398162
1630501880256,0.3619647324085235,0.2028850466012954,-0.1254319846630096,0.1082873046398162
1630501880350,0.3355944156646728,0.0392401739954948,-0.1320250928401947,0.1082873046398162
1630501880444,0.3215758800506592,-0.1047116518020629,-0.148525521159172,0.1082873046398162
1630501880537,0.313324511051178,-0.1804781556129455,-0.174465999007225,0.1082873046398162
1630501880616,0.3036851584911346,-0.2012047618627548,-0.2062168270349502,0.1082873046398162
1630501880772,0.2909254133701324,-0.1911998391151428,-0.2404152452945709,0.1082873046398162
1630501880881,0.2777188122272491,-0.1566325724124908,-0.2706140279769897,0.1082873046398162
1630501880944,0.2654972672462463,-0.1146208494901657,-0.2921496331691742,0.1082873046398162
1630501881056,0.220132902264595,-0.0867310389876365,-0.307854026556015,0.0660713762044906
1630501881134,0.182724118232727,-0.0851311013102531,-0.3238532245159149,0.0683387070894241
1630501881243,0.1737636923789978,-0.1054691299796104,-0.3381937444210052,0.0926717072725296
1630501881368,0.205278679728508,-0.131953939795494,-0.3434614539146423,0.0926717072725296
1630501881477,0.2579622864723205,-0.1469266712665558,-0.3348830640316009,0.0926717072725296
1630501881587,0.3175652325153351,-0.1358926147222519,-0.3196781277656555,0.0926717072725296
1630501881665,0.3872414827346802,-0.0994198396801948,-0.3054103255271911,0.0926717072725296
1630501881743,0.4688772857189178,-0.0533734038472175,-0.2891424000263214,0.0926717072725296
1630501881829,0.544849693775177,-0.0177783127874135,-0.2553345859050751,0.0926717072725296
1630501881986,0.5971003174781799,6.769626634195447e-05,-0.1980754286050796,0.0926717072725296
1630501882079,0.6253204941749573,0.0067057511769235,-0.1306776255369186,0.0926717072725296
1630501882190,0.6382019519805908,0.0085034845396876,-0.0717112123966217,0.0926717072725296
1630501882283,0.6444305777549744,0.002066338667646,-0.0303990766406059,0.0926717072725296
1630501882376,0.6491222977638245,-0.0187829211354255,-0.0058056842535734,0.0926717072725296
1630501882439,0.6535128355026245,-0.0511545464396476,0.008101062849164,0.0926717072725296
1630501882579,0.6563380360603333,-0.0818144530057907,0.0182575304061174,0.5690850019454956
1630501882676,0.6542593836784363,-0.0979973673820495,0.0317331328988075,0.5693323612213135
1630501882771,0.641464114189148,-0.1001393795013427,0.0516797453165054,0.5663160085678101
1630501882874,0.6164306998252869,-0.1007051318883895,0.0758579075336456,0.5471423268318176
1630501882967,0.5849374532699585,-0.1126381307840347,0.0998117923736572,0.5471423268318176
1630501883080,0.5487600564956665,-0.1452577710151672,0.1227222755551338,0.5471423268318176
1630501883205,0.5023608803749084,-0.1946479678153991,0.1447534710168838,0.5471423268318176
1630501883299,0.4352829754352569,-0.240894541144371,0.1619091629981994,0.5399848222732544
1630501883377,0.3517048954963684,-0.2578635215759277,0.1663834750652313,0.5391104221343994
1630501883472,0.2789384126663208,-0.2443563044071197,0.1526471376419067,0.5275987982749939
1630501883576,0.2407852411270141,-0.2229961156845092,0.1247547790408134,0.5034012198448181
1630501883685,0.2350346595048904,-0.2059645354747772,0.0945398211479187,0.4732265174388885
1630501883821,0.2407969534397125,-0.1881869435310363,0.0742466151714325,0.428475022315979
1630501883899,0.2415094375610351,-0.1624399721622467,0.0654730498790741,0.3857075273990631
1630501884008,0.2349475771188736,-0.1310465186834335,0.0605954676866531,0.3435305058956146
1630501884086,0.226318210363388,-0.1035670116543769,0.0522067174315452,0.297567069530487
1630501884183,0.219879001379013,-0.0876129940152168,0.0397336147725582,0.2432735413312912
1630501884292,0.2252899259328842,-0.082357533276081,0.0299969762563705,0.1938648819923401
1630501884433,0.253655344247818,-0.0817051902413368,0.030337193980813,0.1790025979280471
1630501884527,0.3028221726417541,-0.0808556675910949,0.0383378006517887,0.1987857967615127
1630501884636,0.357632040977478,-0.0797506421804428,0.0404025353491306,0.2165487259626388
1630501884698,0.3981014490127563,-0.0851811915636062,0.0263340584933757,0.2267492115497589
1630501884792,0.4157530069351196,-0.1040483266115188,0.0001967042771866,0.2106294631958007
1630501884901,0.4175107181072235,-0.1357942074537277,-0.0206649005413055,0.200581207871437
1630501885058,0.4170640110969543,-0.1706461906433105,-0.0202430598437786,0.2307896316051483
1630501885120,0.4211568236351013,-0.1943950355052948,-0.0020566689781844,0.291351854801178
1630501885233,0.4257346987724304,-0.1976037174463272,0.020516064018011,0.3463257253170013
1630501885326,0.4267416298389435,-0.1852950602769851,0.0402955152094364,0.3766564130783081
1630501885389,0.4244743585586548,-0.1741374880075454,0.0595725551247596,0.3902821242809295
1630501885529,0.4215510189533233,-0.178632378578186,0.0823500528931617,0.4092509746551513
1630501885654,0.4186732470989227,-0.2000393569469452,0.1072621271014213,0.4531278312206268
1630501885732,0.4162356555461883,-0.2278814762830734,0.1260309368371963,0.5186591148376465
1630501885842,0.4102924764156341,-0.250646024942398,0.1291189640760421,0.5824166536331177
1630501885938,0.3945305943489074,-0.2649286985397339,0.1118601337075233,0.6244234442710876
1630501886032,0.3618421256542206,-0.2709148824214935,0.0786767452955246,0.6402587294578552
1630501886125,0.3175229728221893,-0.2677011489868164,0.0410019531846046,0.6385549902915955
1630501886297,0.2895548641681671,-0.2528324723243713,0.0111671332269907,0.6347599029541016
1630501886328,0.3113385736942291,-0.2251133620738983,-0.0048637883737683,0.6385694146156311
1630501886443,0.3693282902240753,-0.1866275072097778,-0.0076855039224028,0.6459673047065735
1630501886537,0.4218131601810455,-0.1448127329349517,-0.001335202017799,0.6484503746032715
1630501886615,0.4480692148208618,-0.1112978532910347,0.0079648625105619,0.6459070444107056
1630501886724,0.4558292329311371,-0.0979400053620338,0.0124729257076978,0.6460745930671692
1630501886880,0.4638004004955292,-0.1069270893931388,0.006664871238172,0.6538666486740112
1630501886943,0.4819474220275879,-0.1237271651625633,-0.0102358907461166,0.6641955971717834
1630501887083,0.5102213621139526,-0.123243860900402,-0.0349602848291397,0.6687734723091125
1630501887146,0.5448887944221497,-0.0923727825284004,-0.0609710253775119,0.662352442741394
1630501887242,0.5800631046295166,-0.0402917824685573,-0.0783548057079315,0.6451476812362671
1630501887351,0.6032159328460693,0.0215993076562881,-0.0767320841550827,0.6107504963874817
1630501887476,0.6271412372589111,0.0927342027425766,-0.0534420758485794,0.5795073509216309
1630501887570,0.6535525918006897,0.1771757304668426,-0.0142059801146388,0.5701314806938171
1630501887679,0.6818058490753174,0.2685544192790985,0.0327299498021602,0.5854609608650208
1630501887742,0.7045141458511353,0.3485329747200012,0.0783008933067321,0.609428346157074
1630501887844,0.7089735865592957,0.4041125476360321,0.1146970987319946,0.6252187490463257
1630501887942,0.6894649267196655,0.4326403439044952,0.1344508230686187,0.6284312009811401
1630501888051,0.6554576754570007,0.4407391250133514,0.1362049430608749,0.6225511431694031
1630501888160,0.6296771764755249,0.4388507306575775,0.1263286024332046,0.612126886844635
1630501888254,0.629819393157959,0.4350280463695526,0.1156746968626976,0.6011490821838379
1630501888363,0.6506137847900391,0.431147038936615,0.1110529527068138,0.5953588485717773
1630501888457,0.6506137847900391,0.426550954580307,0.111252337694168,0.5953588485717773
1630501888566,0.6506137847900391,0.4194257855415344,0.1122664660215377,0.5953588485717773
1630501888691,0.6506137847900391,0.4093091487884521,0.1127345040440559,0.5953588485717773
1630501888801,0.6506137847900391,0.3977886438369751,0.1103428900241851,0.5953588485717773
1630501888863,0.3648353219032287,0.3837634921073913,0.0994455218315124,0.4334214925765991
1630501888959,0.4109813272953033,0.3610281646251678,0.0769672989845275,0.4334214925765991
1630501889069,0.4216333925724029,0.3178970217704773,0.0430327728390693,0.4334214925765991
1630501889162,0.4050078690052032,0.2435941994190216,-0.0003079206799156,0.4334214925765991
1630501889287,0.3788247108459472,0.1404304951429367,-0.0510421432554721,0.4334214925765991
1630501889397,0.3560822606086731,0.0272956881672143,-0.1054015532135963,0.4334214925765991
1630501889490,0.3560822606086731,-0.0628698617219924,-0.1534189581871032,0.4334214925765991
1630501889600,0.3560822606086731,-0.1097529903054237,-0.1884557157754898,0.4334214925765991
1630501889662,0.3560822606086731,-0.1238875910639762,-0.2157571464776992,0.4334214925765991
1630501889756,0.3560822606086731,-0.1239659115672111,-0.2446789741516113,0.4334214925765991
1630501889944,0.3560822606086731,-0.1169061511754989,-0.2766831517219543,0.4334214925765991
1630501889990,0.3560822606086731,-0.108477845788002,-0.3047049343585968,0.4334214925765991
1630501890100,0.3678316175937652,-0.1019481047987937,-0.323058545589447,0.4334214925765991
1630501890193,0.3859030902385711,-0.100086934864521,-0.337499588727951,0.4334214925765991
1630501890287,0.3847203850746155,-0.1063517853617668,-0.3528784811496734,0.4334214925765991
1630501890381,0.3489505052566528,-0.1212746873497963,-0.3637980222702026,0.4334214925765991
1630501890508,0.275979071855545,-0.1426173597574234,-0.367725521326065,0.4334214925765991
1630501890603,0.275979071855545,-0.1667655855417251,-0.3689632713794708,0.4334214925765991
1630501890713,0.275979071855545,-0.1925786435604095,-0.3680600821971893,0.3610931634902954
1630501890806,0.275979071855545,-0.2184012681245803,-0.3571937680244446,0.3844470381736755
1630501890900,0.275979071855545,-0.236565425992012,-0.3335720300674438,0.3995630443096161
1630501890980,0.275979071855545,-0.2334819734096527,-0.308049201965332,0.4055673778057098
1630501891121,0.5187256932258606,-0.1997245401144027,-0.2883045375347137,0.3979997038841247
1630501891214,0.4992350935935974,-0.1470078378915786,-0.268783301115036,0.379103273153305
1630501891324,0.4786668717861175,-0.0971752926707267,-0.251546561717987,0.3555427491664886
1630501891418,0.4588109254837036,-0.0923128575086593,-0.2334540784358978,0.3307896852493286
1630501891511,0.4515635967254638,-0.0857390165328979,-0.2155000269412994,0.3061086535453796
1630501891589,0.4739839136600494,-0.0772031620144844,-0.2030236721038818,0.3061086535453796
1630501891746,0.4739839136600494,-0.0674152299761772,-0.196261391043663,0.3061086535453796
1630501891839,0.4739839136600494,-0.0570412501692771,-0.1917367577552795,0.3061086535453796
1630501891902,0.4739839136600494,-0.0452359057962894,-0.1853376924991607,0.314103752374649
1630501892015,0.4739839136600494,-0.0286976769566535,-0.1722913235425949,0.312449961900711
1630501892124,0.4739839136600494,-0.0013117516646161,-0.1491772234439849,0.2995325624942779
1630501892187,0.4739839136600494,0.0424935743212699,-0.1222498267889022,0.2757644057273865
1630501892359,0.4565536677837372,0.1013602837920188,-0.1037128344178199,0.2400030940771103
1630501892452,0.4446355998516083,0.168947696685791,-0.1051148846745491,0.1868688911199569
1630501892515,0.4374440908432007,0.168947696685791,-0.1051148846745491,0.1120848059654235
1630501892624,0.4345439374446869,0.168947696685791,-0.1051148846745491,0.029338676482439
1630501892718,0.440203994512558,0.168947696685791,-0.1051148846745491,0.029338676482439
1630501892827,0.440203994512558,0.168947696685791,-0.1051148846745491,0.029338676482439
1630501892952,0.440203994512558,0.168947696685791,-0.1051148846745491,0.029338676482439
1630501893061,0.440203994512558,0.168947696685791,-0.1051148846745491,0.029338676482439
1630501893124,0.440203994512558,0.168947696685791,-0.1051148846745491,0.029338676482439
1630501893233,0.440203994512558,0.168947696685791,-0.1051148846745491,0.029338676482439
1630501893327,0.440203994512558,0.0513099059462547,-0.1051148846745491,0.029338676482439
1630501893405,0.440203994512558,0.0757860392332077,-0.1051148846745491,0.029338676482439
1630501893577,0.5949289202690125,0.0752826407551765,-0.1051148846745491,0.029338676482439
1630501893671,0.6418628692626953,0.059889517724514,-0.1051148846745491,0.029338676482439
1630501893796,0.6575402617454529,0.0418402962386608,-0.308873176574707,0.029338676482439
1630501893827,0.6478261947631836,0.0340087413787841,-0.3619602918624878,0.029338676482439
1630501893968,0.6253180503845215,0.0348461046814918,-0.4118700325489044,0.029338676482439
1630501894061,0.6047500371932983,0.0400273129343986,-0.4455702006816864,0.029338676482439
1630501894233,0.5994108319282532,0.0481794960796833,-0.4603111147880554,0.029338676482439
1630501894264,0.6099497675895691,0.0578334927558898,-0.4604607820510864,0.029338676482439
1630501894358,0.6263220906257629,0.063613437116146,-0.4473398327827453,0.029338676482439
1630501894467,0.6382759213447571,0.0609287694096565,-0.4210027158260345,0.3471601903438568
1630501894561,0.6416456699371338,0.0535497106611728,-0.3871849477291107,0.3605120480060577
1630501894670,0.639133632183075,0.040168460458517,-0.3574984669685364,0.374708741903305
1630501894795,0.645209789276123,0.018399067223072,-0.3410065770149231,0.3723890781402588
1630501894905,0.6430748701095581,-0.0183618944138288,-0.3371899127960205,0.2800080180168152
1630501894968,0.6284630298614502,-0.0598263218998909,-0.3554795384407043,0.262220561504364
1630501895093,0.6041139364242554,-0.0960971787571907,-0.3599702715873718,0.2563872039318084
1630501895155,0.5753653049468994,-0.1218267530202865,-0.3523250222206116,0.2698808908462524
1630501895248,0.5620570778846741,-0.1379002779722213,-0.3291953504085541,0.2698808908462524
1630501895389,0.5602831244468689,-0.1436618864536285,-0.2979564666748047,0.2698808908462524
1630501895483,0.5699805617332458,-0.1175380125641822,-0.2695592045783996,0.2698808908462524
1630501895576,0.5830852389335632,-0.0406025871634483,-0.2507661581039428,0.2698808908462524
1630501895670,0.5864288210868835,-0.0556825511157512,-0.2345709055662155,0.2698808908462524
1630501895764,0.5712689757347107,-0.0776542797684669,-0.2211762815713882,0.2942880988121032
1630501895858,0.5375798344612122,-0.1007832437753677,-0.2123343795537948,0.3107881844043731
1630501895998,0.4937653839588165,-0.1138150617480278,-0.2116406559944152,0.3143183290958404
1630501896076,0.4522578716278076,-0.1094866469502449,-0.2211937606334686,0.2960672378540039
1630501896170,0.4148322939872741,-0.0889853537082672,-0.2364120483398437,0.2606819570064544
1630501896279,0.3824458122253418,-0.0554671809077262,-0.2455571293830871,0.2324488013982772
1630501896373,0.3824458122253418,-0.0098794512450695,-0.2399461418390274,0.2324488013982772
1630501896482,0.3824458122253418,0.0479402318596839,-0.2214238345623016,0.2324488013982772
1630501896607,0.3824458122253418,0.1182698234915733,-0.1991519480943679,0.2324488013982772
1630501896717,0.3824458122253418,0.2012113183736801,-0.1852293163537979,0.2324488013982772
1630501896811,0.3824458122253418,0.2012113183736801,-0.1852293163537979,0.2324488013982772
1630501896873,0.3824458122253418,0.2012113183736801,-0.1852293163537979,0.2324488013982772
1630501897013,0.3824458122253418,0.2012113183736801,-0.1852293163537979,0.2324488013982772
1630501897079,0.3824458122253418,0.2012113183736801,-0.1852293163537979,0.2324488013982772
1630501897220,0.3824458122253418,0.2012113183736801,-0.1852293163537979,0.2324488013982772
1630501897313,0.3824458122253418,0.2012113183736801,-0.1852293163537979,0.2324488013982772
1630501897407,0.3824458122253418,0.2012113183736801,-0.1852293163537979,0.2324488013982772
1630501897516,0.3824458122253418,0.2012113183736801,-0.1852293163537979,0.2324488013982772
1630501897579,0.3824458122253418,0.2012113183736801,-0.1852293163537979,0.2324488013982772
1630501897673,0.3824458122253418,0.2012113183736801,-0.1852293163537979,0.2324488013982772
1630501897844,0.3824458122253418,0.2012113183736801,-0.1852293163537979,0.2324488013982772
1630501897907,0.3824458122253418,0.2012113183736801,-0.1852293163537979,0.2324488013982772
1630501898018,0.3824458122253418,0.2012113183736801,-0.1852293163537979,0.2324488013982772
1630501898114,0.3824458122253418,0.2012113183736801,-0.1852293163537979,0.2324488013982772
1630501898233,0.3824458122253418,0.2012113183736801,-0.1852293163537979,0.2324488013982772
1630501898301,0.3824458122253418,0.2012113183736801,-0.1852293163537979,0.2324488013982772
1630501898443,0.3824458122253418,0.1790774315595626,-0.1852293163537979,0.2324488013982772
1630501898551,0.3824458122253418,0.1524770408868789,-0.1852293163537979,0.3864012360572815
1630501898645,0.3824458122253418,0.1258845031261444,-0.1852293163537979,0.5063907504081726
1630501898721,0.3824458122253418,0.1031072437763214,-0.1852293163537979,0.601375162601471
1630501898801,0.3824458122253418,0.0859270915389061,-0.1447334736585617,0.6584839820861816
1630501898909,0.3824458122253418,0.0703166797757148,-0.1375551670789718,0.6766932606697083
1630501899036,0.3824458122253418,0.0530406199395656,-0.1436762809753418,0.6646577715873718
1630501899177,0.3824458122253418,0.0339440889656543,-0.1337314248085022,0.636541485786438
1630501899244,0.3824458122253418,0.0162017680704593,-0.0958867892622947,0.636541485786438
1630501899338,0.3824458122253418,0.0040575936436653,-0.0503884144127368,0.636541485786438
1630501899431,0.3824458122253418,0.014234684407711,-0.0194947030395269,0.636541485786438
1630501899541,0.3824458122253418,0.0749375075101852,-0.0076427864842116,0.636541485786438
1630501899666,0.3824458122253418,0.1729198843240738,-0.0061544366180896,0.636541485786438
1630501899744,0.3824458122253418,0.2825241088867187,-0.0083925686776638,0.6687254905700684
1630501899838,0.3824458122253418,0.3701851963996887,-0.0167076997458934,0.7030797004699707
1630501899947,0.3824458122253418,0.3851374685764313,-0.0340559668838977,0.7323508262634277
1630501900045,0.3824458122253418,0.4035377204418182,-0.0410860739648342,0.747768223285675
1630501900139,0.3824458122253418,0.4260671734809875,-0.0523650981485843,0.7365489602088928
1630501900249,0.3824458122253418,0.4520505964756012,-0.0662204250693321,0.6844674944877625
1630501900374,0.3824458122253418,0.4810757637023926,-0.0667106136679649,0.6844674944877625
1630501900452,0.3824458122253418,0.514738142490387,-0.0635546371340751,0.6844674944877625
1630501900545,0.3824458122253418,0.5551803112030029,-0.0553987883031368,0.6844674944877625
1630501900639,0.3824458122253418,0.6040787100791931,-0.0728523954749107,0.6844674944877625
1630501900748,0.3824458122253418,0.6622629761695862,-0.0944863334298133,0.6844674944877625
1630501900873,0.3824458122253418,0.7308253645896912,-0.1192065477371215,0.6844674944877625
1630501900983,0.3824458122253418,0.8054705858230591,-0.1412588655948639,0.6844674944877625
1630501901040,0.3824458122253418,0.8054705858230591,-0.1501145362854004,0.6844674944877625
1630501901150,0.3824458122253418,0.8054705858230591,-0.1491081267595291,0.6844674944877625
1630501901281,0.3824458122253418,0.8054705858230591,-0.1197278201580047,0.6844674944877625
1630501901340,0.3824458122253418,0.8054705858230591,-0.0339556783437728,0.6844674944877625
1630501901480,0.3824458122253418,0.8054705858230591,0.0930203571915626,0.6844674944877625
1630501901575,0.3824458122253418,0.8054705858230591,0.2164602577686309,0.6844674944877625
1630501901686,0.3824458122253418,0.8054705858230591,0.3071939945220947,0.6844674944877625
1630501901746,0.3824458122253418,0.8054705858230591,0.3644008636474609,0.6844674944877625
1630501901856,0.3824458122253418,0.8089618682861328,0.3728207945823669,0.6844674944877625
1630501901951,0.3824458122253418,0.7341572642326355,0.3748998045921325,0.6844674944877625
1630501902094,0.3824458122253418,0.6653619408607483,0.3773395121097564,0.6844674944877625
1630501902190,0.3824458122253418,0.6067150235176086,0.4043145477771759,0.6844674944877625
1630501902297,0.3824458122253418,0.5579586029052734,0.4263163208961487,0.6844674944877625
1630501902360,0.3824458122253418,0.5199819803237915,0.4436910152435303,0.6844674944877625
1630501902437,0.3824458122253418,0.4997268617153168,0.4582865238189697,0.6844674944877625
1630501902545,0.3824458122253418,0.4984882473945617,0.4693216979503631,0.6844674944877625
1630501902740,0.3824458122253418,0.5054470896720886,0.476159930229187,0.6844674944877625
1630501902769,0.3824458122253418,0.5071575045585632,0.4736111462116241,0.6844674944877625
1630501902892,0.3824458122253418,0.5016863346099854,0.4571062624454498,0.6844674944877625
1630501902986,0.3824458122253418,0.4958704710006714,0.4251920282840729,0.6844674944877625
1630501903083,0.3824458122253418,0.4525823593139648,0.3797760307788849,0.6844674944877625
1630501903161,0.3824458122253418,0.3999194502830505,0.3310941159725189,0.6844674944877625
1630501903292,0.3824458122253418,0.3600644171237945,0.2885414361953735,0.6844674944877625
1630501903386,0.3824458122253418,0.3475925326347351,0.2564742565155029,0.6844674944877625
1630501903496,0.3824458122253418,0.3553149104118347,0.2315858155488968,0.6844674944877625
1630501903606,0.3824458122253418,0.3768137395381927,0.2079988420009613,0.6844674944877625
1630501903699,0.3824458122253418,0.4019626379013061,0.1864086091518402,0.6844674944877625
1630501903798,0.3824458122253418,0.4285954535007477,0.159059464931488,0.6844674944877625
1630501903924,0.3824458122253418,0.4542016088962555,0.1263263374567031,0.6844674944877625
1630501904009,0.3824458122253418,0.4698406755924225,0.0899588167667388,0.6844674944877625
1630501904124,0.3824458122253418,0.4680186808109283,0.0402507111430168,0.6844674944877625
1630501904221,0.3824458122253418,0.4525125026702881,0.0062659117393195,0.6844674944877625
1630501904284,0.3824458122253418,0.4407162368297577,-0.0010694378288462,0.6844674944877625
1630501904377,0.3824458122253418,0.4435246884822845,0.0156631935387849,0.6844674944877625
1630501904534,0.3824458122253418,0.4508306086063385,0.047659620642662,0.6844674944877625
1630501904612,0.3824458122253418,0.4398499429225921,0.0849055349826812,0.6844674944877625
1630501904706,0.3824458122253418,0.4398499429225921,0.1167308613657951,0.6844674944877625
1630501904815,0.3824458122253418,0.4398499429225921,0.139478713274002,0.6844674944877625
1630501904924,0.3824458122253418,0.4398499429225921,0.1556675732135772,0.6844674944877625
1630501905018,0.3824458122253418,0.4398499429225921,0.1723073869943618,0.6844674944877625
1630501905143,0.3824458122253418,0.4398499429225921,0.1956452876329422,0.6844674944877625
1630501905237,0.3824458122253418,0.374824047088623,0.2132371962070465,0.6844674944877625
1630501905346,0.3824458122253418,0.5203235149383545,0.2231507301330566,0.6844674944877625
1630501905409,0.3824458122253418,0.6837045550346375,0.2235046029090881,0.6844674944877625
1630501905502,0.3824458122253418,0.7987556457519531,0.2166630923748016,0.6844674944877625
1630501905658,0.3824458122253418,0.8556069731712341,0.2211700230836868,0.6844674944877625
1630501905737,0.3824458122253418,0.8658972382545471,0.2198964655399322,0.6844674944877625
1630501905846,0.3824458122253418,0.8496032953262329,0.2130238115787506,0.6844674944877625
1630501905956,0.3824458122253418,0.8258106708526611,0.1994370818138122,0.6844674944877625
1630501906050,0.3824458122253418,0.8016304969787598,0.1772833317518234,0.6844674944877625
1630501906112,0.3824458122253418,0.7795969247817993,0.1500699073076248,0.6844674944877625
1630501906222,0.3824458122253418,0.7614693641662598,0.1266888231039047,0.6844674944877625
1630501906362,0.3824458122253418,0.7540697455406189,0.112854890525341,0.6844674944877625
1630501906458,0.3824458122253418,0.7747235894203186,0.1035741865634918,0.6844674944877625
1630501906567,0.3824458122253418,0.8099970817565918,0.0882847160100936,0.6844674944877625
1630501906630,0.3824458122253418,0.842075526714325,0.0614470615983009,0.6844674944877625
1630501906770,0.3824458122253418,0.8545714616775513,0.0296804141253232,0.6844674944877625
1630501906848,0.3824458122253418,0.8548623919487,0.00371432187967,0.6844674944877625
1630501906977,0.3824458122253418,0.8297163248062134,-0.0141731975600123,0.6844674944877625
1630501907039,0.3824458122253418,0.7826909422874451,-0.02531717158854,0.6844674944877625
1630501907148,0.3824458122253418,0.7325810194015503,-0.0312543474137783,0.6844674944877625
1630501907242,0.3824458122253418,0.732309103012085,-0.034074954688549,0.6844674944877625
1630501907352,0.3824458122253418,0.7662642002105713,-0.0366724580526351,0.6844674944877625
1630501907445,0.3824458122253418,0.7937455773353577,-0.0427733436226844,0.6844674944877625
1630501907589,0.3824458122253418,0.804475724697113,-0.0520111769437789,0.6844674944877625
1630501907683,0.3824458122253418,0.8085297346115112,-0.0629797279834747,0.6844674944877625
1630501907746,0.3824458122253418,0.819023609161377,-0.0722300037741661,0.6844674944877625
1630501907875,0.3824458122253418,0.8302662968635559,-0.0765423849225044,0.6844674944877625
1630501907953,0.3824458122253418,0.8268498182296753,-0.072216086089611,0.6844674944877625
1630501908046,0.3824458122253418,0.8064718842506409,-0.0766138955950737,0.6844674944877625
1630501908187,0.3824458122253418,0.7844603061676025,-0.083964042365551,0.6844674944877625
1630501908281,0.3824458122253418,0.785969078540802,-0.0975411087274551,0.6844674944877625
1630501908375,0.3824458122253418,0.785969078540802,-0.1174341663718223,0.6844674944877625
1630501908484,0.3824458122253418,0.785969078540802,-0.1358740478754043,0.6844674944877625
1630501908546,0.3824458122253418,0.785969078540802,-0.1480275690555572,0.6844674944877625
1630501908640,0.3824458122253418,0.785969078540802,-0.153557077050209,0.6844674944877625
1630501908812,0.3824458122253418,0.754362165927887,-0.1509314030408859,0.6844674944877625
1630501908874,0.3824458122253418,0.6921796202659607,-0.1394397765398025,0.6844674944877625
1630501908984,0.3824458122253418,0.6407789587974548,-0.1165327951312065,0.6844674944877625
1630501909077,0.3824458122253418,0.6407789587974548,-0.0839294716715812,0.6844674944877625
1630501909187,0.3824458122253418,0.6407789587974548,-0.0839294716715812,0.6844674944877625
1630501909249,0.3824458122253418,0.6407789587974548,-0.0839294716715812,0.6844674944877625
1630501909405,0.3824458122253418,0.6407789587974548,-0.0839294716715812,0.6844674944877625
1630501909499,0.3824458122253418,0.6407789587974548,-0.0839294716715812,0.6844674944877625
1630501909593,0.3824458122253418,0.6407789587974548,-0.0839294716715812,0.6844674944877625
1630501909702,0.3824458122253418,0.6407789587974548,-0.0839294716715812,0.6844674944877625
1630501909796,0.3824458122253418,0.2047956436872482,-0.0839294716715812,0.6844674944877625
1630501909905,0.3824458122253418,0.1512474119663238,-0.0839294716715812,0.6844674944877625
1630501910025,0.3824458122253418,0.1186152845621109,-0.0839294716715812,0.6844674944877625
1630501910135,0.3824458122253418,0.1119289472699165,-0.0839294716715812,0.6844674944877625
1630501910197,0.7247133851051331,0.1257389336824417,-0.0839294716715812,0.6844674944877625
1630501910338,0.6445382833480835,0.1443567723035812,-0.0839294716715812,0.6844674944877625
1630501910400,0.6445382833480835,0.1549658328294754,-0.0839294716715812,0.6844674944877625
1630501910463,0.6445382833480835,0.1559138745069503,-0.0839294716715812,0.6844674944877625
1630501910619,0.6445382833480835,0.1659327894449234,0.3207854330539703,0.6844674944877625
1630501910728,0.6445382833480835,0.2029419243335724,0.4037910103797912,0.6844674944877625
1630501910806,0.6445382833480835,0.2659679353237152,0.4372805953025818,0.6844674944877625
1630501910900,0.6445382833480835,0.3314022123813629,0.4342171847820282,0.6844674944877625
1630501911041,0.6445382833480835,0.3854695856571197,0.4123137593269348,0.6844674944877625
1630501911103,0.6445382833480835,0.4120707213878631,0.3835829794406891,0.6844674944877625
1630501911228,0.5654974579811096,0.4193080067634582,0.3532346487045288,0.6844674944877625
1630501911322,0.5654974579811096,0.4188544154167175,0.3217261731624603,0.6844674944877625
1630501911431,0.5654974579811096,0.4179601669311523,0.2901158630847931,0.6844674944877625
1630501911494,0.5654974579811096,0.4161653816699981,0.2617796957492828,0.6844674944877625
1630501911634,0.5654974579811096,0.4125500619411468,0.238701730966568,0.6844674944877625
1630501911697,0.5654974579811096,0.4060926437377929,0.2193721234798431,0.6844674944877625
1630501911837,0.5654974579811096,0.4048778712749481,0.2159849852323532,0.6844674944877625
1630501911931,0.5654974579811096,0.4273861348628998,0.2013861387968063,0.6844674944877625
1630501912025,0.5654974579811096,0.4808207154273987,0.1650371104478836,0.6844674944877625
1630501912134,0.5654974579811096,0.5401583313941956,0.100527137517929,0.6844674944877625
1630501912231,0.5654974579811096,0.5751956701278687,0.0121294958516955,0.6844674944877625
1630501912308,0.5654974579811096,0.5720682740211487,-0.0839743316173553,0.6844674944877625
1630501912465,0.5654974579811096,0.536619246006012,-0.1633334308862686,0.6844674944877625
1630501912527,0.5654974579811096,0.4898519217967987,-0.2077425569295883,0.6844674944877625
1630501912621,0.5654974579811096,0.4574658572673797,-0.2070285677909851,0.6844674944877625
1630501912761,0.5654974579811096,0.4630597233772278,-0.1704072803258896,0.6844674944877625
1630501912824,0.5654974579811096,0.5172973871231079,-0.1187152788043022,0.6844674944877625
1630501912918,0.5654974579811096,0.6003578305244446,-0.074064701795578,0.6844674944877625
1630501913043,0.5654974579811096,0.625649631023407,-0.0487639158964157,0.6844674944877625
1630501913153,0.5654974579811096,0.6515505909919739,-0.0401063114404678,0.6844674944877625
1630501913250,0.5654974579811096,0.6783704161643982,-0.0440749675035476,0.6844674944877625
1630501913343,0.5654974579811096,0.7026252150535583,-0.0326140709221363,0.6844674944877625
1630501913437,0.5654974579811096,0.7134810090065002,-0.0178979411721229,0.6844674944877625
1630501913531,0.5654974579811096,0.6987918019294739,-0.0042366068810224,0.6844674944877625
1630501913666,0.5654974579811096,0.6592516899108887,0.0051459483802318,0.6844674944877625
1630501913745,0.5654974579811096,0.6168919801712036,0.0135052101686596,0.6844674944877625
1630501913854,0.5654974579811096,0.6073264479637146,0.0291682053357362,0.6844674944877625
1630501913948,0.5654974579811096,0.6500563621520996,0.055356279015541,0.6844674944877625
1630501914041,0.5654974579811096,0.7331365942955017,0.0812498480081558,0.6844674944877625
1630501914151,0.5654974579811096,0.7331365942955017,0.086921326816082,0.6844674944877625
1630501914333,0.5654974579811096,0.7331365942955017,0.0587241761386394,0.6844674944877625
1630501914366,0.5654974579811096,0.7331365942955017,-0.0083217341452836,0.6844674944877625
1630501914464,0.5654974579811096,0.7331365942955017,-0.0083217341452836,0.6844674944877625
1630501914541,0.5654974579811096,0.7331365942955017,-0.0083217341452836,0.6844674944877625
1630501914635,0.5654974579811096,0.7331365942955017,-0.0083217341452836,0.6844674944877625
1630501914745,0.5654974579811096,0.7331365942955017,-0.0083217341452836,0.6844674944877625
1630501914870,0.5654974579811096,0.7331365942955017,-0.0083217341452836,0.6844674944877625
1630501914973,0.5654974579811096,0.3920155167579651,-0.0083217341452836,0.6844674944877625
1630501915100,0.5654974579811096,0.4254414737224579,-0.0083217341452836,0.6844674944877625
1630501915174,0.5654974579811096,0.4372287690639496,-0.1634963750839233,0.6844674944877625
1630501915241,0.5654974579811096,0.4243014454841614,-0.1712788045406341,0.6844674944877625
1630501915366,0.5654974579811096,0.3951977491378784,-0.1456004828214645,0.6844674944877625
1630501915506,0.5654974579811096,0.360055148601532,-0.122470311820507,0.8762773275375366
1630501915569,0.5654974579811096,0.3264123201370239,-0.1071678176522255,0.8539760112762451
1630501915681,0.5654974579811096,0.2972929775714874,-0.0878167897462844,0.8238967061042786
1630501915797,0.5654974579811096,0.2791944444179535,-0.0681872889399528,0.8282321691513062
1630501915887,0.5654974579811096,0.2819800078868866,-0.0460261069238185,0.9061831831932068
1630501915981,0.5654974579811096,0.3060807287693023,-0.0243266057223081,1.0232633352279663
1630501916123,0.5654974579811096,0.3373914659023285,-0.0104725044220685,1.119856595993042
1630501916201,0.5654974579811096,0.3611833155155182,-0.0032635491807013,1.1688435077667236
1630501916279,0.5654974579811096,0.369721919298172,0.0022316053509712,1.17496919631958
1630501916388,0.5654974579811096,0.3617843985557556,0.0041934298351407,1.1570016145706177
1630501916468,0.5654974579811096,0.3385126292705536,0.0189990475773811,1.1330713033676147
1630501916572,0.5654974579811096,0.3039301037788391,0.0341116450726985,1.110701322555542
1630501916682,0.5654974579811096,0.2694738507270813,0.0444394201040267,1.1040531396865845
1630501916791,0.5654974579811096,0.2492060661315918,0.0508602410554885,1.094897747039795
1630501916900,0.5654974579811096,0.2500759959220886,0.0583516098558902,1.081486463546753
1630501917010,0.5654974579811096,0.2668417394161224,0.0709229782223701,1.067267656326294
1630501917088,0.5654974579811096,0.2911112606525421,0.0846738368272781,1.0590749979019165
1630501917182,0.5654974579811096,0.3218317925930023,0.0948286727070808,1.057354211807251
1630501917322,0.5654974579811096,0.3608565032482147,0.1073037907481193,1.0523781776428225
1630501917416,0.5654974579811096,0.4012625217437744,0.1210717409849166,1.0225169658660889
1630501917494,1.1715720891952517,0.4284824132919311,0.131556287407875,0.9487100839614868
1630501917603,1.172270894050598,0.4338352978229522,0.1351670920848846,0.8285425901412964
1630501917713,1.142249584197998,0.4218295514583587,0.1305300742387771,0.6925293207168579
1630501917775,1.1034685373306274,0.404979407787323,0.1180415004491806,0.5955643057823181
1630501917931,1.0679351091384888,0.3909196853637695,0.0984522476792335,0.5558381676673889
1630501918027,1.0370123386383057,0.3803833127021789,0.0756949111819267,0.5376271605491638
1630501918136,1.0080915689468384,0.3734606504440307,0.0573387891054153,0.5203037858009338
1630501918241,0.98175847530365,0.369592547416687,0.0472412258386611,0.5030193328857422
1630501918288,0.9617679715156556,0.3651897311210632,0.0421773605048656,0.4925982058048248
1630501918397,0.950272262096405,0.3545053899288177,0.0332143418490886,0.4946776330471039
1630501918538,0.945652723312378,0.3358844220638275,0.0172059629112482,0.507680356502533
1630501918632,0.9434295296669006,0.3111605644226074,0.0001770676462911,0.5230305790901184
1630501918725,0.9467775225639344,0.282780110836029,-0.0072056376375257,0.5536447167396545
1630501918819,0.9323005080223083,0.2471585422754287,-0.0036660996265709,0.6261515617370605
1630501918928,0.9078948497772216,0.2014494240283966,0.0005971671198494,0.7407747507095337
1630501918991,0.8892046809196472,0.1554288119077682,-0.0030863804277032,0.8582907915115356
1630501919163,0.8888016939163208,0.1323416382074356,-0.0068033966235816,0.8693460822105408
1630501919272,0.902375876903534,0.1430768221616745,0.0015880728606134,0.9373321533203124
1630501919366,0.9189332723617554,0.1730904579162597,0.021807512268424,0.9692248702049256
1630501919458,0.9331358671188354,0.2018740028142929,0.0434693843126297,0.9825131297111512
1630501919552,0.9477675557136536,0.2249039709568023,0.057924747467041,1.0102647542953491
1630501919615,0.9661823511123656,0.2554834187030792,0.0664822533726692,1.0406594276428225
1630501919757,0.987764835357666,0.3205069303512573,0.0755996108055114,1.0728363990783691
1630501919867,1.0088096857070925,0.4298156499862671,0.0864550322294235,1.1065795421600342
1630501919976,1.026151418685913,0.5506618022918701,0.0972649976611137,1.1425162553787231
1630501920043,1.039676308631897,0.6468624472618103,0.1066154018044471,1.1816203594207764
1630501920120,1.053374171257019,0.7046939730644226,0.1141060888767242,1.224697828292847
1630501920230,1.0710549354553225,0.7288049459457397,0.116881214082241,1.263971209526062
1630501920417,1.0868713855743408,0.7322620749473572,0.1122970953583717,1.27988862991333
1630501920448,1.0875526666641235,0.7263036370277405,0.1065428182482719,1.2431215047836304
1630501920542,1.0657566785812378,0.7173712849617004,0.1073242723941803,1.2431215047836304
1630501920652,1.0657566785812378,0.7090266942977905,0.1115634441375732,1.2431215047836304
1630501920745,1.0657566785812378,0.7025455236434937,0.1084727421402931,1.2431215047836304
1630501920855,1.0657566785812378,0.6966146230697632,0.0946001186966896,1.2431215047836304
1630501920980,1.0657566785812378,0.691087543964386,0.0772702991962432,1.2431215047836304
1630501921076,0.5439497232437134,0.6862442493438721,0.0676542147994041,0.6243260502815247
1630501921186,0.5021038055419922,0.6801342368125916,0.0680631026625633,0.5646182894706726
1630501921233,0.4746530652046203,0.6622741222381592,0.0724802985787391,0.513560950756073
1630501921342,0.4496175646781921,0.6148234009742737,0.0750965625047683,0.473132461309433
1630501921451,0.4210757315158844,0.5270324945449829,0.0722170546650886,0.444637656211853
1630501921576,0.3882250189781189,0.4065484702587127,0.0635688826441764,0.4241481423377991
1630501921670,0.3540678322315216,0.2871031463146209,0.0495799258351326,0.4050845801830292
1630501921795,0.3222193121910095,0.2086668312549591,0.0297269243746995,0.387621134519577
1630501921904,0.29593425989151,0.1730635464191436,0.0023336391896009,0.3762927055358886
1630501921967,0.2806266844272613,0.1513786017894745,-0.0340212099254131,0.3754567503929138
1630501922048,0.2788128852844238,0.1248604506254196,-0.0764787346124649,0.3851042985916137
1630501922220,0.2876417636871338,0.0863515809178352,-0.1167317479848861,0.4040193855762481
1630501922275,0.2360274493694305,0.0383824817836284,-0.1435346156358719,0.3751230239868164
1630501922385,0.2193773984909057,-0.0059745647013187,-0.1496635526418686,0.3723496794700622
1630501922478,0.2246021926403045,-0.0351362600922584,-0.1350365728139877,0.3865403532981872
1630501922572,0.2299366891384124,-0.054996944963932,-0.109272576868534,0.4012162387371063
1630501922681,0.233255386352539,-0.0883822590112686,-0.0893767029047012,0.4173368513584137
1630501922853,0.236241266131401,-0.1533337980508804,-0.0882844626903534,0.4386139810085296
1630501922916,0.251897782087326,-0.2479370385408401,-0.1050577610731124,0.4657170176506042
1630501923025,0.2895118296146393,-0.3471084833145141,-0.126906618475914,0.4956921637058258
1630501923127,0.3439485430717468,-0.4128904938697815,-0.1417315304279327,0.5279387831687927
1630501923190,0.3967868387699127,-0.434376060962677,-0.1470839977264404,0.564498245716095
1630501923299,0.4333290457725525,-0.436803251504898,-0.142861008644104,0.6021314263343811
1630501923424,0.4508237540721893,-0.4448636770248413,-0.1284146457910537,0.6359266042709351
1630501923564,0.4551151990890503,-0.4576520621776581,-0.1095967218279838,0.6629600524902344
1630501923580,0.4521672427654266,-0.4628260135650635,-0.0958802476525306,0.681175708770752
1630501923705,0.4466497898101806,-0.4397512674331665,-0.0882654339075088,0.6880431175231934
1630501923783,0.4434879124164581,-0.3859359622001648,-0.0856923833489418,0.6815839409828186
1630501923893,0.4459734857082367,-0.3159000873565674,-0.0869752317667007,0.6689836382865906
1630501924049,0.4487233459949493,-0.2474214136600494,-0.0955806896090507,0.6614961624145508
1630501924111,0.4464094340801239,-0.1942326873540878,-0.1164847314357757,0.6637758016586304
1630501924221,0.4406934678554535,-0.1533099263906479,-0.1409314125776291,0.6742765307426453
1630501924314,0.4440528750419616,-0.1233664453029632,-0.1541118919849395,0.6866654753684998
1630501924424,0.4549306631088257,-0.1072246059775352,-0.1516425460577011,0.6934378743171692
1630501924517,0.4624389410018921,-0.0995829924941062,-0.134667083621025,0.693260133266449
1630501924642,0.4628773033618927,-0.0950317904353141,-0.1081547141075134,0.6860307455062866
1630501924736,0.4652408957481384,-0.0902734920382499,-0.077294573187828,0.6726279258728027
1630501924830,0.4817294776439667,-0.0842358916997909,-0.0553133003413677,0.6524145007133484
1630501924939,0.5179179906845093,-0.0720681399106979,-0.0534995310008525,0.6279306411743164
1630501925002,0.567534863948822,-0.0507382676005363,-0.0642254725098609,0.6066452264785767
1630501925095,0.6203628182411194,-0.0254274196922779,-0.0742124989628791,0.6012423634529114
1630501925252,0.6656630635261536,-0.0084165716543793,-0.0820115804672241,0.6174600720405579
1630501925345,0.6961464881896973,-0.0092313596978783,-0.089087501168251,0.6505811810493469
1630501925439,0.7122334837913513,-0.0271272249519824,-0.0993618220090866,0.6836263537406921
1630501925533,0.722520649433136,-0.0545566156506538,-0.1081554070115089,0.7027897834777832
1630501925658,0.7324572205543518,-0.0831496641039848,-0.1070070192217826,0.7057388424873352
1630501925705,0.7433231472969055,-0.1080122664570808,-0.100539892911911,0.6950435042381287
1630501925861,0.7508808374404907,-0.1255850940942764,-0.0998632982373237,0.6753595471382141
1630501925970,0.7539950013160706,-0.1297048479318618,-0.1103516742587089,0.6542167663574219
1630501926035,0.754527747631073,-0.1253431588411331,-0.1359156519174575,0.6361318230628967
1630501926129,0.7529698014259338,-0.1196743324398994,-0.1757437884807586,0.6215838193893433
1630501926223,0.7498992681503296,-0.1158319935202598,-0.2283187806606292,0.6084979176521301
1630501926332,0.7475056052207947,-0.1139764487743377,-0.285592257976532,0.602934718132019
1630501926473,0.7443974614143372,-0.1219610497355461,-0.3336638510227203,0.6099544167518616
1630501926570,0.7336176037788391,-0.1491316258907318,-0.3710867464542389,0.6215508580207825
1630501926664,0.7095103859901428,-0.1952639669179916,-0.3965583741664886,0.6220031380653381
1630501926773,0.6749682426452637,-0.24632328748703,-0.3968218863010406,0.6016188859939575
1630501926836,0.6410079002380371,-0.278285801410675,-0.3714552223682403,0.5639338493347168
1630501926961,0.6174073815345764,-0.2843932509422302,-0.3371931612491607,0.5210451483726501
1630501927055,0.603104829788208,-0.2732493579387665,-0.3202174603939056,0.483961284160614
1630501927195,0.6050401926040649,-0.2459726333618164,-0.331193596124649,0.4730162918567657
1630501927258,0.6086412072181702,-0.200980544090271,-0.359930545091629,0.4752266407012939
1630501927399,0.6094844937324524,-0.1223153099417686,-0.3782492578029632,0.4875736236572265
1630501927476,0.6059879064559937,-0.0054462822154164,-0.3546545803546905,0.5054200291633606
1630501927539,0.5992584228515625,0.1175888553261756,-0.2909362912178039,0.5239681005477905
1630501927680,0.5922359228134155,0.2118622809648513,-0.2216839343309402,0.5444499254226685
1630501927773,0.5837011933326721,0.2643725872039795,-0.174818530678749,0.5688616633415222
1630501927867,0.5641486644744873,0.2825086116790771,-0.153538167476654,0.5896202325820923
1630501927976,0.5231615900993347,0.2839545905590057,-0.1399047970771789,0.5906887054443359
1630501928073,0.4643233120441437,0.284574031829834,-0.115193597972393,0.5631774067878723
1630501928151,0.4097290635108948,0.2883180677890777,-0.0766613408923149,0.508331298828125
1630501928292,0.4097290635108948,0.2920109927654266,-0.0352216958999633,0.508331298828125
1630501928385,0.4097290635108948,0.2922952175140381,-0.0008749741245992,0.508331298828125
1630501928479,0.4097290635108948,0.2885351479053497,0.0253579430282115,0.508331298828125
1630501928588,0.4097290635108948,0.2824251353740692,0.0462727509438991,0.508331298828125
1630501928682,0.5051304697990417,0.2750602066516876,0.0618973411619663,0.6158558130264282
1630501928760,0.5918605923652649,0.263545274734497,0.0702427178621292,0.6706187725067139
1630501928901,0.6498941779136658,0.235649973154068,0.0676052495837211,0.7312145829200745
1630501928994,0.6739965081214905,0.1741710901260376,0.0502807348966598,0.7724118232727051
1630501929108,0.6706223487854004,0.0714311674237251,0.0197348911315202,0.7863160967826843
1630501929202,0.6513579487800598,-0.0571859590709209,-0.0110836746171116,0.7861039042472839
1630501929296,0.6281077861785889,-0.1652505248785019,-0.02367689833045,0.7893819212913513
1630501929358,0.6057966351509094,-0.2123298197984695,-0.0149422567337751,0.7987902760505676
1630501929499,0.5834676027297974,-0.2182661741971969,-0.0029165488667786,0.803425133228302
1630501929592,0.5611822605133057,-0.223143845796585,-0.0068960972130298,0.7945750951766968
1630501929702,0.5401739478111267,-0.2342706769704818,-0.0319620631635189,0.7746495008468628
1630501929811,0.5201837420463562,-0.2395336627960205,-0.0716114938259124,0.7535187005996704
1630501929874,0.5085592865943909,-0.2298614531755447,-0.1150875017046928,0.7480781078338623
1630501929983,0.4945529401302337,-0.2073425501585006,-0.1536140441894531,0.744536817073822
1630501930123,0.4713166058063507,-0.1813762634992599,-0.1823824197053909,0.7406609058380127
1630501930233,0.4313401877880096,-0.1582008898258209,-0.1963846981525421,0.7320876121520996
1630501930295,0.3705421090126037,-0.137500375509262,-0.1958629190921783,0.7114054560661316
1630501930405,0.2941832840442657,-0.1191202104091644,-0.1871811002492904,0.6761797070503235
1630501930498,0.217652291059494,-0.1101646721363067,-0.1804324835538864,0.6330044269561768
1630501930608,0.1584711968898773,-0.1156106516718864,-0.1825949698686599,0.5957671999931335
1630501930733,0.127940684556961,-0.1317939907312393,-0.1995076686143875,0.5713880062103271
1630501930826,0.1275546848773956,-0.1492305099964141,-0.2324164807796478,0.5555862784385681
1630501930936,0.1559698432683944,-0.1603848189115524,-0.2732061445713043,0.5425089597702026
1630501930998,0.2080384641885757,-0.1646371632814407,-0.3063086569309234,0.5318319201469421
1630501931092,0.2666704654693603,-0.1654481738805771,-0.3209031224250793,0.5305996537208557
1630501931233,0.3163200914859772,-0.1670081913471222,-0.3242160975933075,0.5471892356872559
1630501931373,0.3501525819301605,-0.1758897006511688,-0.3328123986721039,0.5853441953659058
1630501931436,0.3713213205337524,-0.1967797577381134,-0.3537658751010895,0.6384709477424622
1630501931529,0.3846142292022705,-0.2292792052030563,-0.379002571105957,0.6917881965637207
1630501931623,0.3930459022521972,-0.2716168165206909,-0.3874091207981109,0.7329651713371277
1630501931733,0.3980030715465545,-0.3239956498146057,-0.3632111847400665,0.7589576244354248
1630501931795,0.4049912095069885,-0.3890412449836731,-0.3142560124397278,0.775263249874115
1630501931967,0.4227268695831299,-0.4577730596065521,-0.2635396420955658,0.7873827815055847
1630501932032,0.4530025422573089,-0.5087729096412659,-0.2218664288520813,0.7980248928070068
1630501932142,0.4844821691513061,-0.5348338484764099,-0.1880032122135162,0.8056701421737671
1630501932235,0.5049043893814087,-0.5482057332992554,-0.1580297648906707,0.8068686127662659
1630501932329,0.5094674229621887,-0.5591041445732117,-0.1321106404066085,0.7983542084693909
1630501932438,0.503850519657135,-0.5661145448684692,-0.1121646985411644,0.7816830277442932
1630501932563,0.4944936633110046,-0.5666096806526184,-0.096137136220932,0.7653440833091736
1630501932657,0.4841003715991974,-0.5657466053962708,-0.0802576169371604,0.756963312625885
1630501932766,0.4747862517833709,-0.5632646679878235,-0.061577845364809,0.7543473243713379
1630501932845,0.4698396921157837,-0.543912410736084,-0.0406661070883274,0.7449093461036682
1630501932938,0.4722913205623626,-0.4967354834079742,-0.0216939561069011,0.7182791829109192
1630501933032,0.4824333786964416,-0.4302383363246918,-0.0102374469861388,0.6775175929069519
1630501933173,0.5004987120628357,-0.3633007705211639,-0.0126334279775619,0.6379084587097168
1630501933266,0.5235030651092529,-0.3093570470809936,-0.0327342264354229,0.6118150353431702
1630501933376,0.5421470403671265,-0.273766428232193,-0.0690849050879478,0.5947098135948181
1630501933470,0.5449540615081787,-0.2565904557704925,-0.1131828799843788,0.5770703554153442
1630501933532,0.528411328792572,-0.2474535405635833,-0.1562824547290802,0.5555750131607056
1630501933641,0.5051683783531189,-0.2237754464149475,-0.1947521716356277,0.5359436273574829
1630501933781,0.4936339259147644,-0.172561302781105,-0.2266417294740677,0.5233127474784851
1630501933859,0.5025534629821777,-0.105680875480175,-0.2482510954141616,0.5179269313812256
1630501933966,0.5249536633491516,-0.0396824218332767,-0.2541908025741577,0.5163648724555969
1630501934059,0.5484638214111328,0.01561557687819,-0.2483280450105667,0.5136479735374451
1630501934168,0.564290463924408,0.0564178489148616,-0.2403871417045593,0.5042232871055603
1630501934266,0.5682497024536133,0.0806262195110321,-0.238882839679718,0.4825125634670257
1630501934403,0.56299889087677,0.0862053036689758,-0.2475442141294479,0.4467480182647705
1630501934479,0.556922435760498,0.0761590376496315,-0.2630651891231537,0.4013567864894867
1630501934575,0.5556153059005737,0.0549751184880733,-0.2779338955879211,0.3531033992767334
1630501934669,0.5532488822937012,0.0289098676294088,-0.2860236763954162,0.3007763624191284
1630501934780,0.541185736656189,0.0037236209027469,-0.2883356213569641,0.2400340437889099
1630501934843,0.5200722813606262,-0.0159331001341342,-0.2890766263008117,0.1770322024822235
1630501934984,0.4991425275802612,-0.0296842437237501,-0.2901153862476349,0.1267227232456207
1630501935094,0.4860185980796814,-0.0436160340905189,-0.2905247807502746,0.0998954176902771
1630501935188,0.4757726192474365,-0.0693879276514053,-0.2906559407711029,0.0879659801721572
1630501935298,0.4606997072696686,-0.1147359162569046,-0.2957984507083893,0.0907357260584831
1630501935360,0.4529130458831787,-0.1637497395277023,-0.3121821284294128,0.0685219392180442
1630501935469,0.4266209900379181,-0.1612843573093414,-0.3406846523284912,0.0346474312245845
1630501935626,0.3811902105808258,-0.0563430376350879,-0.378333181142807,-0.0034427777864038
1630501935719,0.3285295367240906,0.0954646319150924,-0.4194389581680298,-0.0379777364432811
1630501935813,0.2899247407913208,0.2204484343528747,-0.457999438047409,-0.0640762522816658
1630501935891,0.2781324982643127,0.2960630059242248,-0.4889141917228699,-0.0795419961214065
1630501935985,0.2737323343753814,0.328925609588623,-0.5121766924858093,-0.0840921625494957
1630501936047,0.2486874461174011,0.3383243381977081,-0.5311614274978638,-0.080833613872528
1630501936207,0.1965503543615341,0.3404688239097595,-0.5472192168235779,-0.0655578225851059
1630501936316,0.1419566869735717,0.3412980437278747,-0.5545746684074402,-0.0367935933172702
1630501936425,0.1168639287352562,0.3430330157279968,-0.5316426157951355,0.0054194806143641
1630501936519,0.282926857471466,0.3465641140937805,-0.4671694040298462,0.3604959845542907
1630501936582,0.3908434510231018,0.3519457578659057,-0.3802786469459533,0.5296437740325928
1630501936675,0.4436516761779785,0.3582305312156677,-0.3021089136600494,0.6111176609992981
1630501936816,0.455188125371933,0.3636573255062103,-0.2500918209552765,0.6381278038024902
1630501936910,0.3830166459083557,0.3634794056415558,-0.2179477959871292,0.6026747822761536
1630501937019,0.3265382051467895,0.3456250727176666,-0.1870665997266769,0.5725448131561279
1630501937113,0.2849960029125213,0.2904224395751953,-0.1390158087015152,0.5367062091827393
1630501937222,0.2542755007743835,0.1852896958589553,-0.067025251686573,0.4956938922405243
1630501937285,0.230727732181549,0.03713333979249,0.0160350333899259,0.4586863219738006
1630501937410,0.2108334302902221,-0.1134338080883026,0.0912362113595008,0.4311767816543579
1630501937550,0.1913342773914337,-0.2018743455410003,0.149634301662445,0.4119670391082763
1630501937613,0.1723664849996566,-0.212764486670494,0.1913749724626541,0.3964438438415527
1630501937707,0.1581429988145828,-0.1877714246511459,0.2204225957393646,0.3810308575630188
1630501937816,0.151370957493782,-0.1568964123725891,0.2389537692070007,0.3671523630619049
1630501937878,0.1503546684980392,-0.1354884654283523,0.2458617389202118,0.3575892150402069
1630501938051,0.0904551595449447,-0.1267942637205124,0.2406326830387115,0.3071295619010925
1630501938146,0.0364708192646503,-0.1260710507631302,0.2255003005266189,0.2653305530548095
1630501938208,0.0131152095273137,-0.1271216869354248,0.2065396457910537,0.244726687669754
1630501938307,0.0225309524685144,-0.1286483854055404,0.1916144341230392,0.2411885410547256
1630501938416,0.0462718680500984,-0.1356793791055679,0.1833712756633758,0.2440994530916214
1630501938510,0.0675653740763664,-0.1538178324699401,0.1759974062442779,0.2514307200908661
1630501938651,0.0769101455807685,-0.1822548657655716,0.1619015336036682,0.2640443742275238
1630501938760,0.0750360265374183,-0.2145292907953262,0.1330307275056839,0.2828666269779205
1630501938838,0.0755905210971832,-0.2372521013021469,0.0872733443975448,0.3177171349525451
1630501938919,0.0950760468840599,-0.2445920258760452,0.0315729416906833,0.3744469285011291
1630501939013,0.1328524798154831,-0.2425167262554168,-0.0207791551947593,0.4384090602397918
1630501939123,0.1715872436761856,-0.2451248615980148,-0.0592383183538913,0.4885813593864441
1630501939248,0.198049783706665,-0.2580116987228393,-0.0860596746206283,0.5172656774520874
1630501939326,0.211126908659935,-0.2735829353332519,-0.1064114496111869,0.5290260314941406
1630501939466,0.2159227430820465,-0.282928854227066,-0.1193519607186317,0.5325329899787903
1630501939560,0.2153570801019668,-0.2875429987907409,-0.1242547482252121,0.5332962870597839
1630501939628,0.2109674960374832,-0.2928477227687835,-0.1241126731038093,0.532863438129425
1630501939769,0.2064158320426941,-0.2926131188869476,-0.1227354779839515,0.5313939452171326
1630501939862,0.2035225927829742,-0.2719263732433319,-0.1216311156749725,0.5276528000831604
1630501939972,0.201694056391716,-0.226497933268547,-0.1232183724641799,0.5234554409980774
1630501940066,0.1993415504693985,-0.1686069518327713,-0.1306103467941284,0.5231844186782837
1630501940159,0.2008773237466812,-0.117351621389389,-0.1486403048038482,0.5283064246177673
1630501940253,0.2107591032981872,-0.081578828394413,-0.1755263060331344,0.5326762199401855
1630501940347,0.2253617644309997,-0.0620567835867404,-0.2037986814975738,0.5231198072433472
1630501940487,0.2335151135921478,-0.0526932179927825,-0.2235560566186905,0.4897080063819885
1630501940581,0.232111856341362,-0.042969811707735,-0.2268937230110168,0.4364672005176544
1630501940690,0.2310864031314849,-0.0250682365149259,-0.2054023593664169,0.3822300434112549
1630501940753,0.2467809915542602,-0.001147614675574,-0.1566921919584274,0.3504600822925567
1630501940847,0.2769535779953003,0.0237528588622808,-0.0970979705452919,0.3465506732463836
1630501940940,0.3051280379295349,0.041174229234457,-0.0518965013325214,0.357245534658432
1630501941081,0.3198934197425842,0.0501989163458347,-0.0293453149497509,0.3689652383327484
1630501941190,0.3197799324989319,0.0677414238452911,-0.0231025479733943,0.3749059736728668
1630501941284,0.3110499382019043,0.0838535875082016,-0.0232049189507961,0.3747597336769104
1630501941393,0.3046340346336365,0.0906143859028816,-0.0206974931061267,0.3680895268917084
1630501941456,0.3137150406837463,0.0834973901510238,-0.0141318589448928,0.3523696959018707
1630501941550,0.3536211252212524,0.0640823617577552,-0.0054261898621916,0.327124685049057
1630501941721,0.3674903512001037,0.0422646701335907,0.0008272625273093,0.2972269058227539
1630501941784,0.3813863396644592,0.0308430027216672,0.0012232492445036,0.2731142044067383
1630501941878,0.3904283344745636,0.0377038456499576,-0.0033826425205916,0.2584981024265289
1630501941974,0.3939630091190338,0.0611424259841442,-0.0097871469333767,0.2502345442771911
1630501942083,0.3943679630756378,0.0871393084526062,-0.0208175089210271,0.2418222576379776
1630501942193,0.3920837640762329,0.0993886590003967,-0.0463872700929641,0.2285231053829193
1630501942327,0.3755630254745483,0.0993886590003967,-0.0921619608998298,0.2234907001256942
1630501942376,0.3378785848617553,0.0993886590003967,-0.1521292775869369,0.2087379544973373
1630501942486,0.2900067567825317,0.0993886590003967,-0.2077080756425857,0.1811885237693786
1630501942595,0.2646164000034332,0.0993886590003967,-0.2392111867666244,0.1409830302000045
1630501942673,0.2975195348262787,0.0993886590003967,-0.2450374960899353,0.0957071855664253
1630501942751,0.2975195348262787,0.7919383645057678,-0.2368562668561935,0.0538817197084426
1630501942908,0.2975195348262787,0.7600783705711365,-0.2331717759370803,0.029853681102395
1630501943017,0.2975195348262787,0.7078145742416382,-0.2422509044408798,0.0288870520889759
1630501943111,0.2975195348262787,0.6513195037841797,-0.2607923746109009,0.0398534461855888
1630501943220,0.2975195348262787,0.5996109247207642,-0.272477775812149,0.0529760830104351
1630501943314,0.2975195348262787,0.554844856262207,-0.2644592523574829,0.0571015402674675
1630501943392,0.2975195348262787,0.5201077461242676,-0.2460909932851791,0.0571015402674675
1630501943517,0.2975195348262787,0.5029559135437012,-0.2378634363412857,0.0571015402674675
1630501943611,0.2975195348262787,0.5127249956130981,-0.2481740862131118,0.0571015402674675
1630501943751,0.2975195348262787,0.541285514831543,-0.2712466418743133,0.0571015402674675
1630501943814,0.2975195348262787,0.5678088665008545,-0.291141003370285,0.0571015402674675
1630501943876,0.2975195348262787,0.579085648059845,-0.2974540591239929,0.0571015402674675
1630501943986,0.2975195348262787,0.5677352547645569,-0.2894751727581024,0.0571015402674675
1630501944142,0.2975195348262787,0.5285812616348267,-0.2805695533752441,0.0571015402674675
1630501944204,0.2975195348262787,0.4739027619361877,-0.2743502557277679,0.0571015402674675
1630501944314,0.2975195348262787,0.4229166209697723,-0.2626294791698456,0.0571015402674675
1630501944407,0.2975195348262787,0.3957971632480621,-0.2380197197198867,0.0571015402674675
1630501944501,0.2975195348262787,0.3917628228664398,-0.2053614258766174,0.0571015402674675
1630501944626,0.2975195348262787,0.3983131647109985,-0.175668403506279,0.0571015402674675
1630501944751,0.2975195348262787,0.4092209339141845,-0.1559450775384903,0.0571015402674675
1630501944845,0.2975195348262787,0.4263787865638733,-0.145202025771141,0.0571015402674675
1630501944907,0.2975195348262787,0.4454576373100281,-0.1379863172769546,0.0571015402674675
1630501945017,0.2975195348262787,0.4524786472320556,-0.1310642957687378,0.0571015402674675
1630501945110,0.2975195348262787,0.4294211566448211,-0.1238126158714294,0.0571015402674675
1630501945204,0.2975195348262787,0.3705126047134399,-0.1156167834997177,0.0571015402674675
1630501945345,0.2975195348262787,0.2894879877567291,-0.110242523252964,0.0571015402674675
1630501945438,0.2975195348262787,0.2155329287052154,-0.1112357974052429,0.0571015402674675
1630501945548,0.2975195348262787,0.1775536686182022,-0.1179301738739013,0.0571015402674675
1630501945657,0.2975195348262787,0.1811058968305587,-0.1241199970245361,0.0571015402674675
1630501945751,0.2975195348262787,0.2064443677663803,-0.1265563070774078,0.0571015402674675
1630501945813,0.2975195348262787,0.2326844036579132,-0.1312000453472137,0.0571015402674675
1630501945954,0.2975195348262787,0.2467735260725021,-0.1466235518455505,0.0571015402674675
1630501946063,0.2975195348262787,0.2484917491674423,-0.1714721769094467,0.0571015402674675
1630501946157,0.2975195348262787,0.2438059747219085,-0.1972922682762146,0.0571015402674675
1630501946251,0.2975195348262787,0.2356133311986923,-0.2181879132986068,0.0571015402674675
1630501946344,0.2975195348262787,0.2209313213825225,-0.2382570952177047,0.0571015402674675
1630501946422,0.2975195348262787,0.2026935666799545,-0.260322630405426,0.0571015402674675
1630501946594,0.2975195348262787,0.1947404593229293,-0.2799864411354065,0.0571015402674675
1630501946688,0.2975195348262787,0.2060146331787109,-0.2953127324581146,0.0571015402674675
1630501946751,0.2975195348262787,0.2275314629077911,-0.3110331296920776,0.0571015402674675
1630501946844,0.2975195348262787,0.2464032918214798,-0.3330109715461731,0.0571015402674675
1630501946986,0.2975195348262787,0.2537296712398529,-0.3579751253128052,0.0571015402674675
1630501947054,0.2975195348262787,0.2451517283916473,-0.373980849981308,0.0571015402674675
1630501947179,0.2975195348262787,0.2191760241985321,-0.3762782216072082,0.0571015402674675
1630501947288,0.2975195348262787,0.1794270724058151,-0.373570054769516,0.0571015402674675
1630501947382,0.2975195348262787,0.1364418566226959,-0.3741147220134735,0.0571015402674675
1630501947429,0.2975195348262787,0.1017757803201675,-0.3614362478256225,0.0571015402674675
1630501947585,0.2975195348262787,0.0782197639346122,-0.3061297237873077,0.0571015402674675
1630501947648,0.2975195348262787,0.0656104758381843,-0.1937073916196823,0.0571015402674675
1630501947820,0.2975195348262787,0.0720394775271415,-0.0527747124433517,0.0571015402674675
1630501947882,0.2975195348262787,0.0724890604615211,0.0794420093297958,0.0571015402674675
1630501947976,0.2975195348262787,0.0594186410307884,0.1875495016574859,0.0571015402674675
1630501948085,0.2975195348262787,0.0234533566981554,0.2654504179954529,0.0571015402674675
1630501948179,0.2975195348262787,-0.0391444154083728,0.3167029619216919,0.0571015402674675
1630501948241,0.2975195348262787,0.1805654466152191,0.3493744730949402,0.0571015402674675
1630501948382,0.2975195348262787,0.3325808346271515,0.3706534504890442,0.0571015402674675
1630501948476,0.2975195348262787,0.4275890290737152,0.3846413195133209,0.0571015402674675
1630501948601,0.2975195348262787,0.4797825217247009,0.3944974243640899,0.0571015402674675
1630501948663,0.2975195348262787,0.5001129508018494,0.4016048312187195,0.0571015402674675
1630501948772,0.2975195348262787,0.4989536106586456,0.4071878790855407,0.0571015402674675
1630501948866,0.2975195348262787,0.4897492229938507,0.4140347242355346,0.0571015402674675
1630501948991,0.2975195348262787,0.4788970649242401,0.4213025867938995,0.0571015402674675
1630501949103,0.2975195348262787,0.4720953404903412,0.4232055246829986,0.0571015402674675
1630501949197,0.2975195348262787,0.4676252007484436,0.4096470475196838,0.0571015402674675
1630501949306,0.2975195348262787,0.4317558705806732,0.3742435872554779,0.0571015402674675
1630501949400,0.2975195348262787,0.403492122888565,0.3190422356128692,0.0571015402674675
1630501949462,0.2975195348262787,0.3865747451782226,0.2515760958194732,0.0571015402674675
1630501949634,0.2975195348262787,0.3824865520000458,0.1857762038707733,0.0571015402674675
1630501949744,0.2975195348262787,0.3857782781124115,0.1332055777311325,0.0571015402674675
1630501949806,0.2975195348262787,0.3113786578178406,0.0951744765043258,0.0571015402674675
1630501949900,0.2975195348262787,0.21263188123703,0.0677521079778671,0.0571015402674675
1630501950009,0.2975195348262787,0.1080080866813659,0.0512890703976154,0.0571015402674675
1630501950091,0.2975195348262787,0.029472779482603,0.0448309928178787,0.0571015402674675
1630501950231,0.2975195348262787,-0.003791062394157,0.0482575595378875,0.0571015402674675
1630501950341,0.2975195348262787,0.0056631756015121,0.0578482449054718,0.0571015402674675
1630501950435,0.2975195348262787,0.0433654673397541,0.0648763850331306,0.0571015402674675
1630501950544,0.2975195348262787,0.1140287593007087,0.0606210455298423,0.0571015402674675
1630501950622,0.2975195348262787,0.2092565596103668,0.0449763275682926,0.0571015402674675
1630501950701,0.2975195348262787,0.2355431914329528,0.0252372566610574,0.0571015402674675
1630501950856,0.2975195348262787,0.2608992755413055,0.0073202224448323,0.0571015402674675
1630501950935,0.2975195348262787,0.2834140062332153,-0.0097835334017872,0.0571015402674675
1630501951032,0.2975195348262787,0.2964946329593658,-0.032110322266817,0.0571015402674675
1630501951141,0.2975195348262787,0.293483555316925,-0.0604158826172351,0.0571015402674675
1630501951220,0.2975195348262787,0.2753762006759643,-0.0863796025514602,0.0571015402674675
1630501951298,0.2975195348262787,0.2567018568515777,-0.10050780326128,0.0571015402674675
1630501951501,0.2975195348262787,0.2575845718383789,-0.1000965610146522,0.0571015402674675
1630501951563,0.2975195348262787,0.28692227602005,-0.0923574566841125,0.0571015402674675
1630501951641,0.2975195348262787,0.3390058279037475,-0.0854630693793296,0.0571015402674675
1630501951719,0.2975195348262787,0.4111925959587097,-0.0805640146136283,0.0571015402674675
1630501951829,0.2975195348262787,0.4111925959587097,-0.0739114210009574,0.0571015402674675
1630501951938,0.2975195348262787,0.4111925959587097,-0.0629945024847984,0.0571015402674675
1630501952063,0.2975195348262787,0.4111925959587097,-0.0428307987749576,0.0571015402674675
1630501952125,0.2975195348262787,0.4111925959587097,-0.0155162131413817,0.0571015402674675
1630501952235,0.2975195348262787,0.4111925959587097,0.0137298479676246,0.0571015402674675
1630501952328,0.2975195348262787,0.4111925959587097,0.0460523031651973,0.0571015402674675
1630501952422,0.2975195348262787,0.5561483502388,0.082009419798851,0.0571015402674675
1630501952532,0.2975195348262787,0.5833855271339417,0.1210603192448616,0.0571015402674675
1630501952657,0.2975195348262787,0.639176070690155,0.1594999432563781,0.0571015402674675
1630501952766,0.2975195348262787,0.6969789862632751,0.1939272433519363,0.0571015402674675
1630501952860,0.2975195348262787,0.6969789862632751,0.223881334066391,0.0571015402674675
1630501952953,0.2975195348262787,0.6969789862632751,0.2484432309865951,0.0571015402674675
1630501953034,0.2975195348262787,0.6969789862632751,0.2660453617572784,0.0571015402674675
1630501953144,0.2975195348262787,0.6969789862632751,0.2772267758846283,0.0571015402674675
1630501953253,0.2975195348262787,0.6969789862632751,0.2833545804023742,0.0571015402674675
1630501953362,0.2975195348262787,0.6969789862632751,0.2858639359474182,0.0571015402674675
1630501953456,0.2975195348262787,0.6969789862632751,0.2842360436916351,0.0571015402674675
1630501953565,0.2975195348262787,0.6969789862632751,0.2768613696098327,0.0571015402674675
1630501953628,0.2975195348262787,0.6929453611373901,0.2643235921859741,0.0571015402674675
1630501953753,0.2975195348262787,0.666724681854248,0.2498701810836792,0.0571015402674675
1630501953893,0.2975195348262787,0.6335704326629639,0.2325604110956192,0.0571015402674675
1630501953971,0.2975195348262787,0.5962861776351929,0.2089339643716812,0.0571015402674675
1630501954068,0.2975195348262787,0.5429454445838928,0.1752216070890426,0.0571015402674675
1630501954161,0.2975195348262787,0.453667551279068,0.1325592100620269,0.0571015402674675
1630501954270,0.2975195348262787,0.3321637511253357,0.0842066332697868,0.0571015402674675
1630501954349,0.2975195348262787,0.4250447750091553,0.0311866905540227,0.0571015402674675
1630501954505,0.2975195348262787,0.5428425073623657,-0.0255655255168676,0.0571015402674675
1630501954599,0.2975195348262787,0.6550044417381287,-0.0807795599102974,0.0571015402674675
1630501954661,0.2975195348262787,0.7329500913619995,-0.1300802379846573,0.0571015402674675
1630501954770,0.2975195348262787,0.7686639428138733,-0.1750813126564026,0.0571015402674675
1630501954864,0.2975195348262787,0.7697115540504456,-0.2170217037200927,0.0571015402674675
1630501954958,0.2975195348262787,0.7504140138626099,-0.2461667656898498,0.0571015402674675
1630501955102,0.2975195348262787,0.7245497107505798,-0.2564755380153656,0.0571015402674675
1630501955211,0.2975195348262787,0.7049391865730286,-0.2507655918598175,0.0571015402674675
1630501955289,0.2975195348262787,0.6977604031562805,-0.2371456772089004,0.0571015402674675
1630501955367,0.2975195348262787,0.6939617395401001,-0.2211770266294479,0.0571015402674675
1630501955477,0.2975195348262787,0.6892606616020203,-0.2032015472650528,0.0571015402674675
1630501955570,0.2975195348262787,0.6822054982185364,-0.1856283694505691,0.0571015402674675
1630501955711,0.2975195348262787,0.6706534028053284,-0.1729399263858795,0.0571015402674675
1630501955836,-0.1171820014715194,0.651129424571991,-0.1679641008377075,0.4315090477466583
1630501955898,-0.0270962007343769,0.6157096028327942,-0.168364867568016,0.4768009781837463
1630501956008,0.0750454142689704,0.5474836826324463,-0.1708537936210632,0.5482897758483887
1630501956105,0.1569269597530365,0.4281590282917022,-0.1733874976634979,0.6122270226478577
1630501956167,0.2092406600713729,0.2521018087863922,-0.1744098514318466,0.6535962224006653
1630501956323,0.2422603219747543,0.044337909668684,-0.1747798472642898,0.6714912056922913
