timestamp,TP9,AF7,AF8,TP10
1631204135312,0.6076871156692505,0.3764427006244659,-0.2587771117687225,0.177197515964508
1631204135406,0.6022331118583679,0.3732153177261352,-0.261539876461029,0.1793210357427597
1631204135500,0.6017781496047974,0.37946817278862,-0.2639785706996918,0.1884400397539138
1631204135593,0.6044626832008362,0.3927369117736816,-0.2659724354743957,0.1999082416296005
1631204135687,0.6038423180580139,0.4065286219120025,-0.2734999358654022,0.2122434973716735
1631204135828,0.5992129445075989,0.414395272731781,-0.2913464307785034,0.2244704514741897
1631204135922,0.5883141160011292,0.4162800908088684,-0.3200946450233459,0.2399183809757232
1631204136000,0.5793910026550293,0.4167270064353943,-0.3532761931419372,0.2332880049943924
1631204136125,0.5770467519760132,0.4138952493667602,-0.3812885880470276,0.2209740430116653
1631204136219,0.5841566324234009,0.4107670187950134,-0.4011237621307373,0.2125107496976852
1631204136281,0.5731872916221619,0.4118078351020813,-0.4174716174602508,0.209738478064537
1631204136406,0.5564972758293152,0.4267840981483459,-0.4354186356067657,0.2280431091785431
1631204136518,0.5391033887863159,0.4596748352050781,-0.453083723783493,0.2756545543670654
1631204136612,0.5203583836555481,0.5005725026130676,-0.4610592424869537,0.3457238674163818
1631204136721,0.512424647808075,0.5388175845146179,-0.4496415853500366,0.4215452075004577
1631204136799,0.5089301466941833,0.5646911263465881,-0.4224111139774322,0.454559177160263
1631204136908,0.5123108625411987,0.5748496055603027,-0.3875198364257812,0.4600701034069061
1631204137033,0.5195645093917847,0.5717399716377258,-0.3497775495052337,0.4488614797592163
1631204137127,0.5235813856124878,0.5614879131317139,-0.3103113174438476,0.4291585087776184
1631204137205,0.5336843132972717,0.5494998693466187,-0.2697429358959198,0.4095762073993683
1631204137315,0.5512992143630981,0.5400391221046448,-0.2326350063085556,0.3904917240142822
1631204137393,0.5512992143630981,0.5352659225463867,-0.2022406607866287,0.3754328489303589
1631204137502,0.5512992143630981,0.5353444814682007,-0.1792921721935272,0.3838114142417907
1631204137643,0.5512992143630981,0.5388059020042419,-0.1643735319375991,0.3971175849437713
1631204137736,0.5512992143630981,0.5401372313499451,-0.1568041145801544,0.4081867933273315
1631204137830,0.5309277176856995,0.534957766532898,-0.1557061076164245,0.4122033715248108
1631204137908,0.5258205533027649,0.5197021961212158,-0.1598646193742752,0.4042730629444122
1631204138017,0.5204728841781616,0.492022693157196,-0.1672101765871048,0.3811561167240143
1631204138127,0.5168440937995911,0.4522653818130493,-0.174796849489212,0.3431284129619598
1631204138299,0.5190659165382385,0.4055007994174957,-0.1787184625864029,0.2947284877300262
1631204138361,0.5300934314727783,0.3645079135894775,-0.1749324351549148,0.2528213262557983
1631204138439,0.547407865524292,0.3416414856910705,-0.1640029698610305,0.2283016145229339
1631204138533,0.5636126399040222,0.3389361798763275,-0.1499232053756714,0.2216550409793853
1631204138611,0.5723055601119995,0.3497005105018616,-0.1355601400136947,0.2297507226467132
1631204138736,0.5730177760124207,0.3660772740840912,-0.1210414916276931,0.2430269569158554
1631204138848,0.5701096057891846,0.3834878504276275,-0.1073457151651382,0.2582359910011291
1631204138957,0.5675110220909119,0.3968361616134643,-0.0987013503909111,0.265879362821579
1631204139067,0.5751253962516785,0.4015233218669891,-0.0987755879759788,0.2601025104522705
1631204139160,0.5863166451454163,0.3976194560527801,-0.1040050089359283,0.2422023266553878
1631204139254,0.59831303358078,0.3895148932933807,-0.1050996929407119,0.2177207171916961
1631204139332,0.6073299646377563,0.383478581905365,-0.0950955972075462,0.1974788904190063
1631204139473,0.6118390560150146,0.3827844262123108,-0.0738406106829643,0.1897682845592498
1631204139598,0.613793671131134,0.3872182965278625,-0.047734972089529,0.1921038031578064
1631204139676,0.6177712678909302,0.3952356278896332,-0.0252235475927591,0.1978489756584167
1631204139738,0.622599720954895,0.4043109714984894,-0.0126852560788393,0.20277900993824
1631204139832,0.6218411922454834,0.4118529558181762,-0.0134003069251775,0.2112546414136886
1631204139957,0.6116200685501099,0.4160819351673126,-0.027365855872631,0.2303345650434494
1631204140082,0.5945630073547363,0.4147869050502777,-0.0524317249655723,0.2568722367286682
1631204140160,0.5761530995368958,0.4047959744930267,-0.0865247622132301,0.2793945670127868
1631204140285,0.5609874725341797,0.3844951391220093,-0.1263726204633712,0.2908134758472442
1631204140363,0.5483643412590027,0.3560035824775696,-0.1648726761341095,0.2942817807197571
1631204140441,0.5363767147064209,0.325188010931015,-0.1923080533742904,0.2983593940734863
1631204140535,0.5229463577270508,0.298418253660202,-0.2030275613069534,0.3072210848331451
1631204140692,0.5026200413703918,0.2778657078742981,-0.2027030438184738,0.3194524645805359
1631204140769,0.476778894662857,0.2615156769752502,-0.2037896513938903,0.331769734621048
1631204140894,0.4517503976821899,0.2456692606210708,-0.2153908759355545,0.3399159014225006
1631204140972,0.4322683215141296,0.2287758588790893,-0.2402061372995376,0.3400160372257232
1631204141066,0.4203743040561676,0.2126285880804062,-0.2736122012138366,0.3319828808307647
1631204141160,0.4141643643379211,0.1993613690137863,-0.3060610890388489,0.3196761608123779
1631204141301,0.4095546901226043,0.1874459534883499,-0.3297693133354187,0.3065438568592071
1631204141426,0.4098281562328338,0.1722112149000167,-0.3409592509269714,0.2911339700222015
1631204141488,0.4209555387496948,0.1508658826351165,-0.3402410447597503,0.2694991528987884
1631204141597,0.4449029266834259,0.1256603300571441,-0.3319231867790222,0.243066668510437
1631204141660,0.4794780611991882,0.1013720631599426,-0.3229344487190246,0.2181033790111541
1631204141785,0.5160413980484009,0.0818376243114471,-0.3190763592720032,0.2008201628923416
1631204141900,0.5472135543823242,0.0675265938043594,-0.3211772441864013,0.1909993886947631
1631204141994,0.5708178877830505,0.0579610094428062,-0.3234505951404571,0.1869174093008041
1631204142088,0.5844399333000183,0.0541970208287239,-0.3197862505912781,0.1889852583408355
1631204142197,0.591734766960144,0.0574881583452224,-0.3099505305290222,0.1852413266897201
1631204142276,0.5979052782058716,0.0650892481207847,-0.2977242469787597,0.1823229044675827
1631204142400,0.6053340435028076,0.0702108219265937,-0.2863275110721588,0.1796067804098129
1631204142509,0.6150307059288025,0.0667638555169105,-0.2762342691421509,0.1789697855710983
1631204142650,0.6228538155555725,0.0514347702264785,-0.2680753767490387,0.1849011480808258
1631204142759,0.6240724325180054,0.0249020960181951,-0.2642168998718261,0.198037102818489
1631204142826,0.627751886844635,-0.0069397971965372,-0.267676293849945,0.2148812115192413
1631204142888,0.6297962665557861,-0.0339465029537677,-0.2801477015018463,0.2309085875749588
1631204142982,0.6294273138046265,-0.0474438332021236,-0.2987746000289917,0.24319688975811
1631204143123,0.6236327290534973,-0.04637161642313,-0.3163460195064544,0.2481781244277954
1631204143232,0.5931326746940613,-0.036977581679821,-0.3242329061031341,0.2487753033638
1631204143341,0.5544567108154297,-0.0260014124214649,-0.3206668794155121,0.2487753033638
1631204143419,0.5307304859161377,-0.0174263380467891,-0.3127352297306061,0.2487753033638
1631204143498,0.5088666677474976,-0.0133434794843196,-0.3114581704139709,0.2487753033638
1631204143607,0.4927933812141418,-0.0149711277335882,-0.3216857612133026,0.2487753033638
1631204143732,0.4828129708766937,-0.0220319777727127,-0.3383764326572418,0.2487753033638
1631204143812,0.4743766486644745,-0.0327062755823135,-0.3511974811553955,0.2487753033638
1631204143892,0.4670843482017517,-0.0449078679084777,-0.3546726107597351,0.2487753033638
1631204144017,0.4519149959087372,-0.0561219453811645,-0.3535184860229492,0.2487753033638
1631204144126,0.4519149959087372,-0.0630611404776573,-0.3543161451816559,0.2487753033638
1631204144204,0.4519149959087372,-0.0630323067307472,-0.3583363890647888,0.2487753033638
1631204144361,0.4519149959087372,-0.0577794648706913,-0.3601195514202118,0.2487753033638
1631204144454,0.4519149959087372,-0.0531520284712314,-0.3551998138427734,0.2487753033638
1631204144532,0.3837225437164306,-0.0540559031069278,-0.3448405861854553,0.2487753033638
1631204144626,0.3720820546150207,-0.0602880269289016,-0.3340635001659393,0.2487753033638
1631204144735,0.3538309633731842,-0.0677734836935997,-0.3277623355388641,0.3298501372337341
1631204144813,0.3476176261901855,-0.0742763876914978,-0.3278962671756744,0.3205792605876922
1631204144970,0.3511133193969726,-0.0817763954401016,-0.333181619644165,0.308890163898468
1631204145048,0.3591511845588684,-0.0918382406234741,-0.3394518196582794,0.3015377819538116
1631204145157,0.3680289685726166,-0.1026503890752792,-0.3438400626182556,0.3016005754470825
1631204145235,0.3731603920459747,-0.1088450103998184,-0.346461147069931,0.3053104281425476
1631204145329,0.3731603920459747,-0.1063150092959404,-0.3512594103813171,0.3053104281425476
1631204145423,0.3731603920459747,-0.0925175994634628,-0.3622706234455108,0.3053104281425476
1631204145563,0.3731603920459747,-0.0695266500115394,-0.3755543231964111,0.3053104281425476
1631204145641,0.3731603920459747,-0.0415541641414165,-0.3825676441192627,0.3053104281425476
1631204145735,0.3731603920459747,-0.0139075117185711,-0.3892596364021301,0.3053104281425476
1631204145847,0.3731603920459747,0.0109215285629034,-0.3964810073375702,0.3053104281425476
1631204145940,0.3649711608886719,0.0320794247090816,-0.4052388370037079,0.3062517344951629
1631204146034,0.3638451695442199,0.047170516103506,-0.4174549877643585,0.3028009235858917
1631204146159,0.3704250156879425,0.0533888861536979,-0.4353961050510406,0.2940216958522796
1631204146268,0.3850977122783661,0.0518983229994773,-0.4585095345973968,0.2846287190914154
1631204146347,0.4031111598014831,0.0484658889472484,-0.4808657765388489,0.2854370772838592
1631204146456,0.4031111598014831,0.0484226830303669,-0.4952700734138489,0.2854370772838592
1631204146534,0.4031111598014831,0.0508554019033908,-0.4889059364795685,0.2854370772838592
1631204146643,0.4031111598014831,0.0557030215859413,-0.4107076227664947,0.2854370772838592
1631204146768,0.4031111598014831,0.0672983154654502,-0.3951249122619629,0.2854370772838592
1631204146862,0.4031111598014831,0.087750919163227,-0.3755545020103454,0.2854370772838592
1631204146987,0.4031111598014831,0.1134866252541542,-0.3755545020103454,0.2854370772838592
1631204147065,0.4031111598014831,0.1121514439582824,-0.3755545020103454,0.2854370772838592
1631204147159,0.4031111598014831,0.1074401587247848,-0.3755545020103454,0.2854370772838592
1631204147253,0.4031111598014831,0.1006229072809219,-0.3755545020103454,0.2854370772838592
1631204147393,0.4031111598014831,0.0927296504378318,-0.3755545020103454,0.2854370772838592
1631204147487,0.4031111598014831,0.0844510197639465,-0.3755545020103454,0.2854370772838592
1631204147581,0.4031111598014831,0.079223945736885,-0.3755545020103454,0.2854370772838592
1631204147674,0.4031111598014831,0.0836527124047279,-0.3755545020103454,0.2854370772838592
1631204147768,0.4031111598014831,0.1019777506589889,-0.3755545020103454,0.2854370772838592
1631204147880,0.4031111598014831,0.1319231241941452,-0.3755545020103454,0.2854370772838592
1631204147989,0.4031111598014831,0.1686675995588302,-0.3755545020103454,0.2854370772838592
1631204148083,0.4031111598014831,0.2143339663743972,-0.3755545020103454,0.2854370772838592
1631204148192,0.4031111598014831,0.2143339663743972,-0.3755545020103454,0.2854370772838592
1631204148270,0.4031111598014831,0.2143339663743972,-0.3755545020103454,0.2854370772838592
1631204148364,0.4031111598014831,0.2143339663743972,-0.3755545020103454,0.2854370772838592
1631204148458,0.4031111598014831,0.2143339663743972,-0.3755545020103454,0.2854370772838592
1631204148616,0.4031111598014831,0.2143339663743972,-0.3755545020103454,0.2854370772838592
1631204148710,0.4031111598014831,0.208750694990158,-0.3755545020103454,0.2854370772838592
1631204148788,0.4031111598014831,0.2063367515802383,-0.3755545020103454,0.2854370772838592
1631204148882,0.4031111598014831,0.1965354233980178,-0.3755545020103454,0.2854370772838592
1631204148976,0.4031111598014831,0.186698168516159,-0.3755545020103454,0.2854370772838592
1631204149069,0.4031111598014831,0.1834145039319992,-0.3755545020103454,0.2854370772838592
1631204149194,0.4031111598014831,0.1861951351165771,-0.3755545020103454,0.2854370772838592
1631204149319,0.4031111598014831,0.1894584894180297,-0.3755545020103454,0.2854370772838592
1631204149398,0.4031111598014831,0.1883026510477066,-0.3755545020103454,0.2854370772838592
1631204149491,0.4031111598014831,0.1817230880260467,-0.3755545020103454,0.2854370772838592
1631204149601,0.4031111598014831,0.1723385006189346,-0.5676162242889404,0.2854370772838592
1631204149694,0.4031111598014831,0.1629317253828048,-0.5493146777153015,0.2854370772838592
1631204149821,0.4031111598014831,0.1541274935007095,-0.5338463187217712,0.2854370772838592
1631204149915,0.4031111598014831,0.1373981386423111,-0.5140935778617859,0.2854370772838592
1631204150024,0.4031111598014831,0.1199247241020202,-0.4908364415168762,0.2854370772838592
1631204150103,0.4031111598014831,0.0960914939641952,-0.4732724130153656,0.2854370772838592
1631204150258,0.387270987033844,0.0662514939904213,-0.4673711359500885,0.0849587246775627
1631204150322,0.3543236851692199,0.0365833342075347,-0.4713819921016693,0.0917254909873008
1631204150480,0.329499214887619,0.012167134322226,-0.4796897172927856,0.0891032591462135
1631204150559,0.3129797577857971,-0.0088265538215637,-0.4875445365905761,0.0824712067842483
1631204150637,0.3056583106517792,-0.0335975475609302,-0.4945915341377258,0.0771462842822074
1631204150746,0.3071965277194977,-0.0679298266768455,-0.5010694861412048,0.0744388923048973
1631204150824,0.3178096711635589,-0.1107216030359268,-0.4983615279197693,0.0725655034184455
1631204150918,0.3320854604244232,-0.154036059975624,-0.4925485253334045,0.0689067915081977
1631204151043,0.3439811468124389,-0.1897358745336532,-0.4875145554542541,0.0649108216166496
1631204151151,0.3526573777198791,-0.217185840010643,-0.4873623847961426,0.0648927465081214
1631204151247,0.3561277985572815,-0.2408559769392013,-0.4927147030830383,0.0694300010800361
1631204151382,0.353479653596878,-0.2630198001861572,-0.5047549605369568,0.0772037953138351
1631204151570,0.3316692411899566,-0.2786083519458771,-0.5244065523147583,0.0790163800120353
1631204151728,0.323991060256958,-0.2833402454853058,-0.5504239797592163,0.0855892449617385
1631204151900,0.3353258669376373,-0.2782072722911834,-0.5731241703033447,0.0957785546779632
1631204152072,0.3636714816093445,-0.2682224214076996,-0.5792202353477478,0.1080677285790443
1631204152197,0.407061755657196,-0.260693222284317,-0.5645262598991394,0.1206711158156395
1631204152400,0.4571747183799743,-0.2599825263023376,-0.5370630025863647,0.1308523714542389
1631204152588,0.5025177597999573,-0.2625303566455841,-0.5093466639518738,0.1416207998991012
1631204152775,0.5330178141593933,-0.2569023668766022,-0.4883674085140228,0.1618202775716781
1631204152962,0.5474863648414612,-0.2343847602605819,-0.4765486121177673,0.1931847482919693
1631204153119,0.5508312582969666,-0.2002669870853424,-0.4739345610141754,0.2266293913125991
1631204153275,0.5475642681121826,-0.1700339168310165,-0.4792841970920563,0.2521999776363373
1631204153447,0.5419504046440125,-0.1536760926246643,-0.4880232810974121,0.2649276554584503
1631204153634,0.5353280305862427,-0.1499063670635223,-0.4946692287921905,0.2770965099334717
1631204153793,0.5313397645950317,-0.1505736410617828,-0.4959488809108734,0.2876906394958496
1631204153996,0.5315407514572144,-0.1467682868242263,-0.4927062094211578,0.2967212200164795
1631204154136,0.5343035459518433,-0.1336958855390548,-0.4887687861919403,0.3085349798202514
1631204154308,0.5362016558647156,-0.1111336275935173,-0.4882116019725799,0.3236222267150879
1631204154496,0.5420548915863037,-0.0818218663334846,-0.495474636554718,0.337374597787857
1631204154714,0.5387560725212097,-0.0516748093068599,-0.513407826423645,0.3479930758476257
1631204154886,0.5202364921569824,-0.0260979272425174,-0.5401277542114258,0.3592273592948913
1631204155074,0.4845068454742431,-0.0067294421605765,-0.5704590678215027,0.3823937177658081
1631204155245,0.4355006814002991,0.0062178554944694,-0.598875880241394,0.4172216355800628
1631204155417,0.3883080780506134,0.0108967591077089,-0.6227676272392273,0.4172216355800628
1631204155652,0.3524610996246338,0.0047789546661078,-0.6406727433204651,0.4172216355800628
1631204155826,0.3402518928050995,-0.0105768190696835,-0.6511242389678955,0.4172216355800628
1631204156029,0.35328209400177,-0.0275265593081712,-0.6534889340400696,0.4172216355800628
1631204156216,0.3830744624137878,-0.039056584239006,-0.6505030989646912,0.1285883486270904
1631204156420,0.4209609925746918,-0.0453143343329429,-0.6447864770889282,0.1466269642114639
1631204156654,0.4564400911331177,-0.0522644035518169,-0.6381547451019287,0.1631624698638916
1631204156857,0.4859524369239807,-0.0656538605690002,-0.6313319802284241,0.1711166501045227
1631204157091,0.5089719295501709,-0.0883459225296974,-0.6223652958869934,0.1699579060077667
1631204157247,0.522996723651886,-0.1205852925777435,-0.6075525283813477,0.1639067679643631
1631204157497,0.5161705017089844,-0.1607975214719772,-0.5852500200271606,0.1581841111183166
1631204157716,0.5081348419189453,-0.2036308050155639,-0.5602605938911438,0.157795250415802
1631204157935,0.5005053877830505,-0.2423376888036728,-0.5418286919593811,0.1627096384763717
1631204158153,0.4957723021507263,-0.2743825912475586,-0.5359296798706055,0.1680489033460617
1631204158341,0.494573563337326,-0.3017109632492065,-0.5408815741539001,0.1689614206552505
1631204158578,0.4937561154365539,-0.326490581035614,-0.5493555068969727,0.1627504974603653
1631204158827,0.5013077259063721,-0.3469232022762298,-0.5548412799835205,0.1510759890079498
1631204159062,0.5030674934387207,-0.3621948957443237,-0.5561690926551819,0.1549059152603149
1631204159249,0.504442036151886,-0.375539630651474,-0.557807981967926,0.15926593542099
1631204159468,0.4999099373817444,-0.3891964554786682,-0.5642800331115723,0.1598848700523376
1631204159719,0.490457534790039,-0.4006587564945221,-0.5771111845970154,0.1548104286193847
1631204160002,0.4780150949954986,-0.4046198725700378,-0.593362033367157,0.1456003189086914
1631204160252,0.4649457931518554,-0.3995873034000397,-0.6065720915794373,0.1370235979557037
1631204160487,0.4522967934608459,-0.3887843489646911,-0.6099537014961243,0.1338302195072174
1631204160815,0.4435837864875793,-0.3775879144668579,-0.597560703754425,0.1368342638015747
1631204161065,0.4427516758441925,-0.3706078827381134,-0.5683062076568604,0.1422295719385147
1631204161377,0.4466871619224548,-0.3692140877246856,-0.5293974876403809,0.1398599594831466
1631204161627,0.4543276727199554,-0.3707704544067383,-0.4933961927890777,0.1193536594510078
1631204162767,0.4717523157596588,-0.3323846459388733,-0.4363619983196258,0.1193536594510078
1631204163502,0.4717523157596588,-0.4057633876800537,-0.5279693603515625,0.1193536594510078
1631204163861,0.4717523157596588,-0.3833799660205841,-0.5116020441055298,0.1193536594510078
1631204164111,0.4717523157596588,-0.3496993780136108,-0.4927753210067749,0.1193536594510078
1631204164376,0.4717523157596588,-0.3031918406486511,-0.4833081662654876,0.1193536594510078
1631204164675,0.4717523157596588,-0.2427282929420471,-0.4940229058265686,0.1193536594510078
1631204164863,0.4717523157596588,-0.1622592359781265,-0.5264416337013245,0.1193536594510078
1631204165129,0.4717523157596588,-0.12663234770298,-0.5987844467163086,0.1193536594510078
1631204165865,0.4717523157596588,0.0647968500852584,-0.6113676428794861,0.1193536594510078
1631204167649,0.4717523157596588,0.1937476843595504,-0.6113676428794861,0.1193536594510078
1631204168180,0.4717523157596588,0.1937476843595504,-0.5345196723937988,0.1193536594510078
1631204170506,0.4717523157596588,0.1937476843595504,-0.6396172642707825,0.1193536594510078
1631204171856,0.4717523157596588,0.0488740652799606,-0.3701704442501068,0.1193536594510078
1631204175409,0.2762006819248199,-0.1710349768400192,-0.4405296742916107,0.1493507176637649
1631204180314,0.5909178256988525,-0.1737699657678604,-0.5573213696479797,0.4843535721302032
1631204184207,0.4705364406108856,-0.3628284931182861,-0.4701542556285858,0.3529882133007049
1631204185197,0.6453046202659607,-0.2002515941858291,-0.6176528930664062,0.2359870374202728
1631204192048,0.5624072551727295,-0.044197991490364,-0.3641915917396545,0.2590676248073578
1631204193461,0.6744056940078735,0.0941315665841102,-0.2755118608474731,0.3301976323127746
1631204193978,0.5922399163246155,-0.213175892829895,-0.3812279999256134,-0.0303735472261905
1631204194299,0.586098313331604,-0.2010881453752517,-0.3676404356956482,0.1184248551726341
1631204196840,0.4881117641925812,-0.3241686224937439,-0.4301857054233551,0.5735649466514587
1631204199877,0.4766238033771515,0.0049392865039408,-0.400823026895523,0.3137034177780151
1631204200880,0.4766238033771515,-0.2741243839263916,-0.4127121567726135,0.3137034177780151
1631204202102,0.7162702083587646,-0.2149894684553146,-0.5682129859924316,0.3606463372707367
1631204202148,0.7072234153747559,-0.2154653221368789,-0.5803738832473755,0.3493004441261291
1631204202695,0.5610241889953613,-0.2091977149248123,-0.494717001914978,0.1950747817754745
1631204205010,0.4966906309127807,-0.37398362159729,-0.5095692873001099,0.1879373639822006
1631204205447,0.5505461096763611,-0.4003094732761383,-0.5739434361457825,0.2359295785427093
1631204205825,0.515621542930603,-0.4046251475811004,-0.5630524158477783,0.2397724688053131
1631204206231,0.5098026394844055,-0.3149946331977844,-0.4938274025917053,0.2742570340633392
1631204206294,0.5028924345970154,-0.3215105235576629,-0.4810414016246795,0.2770449817180633
1631204207171,0.4623931050300598,-0.2124369293451309,-0.5325027108192444,0.3019774258136749
1631204208316,0.4294736087322235,-0.2604985535144806,-0.6171676516532898,0.1016925796866417
1631204208628,0.4117988348007202,-0.3278172016143799,-0.5645027756690979,0.138643205165863
1631204208773,0.4188146591186523,-0.3673610687255859,-0.5558070540428162,0.1630970388650894
1631204209460,0.4979534745216369,-0.4059412181377411,-0.4851785898208618,0.2764181792736053
1631204209776,0.4931483268737793,-0.3734690546989441,-0.5090533494949341,0.2259738147258758
1631204210057,0.4636377692222595,-0.3043262064456939,-0.5422201156616211,0.115200787782669
1631204210338,0.455697625875473,-0.3382023572921753,-0.5627831816673279,0.0794462710618972
1631204210400,0.4444625675678253,-0.3421445786952972,-0.5742308497428894,0.0696200281381607
1631204210494,0.4292608499526977,-0.337645947933197,-0.5870512127876282,0.0621606409549713
1631204210603,0.4111288785934448,-0.326997309923172,-0.5930160284042358,0.0594477467238903
1631204210888,0.3812314569950104,-0.3090062141418457,-0.5719444155693054,0.0771379098296165
1631204211138,0.4162974953651428,-0.3724766373634338,-0.5353274345397949,0.1357930451631546
1631204211295,0.4074037075042724,-0.3658205270767212,-0.5359507203102112,0.1856407821178436
1631204211701,0.4019895792007446,-0.2467522025108337,-0.4758048951625824,0.3046772181987762
1631204212000,0.3651131093502044,-0.1263900250196457,-0.4100754559040069,0.2942948341369629
1631204212047,0.3669318556785583,-0.1164528429508209,-0.3918322026729584,0.2847025394439697
1631204212156,0.3961471617221832,-0.1138944402337074,-0.3805605769157409,0.2562571465969085
1631204212328,0.3984726071357727,-0.1148176342248916,-0.3920207619667053,0.218922957777977
1631204212691,0.3791894912719726,-0.1615286916494369,-0.4069175124168396,0.1873956024646759
1631204212738,0.3864589929580688,-0.1923254877328872,-0.4211800992488861,0.1870669871568679
1631204212800,0.3948821127414703,-0.2225479483604431,-0.4419213831424713,0.1945478171110153
1631204212832,0.3990481793880462,-0.24420727789402,-0.4677130579948425,0.2137325853109359
1631204213004,0.3779987096786499,-0.263837993144989,-0.4904378354549408,0.2795723974704742
1631204213066,0.3744964003562927,-0.2725158631801605,-0.4641178250312805,0.294947475194931
1631204213097,0.3781102895736694,-0.2867561876773834,-0.4350520670413971,0.3080403804779053
1631204213238,0.4247200787067413,-0.3277465999126434,-0.3970904052257538,0.3121872842311859
1631204213316,0.4419967234134674,-0.3176742494106293,-0.4023951888084411,0.2929909527301788
1631204213363,0.441063791513443,-0.3126063048839569,-0.3946795761585235,0.2832624614238739
1631204213472,0.4327071905136108,-0.301339328289032,-0.3507373631000519,0.2812506258487701
1631204213519,0.429695188999176,-0.2994231581687927,-0.3309760689735412,0.2906346619129181
1631204213550,0.4246513545513153,-0.2997049391269684,-0.3149195611476898,0.2986635863780975
1631204213582,0.4164893329143524,-0.3036680221557617,-0.3096608519554138,0.2988519370555877
1631204213613,0.4035692811012268,-0.3113135099411011,-0.3183653056621551,0.289940595626831
1631204213691,0.3691939413547516,-0.3292161524295807,-0.3541497886180877,0.2661393582820892
1631204213738,0.3496839106082916,-0.3372260332107544,-0.362077921628952,0.2613893747329712
1631204213785,0.3333719074726105,-0.3472273051738739,-0.3586885035037994,0.2622821927070617
1631204213816,0.3266462683677673,-0.3607007563114166,-0.3493815064430237,0.2673442363739013
1631204213863,0.3341570496559143,-0.3744039833545685,-0.3398346900939941,0.2743582427501678
1631204213910,0.3512731194496155,-0.3831963539123535,-0.3336474001407623,0.2804032564163208
1631204213956,0.3660423159599304,-0.384099006652832,-0.3303162455558777,0.2838821113109588
1631204214003,0.3708268404006958,-0.3760019838809967,-0.3285428881645202,0.2833683788776397
1631204214035,0.3667600154876709,-0.3608544468879699,-0.3284922242164612,0.2758215963840484
1631204214066,0.3586662113666534,-0.3442670404911041,-0.3330046236515045,0.2573704123497009
1631204214113,0.3517143428325653,-0.3329467475414276,-0.3431915938854217,0.2296846508979797
1631204214144,0.3477350175380707,-0.3294500708580017,-0.3564986288547516,0.202024832367897
1631204214206,0.3476207256317138,-0.3280088305473327,-0.3671314120292663,0.1858898401260376
1631204214253,0.354241281747818,-0.3212942779064178,-0.3716068565845489,0.181652083992958
1631204214347,0.373053103685379,-0.3104155659675598,-0.3722392320632934,0.1798459142446518
1631204214409,0.38920459151268,-0.3037655055522918,-0.3752225339412689,0.173774853348732
1631204214472,0.4009954035282135,-0.3078981637954712,-0.3844158053398132,0.1648228019475937
1631204214519,0.4077681005001068,-0.3216385543346405,-0.3988752067089081,0.1583809405565261
1631204214566,0.4054808318614959,-0.3391685783863067,-0.4141493439674377,0.1528449952602386
1631204214613,0.3955132663249969,-0.3554116785526275,-0.4262928366661072,0.1453350931406021
1631204214644,0.3864873945713043,-0.3682787418365478,-0.4341485202312469,0.1370511651039123
1631204214691,0.3900943398475647,-0.3791975378990173,-0.4419010579586029,0.1318177878856659
1631204214816,0.3879263997077942,-0.3921376168727875,-0.4540698826313019,0.1313051432371139
1631204214894,0.3952547311782837,-0.4072532951831817,-0.4724254310131073,0.1335924714803695
1631204215034,0.4076661169528961,-0.4170876443386078,-0.4923087656497955,0.1366695761680603
1631204215128,0.4283631145954132,-0.4119730591773987,-0.5085594654083252,0.1348961442708969
1631204215222,0.4336605072021484,-0.3905065953731537,-0.5207073092460632,0.1299222558736801
1631204215300,0.4424493908882141,-0.3620416522026062,-0.5322622656822205,0.1257781684398651
1631204215394,0.4534250497817993,-0.3363650441169739,-0.5430201292037964,0.1304583698511123
1631204215503,0.4650510847568512,-0.3156086206436157,-0.5466765761375427,0.1533234268426895
1631204215644,0.4763453006744385,-0.2966086864471435,-0.5370715260505676,0.1915430873632431
1631204215737,0.4855738878250122,-0.2762022912502289,-0.516862690448761,0.2300384938716888
1631204215818,0.4901613295078277,-0.25525763630867,-0.4935327470302582,0.2556492984294891
1631204215912,0.4915348887443542,-0.2362252473831176,-0.4731896221637726,0.2683804631233215
1631204216006,0.4901763796806335,-0.2195034176111221,-0.4599610567092895,0.2737438976764679
1631204216131,0.4851917922496795,-0.204508751630783,-0.4553388059139251,0.2671142220497131
1631204216240,0.47354456782341,-0.1909926682710647,-0.4570282995700836,0.2613630592823028
1631204216334,0.466723769903183,-0.1801656037569046,-0.4593976140022278,0.2556814551353454
1631204216444,0.4566406011581421,-0.1744516789913177,-0.4560737013816833,0.2479428052902221
1631204216524,0.4434271156787872,-0.1758972704410553,-0.4451231360435486,0.2433736473321914
1631204216649,0.4247414469718933,-0.1851040422916412,-0.4278849065303802,0.2386655062437057
1631204216727,0.4086082279682159,-0.2002564519643783,-0.4056441783905029,0.2343470007181167
1631204216836,0.3918768465518951,-0.2185512483119964,-0.381693422794342,0.2281396239995956
1631204216993,0.3735627830028534,-0.2388786822557449,-0.3614300489425659,0.216479554772377
1631204217039,0.3577049374580383,-0.2616032063961029,-0.3506094813346863,0.1947370916604995
1631204217133,0.3548195362091064,-0.2862343788146972,-0.35157510638237,0.1664726585149765
1631204217227,0.3735765814781189,-0.3103071749210357,-0.3610358536243438,0.1446741670370102
1631204217321,0.408534437417984,-0.3290702700614929,-0.3730860352516174,0.1414383500814438
1631204217477,0.441493421792984,-0.3385135531425476,-0.3834165632724762,0.1575510799884796
1631204217555,0.461716890335083,-0.3406787514686584,-0.390257716178894,0.1809156686067581
1631204217648,0.4697614014148712,-0.3426620662212372,-0.393841028213501,0.200526550412178
1631204217742,0.4721818268299103,-0.3514414429664612,-0.3958575129508972,0.211961030960083
1631204217856,0.4747250378131866,-0.3688842952251434,-0.3985928893089294,0.2163082659244537
1631204217950,0.4814965724945068,-0.3896987438201904,-0.4032948017120361,0.2176826000213623
1631204218075,0.4946371912956238,-0.4067071974277496,-0.4103734791278839,0.2204801589250564
1631204218169,0.5126852989196777,-0.4155501127243042,-0.4198817908763885,0.2281495332717895
1631204218262,0.5309419631958008,-0.4191226363182068,-0.4325474798679352,0.239969864487648
1631204218356,0.5467371344566345,-0.4232296943664551,-0.4455575942993164,0.2550660073757171
1631204218450,0.5615661144256592,-0.4306311905384063,-0.4528544247150421,0.2741625308990478
1631204218548,0.5742983222007751,-0.4379541873931885,-0.4512245059013366,0.2975432872772217
1631204218704,0.5801944136619568,-0.4397105574607849,-0.4447834491729736,0.3206247687339782
1631204218798,0.576781153678894,-0.4362794756889343,-0.4395816028118133,0.3372530043125152
1631204218876,0.5671476721763611,-0.4353960156440735,-0.4377743005752563,0.3441874086856842
1631204218970,0.5601570010185242,-0.4466989934444427,-0.4386421144008636,0.3419013321399688
1631204219063,0.5599979162216187,-0.4713680148124695,-0.4425190985202789,0.3334152400493622
1631204219141,0.5627196431159973,-0.4998996257781982,-0.4485546350479126,0.3213233351707458
1631204219298,0.5630187392234802,-0.5193721055984497,-0.4500578045845032,0.3081018030643463
1631204219407,0.5599732398986816,-0.5246264338493347,-0.4397026300430298,0.2967175543308258
1631204219485,0.5553548336029053,-0.5216323137283325,-0.4206322729587555,0.2881664335727691
1631204219579,0.5517240166664124,-0.5154768228530884,-0.4033397436141968,0.2805634438991546
1631204219672,0.5507979989051819,-0.506358802318573,-0.394483208656311,0.2704024016857147
1631204219751,0.5527355074882507,-0.4930357038974762,-0.3919034302234649,0.2583697438240051
1631204219929,0.5546420216560364,-0.4800792932510376,-0.3910003900527954,0.2470402419567108
1631204220007,0.5521413087844849,-0.4719657301902771,-0.3906397819519043,0.2354756742715835
1631204220085,0.5445466041564941,-0.4709941744804382,-0.3926512897014618,0.2186676561832428
1631204220210,0.5343465805053711,-0.4760438501834869,-0.3970401287078857,0.1945844441652298
1631204220319,0.5214884281158447,-0.4825547337532043,-0.4019780158996582,0.1651665866374969
1631204220398,0.50351881980896,-0.4847360551357269,-0.4077831208705902,0.1364700496196746
1631204220511,0.4803632199764251,-0.4781956374645233,-0.4160281717777252,0.1133075281977653
1631204220604,0.4541175961494446,-0.4634972810745239,-0.4256656765937805,0.1012158319354057
1631204220698,0.4323718547821045,-0.4430512189865112,-0.4326351881027221,0.1059331744909286
1631204220776,0.4204355478286743,-0.4190774261951446,-0.4366951584815979,0.1071565449237823
1631204220885,0.4249152541160583,-0.3950866460800171,-0.4435588419437408,0.1156772151589393
1631204220979,0.4317070841789245,-0.3875109851360321,-0.4560503959655761,0.1288328319787979
1631204221119,0.4340969026088714,-0.3824880123138428,-0.4712419509887695,0.1470255851745605
1631204221229,0.4261997938156128,-0.382976233959198,-0.4821445047855377,0.1694326251745224
1631204221307,0.4058196246623993,-0.3886056542396545,-0.4881642460823059,0.1907405108213424
1631204221385,0.3774519264698028,-0.392778605222702,-0.4954929947853088,0.2040107250213623
1631204221494,0.348396360874176,-0.3890714645385742,-0.5101292133331299,0.2066948860883712
1631204221588,0.3238459527492523,-0.3752732872962951,-0.5305676460266113,0.2077613472938537
1631204221713,0.3280531167984009,-0.3549096584320068,-0.5491625666618347,0.2147170454263687
1631204221825,0.3409366309642792,-0.3316628038883209,-0.5593092441558838,0.2290402054786682
1631204221919,0.3584330379962921,-0.3073306083679199,-0.5573309063911438,0.2290402054786682
1631204222012,0.3820320069789886,-0.2814085781574249,-0.5432290434837341,0.2290402054786682
1631204222122,0.4026687443256378,-0.2814085781574249,-0.5432290434837341,0.2290402054786682
1631204222200,0.434721827507019,-0.2814085781574249,-0.5432290434837341,0.2290402054786682
1631204222325,0.4732141196727752,-0.2814085781574249,-0.5432290434837341,0.2290402054786682
1631204222434,0.4732141196727752,-0.2814085781574249,-0.5432290434837341,0.2290402054786682
1631204222531,0.4732141196727752,-0.0761142969131469,-0.5432290434837341,0.2290402054786682
1631204222624,0.4732141196727752,0.0359975807368755,-0.5432290434837341,0.2290402054786682
1631204222702,0.4732141196727752,0.1039369627833366,0.3091188669204712,0.2290402054786682
1631204222796,0.4732141196727752,0.1362850219011306,0.3091188669204712,0.2290402054786682
1631204222952,0.4732141196727752,0.1461644023656845,0.3091188669204712,0.2290402054786682
1631204223030,0.4732141196727752,0.1445380598306656,0.3091188669204712,0.2290402054786682
1631204223124,0.4732141196727752,0.1362225413322448,0.3315199315547943,0.2290402054786682
1631204223234,0.4732141196727752,0.1210463121533393,0.3381496965885162,0.2290402054786682
1631204223328,0.4732141196727752,0.1001960560679435,0.3425413966178894,0.2290402054786682
1631204223421,0.4732141196727752,0.0766695588827133,0.343384176492691,0.2290402054786682
1631204223546,0.4732141196727752,0.0554551519453525,0.340455025434494,0.2290402054786682
1631204223702,0.4732141196727752,0.0413233786821365,0.3361494541168213,0.015388767234981
1631204223768,0.5664435029029846,0.0610494948923587,0.3325636088848114,-0.0001753842516336
1631204223830,0.5957225561141968,0.0956703349947929,0.3293179869651794,0.0051281871274113
1631204223955,0.6000109910964966,0.1387402415275573,0.3443975746631622,0.0269573740661144
1631204224049,0.590715229511261,0.1339174658060073,0.3458132743835449,0.0526944063603878
1631204224206,0.5776869058609009,0.1160317286849021,0.3432665467262268,0.0771834179759025
1631204224268,0.567751407623291,0.0908228009939193,0.3190690577030182,0.1009714379906654
1631204224331,0.563856840133667,0.0669413655996322,0.3190690577030182,0.1265255808830261
1631204224486,0.5608070492744446,0.0497071854770183,0.2935777008533478,0.150015503168106
1631204224533,0.5551943182945251,0.039617009460926,0.2700566947460174,0.1675111949443817
1631204224658,0.5493478178977966,0.0378875248134136,0.2307796627283096,0.17664735019207
1631204224799,0.5502036809921265,0.05130460485816,0.1912539005279541,0.1764705330133438
1631204224908,0.5634936094284058,0.0864908993244171,0.1480356901884079,0.1775692850351333
1631204224971,0.5931679010391235,0.1363265365362167,0.1066408231854438,0.1779571920633316
1631204225064,0.6170837879180908,0.2138183116912841,0.0763888955116272,0.1829808950424194
1631204225142,0.6258561611175537,0.3103663325309753,0.0630308389663696,0.1920670270919799
1631204225236,0.6228699684143066,0.4016235172748565,0.0640113875269889,0.2007478326559066
1631204225393,0.6170371770858765,0.4640327394008636,0.0688321068882942,0.2093005776405334
1631204225471,0.613176167011261,0.4901881814002991,0.067894846200943,0.2207485139369964
1631204225580,0.6120797991752625,0.4953201115131378,0.060114599764347,0.2354766130447387
1631204225658,0.6138360500335693,0.4953201115131378,0.0545224994421005,0.2473038136959076
1631204225751,0.6170219779014587,0.4953201115131378,0.044768076390028,0.2505344748497009
1631204225838,0.6176698207855225,0.4953201115131378,0.0323305763304233,0.2416583448648452
1631204226025,0.6146112084388733,0.4953201115131378,0.0408787280321121,0.222719669342041
1631204226088,0.6096422076225281,0.4953201115131378,0.0521767996251583,0.1991084069013595
1631204226182,0.6038883328437805,0.4953201115131378,0.0674138814210891,0.1762220114469528
1631204226275,0.594650387763977,0.4953201115131378,0.0872519016265869,0.1585378050804138
1631204226369,0.5781210064888,0.5311892628669739,0.1099067032337188,0.1447273790836334
1631204226463,0.5568727850914001,0.5711125135421753,0.131369262933731,0.1312371045351028
1631204226622,0.5373756885528564,0.603813111782074,0.1437831223011016,0.1212346702814102
1631204226700,0.5220614075660706,0.6190683245658875,0.1371307224035263,0.1206027045845985
1631204226810,0.5069999098777771,0.6190683245658875,0.1023985967040062,0.1290778666734695
1631204226887,0.4905068874359131,0.6190683245658875,0.0399452745914459,0.1348791122436523
1631204226981,0.4796904325485229,0.6190683245658875,-0.0747563764452934,0.1261060386896133
1631204227091,0.4785917699337005,0.6190683245658875,-0.1486126333475113,0.1010027080774307
1631204227200,0.4820505082607269,0.6190683245658875,-0.1818034350872039,0.0722797513008117
1631204227294,0.4828431308269501,-0.0036382679827511,-0.198061391711235,0.0553554743528366
1631204227403,0.4800284206867218,-0.0151646304875612,-0.201420783996582,0.0596077553927898
1631204227498,0.4780873656272888,-0.0267501752823591,-0.2046319842338562,0.0811500251293182
1631204227613,0.4845620393753052,-0.0424023829400539,-0.2081271708011627,0.0904054641723632
1631204227691,0.4941841065883636,-0.0588319525122642,-0.215532049536705,0.1048374027013778
1631204227848,0.5027709603309631,-0.0702021569013595,-0.2266471982002258,0.1237059161067009
1631204227910,0.5050095915794373,-0.0751473829150199,-0.2266471982002258,0.1471505761146545
1631204228035,0.4982597529888153,-0.0748171359300613,-0.2266471982002258,0.1734537631273269
1631204228097,0.4851565062999725,-0.0748171359300613,-0.2266471982002258,0.1947739273309707
1631204228207,0.4746119678020477,-0.0748171359300613,-0.2266471982002258,0.2039282023906707
1631204228285,0.4767550826072693,-0.0748171359300613,-0.2266471982002258,0.1994083672761917
1631204228441,0.4924882054328918,-0.0748171359300613,-0.2266471982002258,0.1884926557540893
1631204228535,0.5095465183258057,-0.087138183414936,-0.2202866673469543,0.1843609362840652
1631204228613,0.5132626295089722,-0.1007388234138488,-0.2252324372529983,0.1991078555583953
1631204228722,0.5132626295089722,-0.1121153831481933,-0.237667366862297,0.1991078555583953
1631204228801,0.5132626295089722,-0.1214278042316436,-0.2501275837421417,0.1991078555583953
1631204228910,0.5132626295089722,-0.1316670775413513,-0.2603916823863983,0.1991078555583953
1631204229050,0.5132626295089722,-0.1405422240495681,-0.2603916823863983,0.1991078555583953
1631204229144,0.5132626295089722,-0.1381094306707382,-0.2603916823863983,0.1991078555583953
1631204229238,0.5132626295089722,-0.1381094306707382,-0.2603916823863983,0.1991078555583953
1631204229331,0.5132626295089722,-0.1381094306707382,-0.2603916823863983,0.1991078555583953
1631204229425,0.5132626295089722,-0.1381094306707382,-0.2603916823863983,0.1991078555583953
1631204229503,0.5132626295089722,-0.1381094306707382,-0.2603916823863983,0.1991078555583953
1631204229628,0.5132626295089722,-0.1381094306707382,-0.2603916823863983,0.1991078555583953
1631204229784,0.5132626295089722,-0.1381094306707382,-0.2603916823863983,0.1991078555583953
1631204229878,0.5132626295089722,-0.1381094306707382,-0.2603916823863983,0.1991078555583953
1631204229925,0.5132626295089722,0.5245857834815979,-0.2603916823863983,0.1991078555583953
1631204230019,0.5132626295089722,0.5473842024803162,-0.2603916823863983,0.1991078555583953
1631204230128,0.5132626295089722,0.5874608755111694,-0.2603916823863983,0.1991078555583953
1631204230237,0.5132626295089722,0.6168906688690186,-0.2603916823863983,0.1991078555583953
1631204230331,0.5132626295089722,0.6272165775299072,-0.2603916823863983,0.1991078555583953
1631204230456,0.5132626295089722,0.6223135590553284,-0.2603916823863983,0.1991078555583953
1631204230538,0.5132626295089722,0.6083027124404907,-0.2603916823863983,0.1991078555583953
1631204230632,0.5132626295089722,0.5878081321716309,-0.2603916823863983,0.1991078555583953
1631204230710,0.5132626295089722,0.562610387802124,-0.2603916823863983,0.1991078555583953
1631204230866,0.5132626295089722,0.5385108590126038,-0.2603916823863983,0.1991078555583953
1631204230960,0.5132626295089722,0.4954678118228912,-0.2603916823863983,0.1991078555583953
1631204231053,0.5132626295089722,0.4954678118228912,-0.2603916823863983,0.1991078555583953
1631204231147,0.5132626295089722,0.4954678118228912,-0.2603916823863983,0.1991078555583953
1631204231256,0.5132626295089722,0.5006179213523865,-0.2603916823863983,0.1991078555583953
1631204231335,0.5132626295089722,0.5137235522270203,-0.2603916823863983,0.1991078555583953
1631204231491,0.5132626295089722,0.5210546851158142,-0.2603916823863983,0.1991078555583953
1631204231553,0.5132626295089722,0.5073360800743103,-0.2603916823863983,0.1991078555583953
1631204231647,0.5132626295089722,0.4656214416027069,-0.2603916823863983,0.1991078555583953
1631204231760,0.5132626295089722,0.4005820751190185,-0.2603916823863983,0.1991078555583953
1631204231854,0.5132626295089722,0.3246639668941498,-0.2603916823863983,0.1991078555583953
1631204231932,0.5132626295089722,0.2962016463279724,-0.2603916823863983,0.1991078555583953
1631204232072,0.5132626295089722,0.3001067042350769,0.2484365999698639,0.1991078555583953
1631204232197,0.5132626295089722,0.3313407897949219,0.2481924891471862,0.1991078555583953
1631204232275,0.5132626295089722,0.3822073936462402,0.2575468122959137,0.1991078555583953
1631204232385,0.5132626295089722,0.4357827007770538,0.2705134451389313,0.1991078555583953
1631204232463,0.5824116468429565,0.47579425573349,0.279447853565216,0.509968638420105
1631204232557,0.6042230725288391,0.4839808344841003,0.2803025841712951,0.4778004586696625
1631204232697,0.6160112619400024,0.487804502248764,0.2733089625835418,0.4360145032405853
1631204232791,0.6272199153900146,0.4863504767417907,0.2616595029830932,0.3959327936172485
1631204232916,0.6405077576637268,0.4811497926712036,0.2476929575204849,0.3681535720825195
1631204232994,0.6493901014328003,0.4738008677959442,0.2319512963294983,0.3554594218730926
1631204233072,0.6490486860275269,0.4645482301712036,0.2148545384407043,0.3515583574771881
1631204233181,0.6415084004402161,0.4535775482654571,0.1963488310575485,0.3468817174434662
1631204233306,0.6323291659355164,0.4432525038719177,0.1725752204656601,0.3378508388996124
1631204233431,0.6240497827529907,0.4432525038719177,0.1440330594778061,0.3270860910415649
1631204233494,0.6155404448509216,0.440455675125122,0.1183013841509819,0.3172605335712433
1631204233603,0.6062055230140686,0.4376830756664276,0.0983738303184509,0.309901624917984
1631204233681,0.6054636240005493,0.4287333190441131,0.0806602910161018,0.2864632606506347
1631204233775,0.6045749187469482,0.4146804809570312,0.0601493753492832,0.2575357258319855
1631204233916,0.6029898524284363,0.3954233527183532,0.0364454351365566,0.2293100506067276
1631204234041,0.5969470739364624,0.3700608611106872,0.0129193300381302,0.205146312713623
1631204234119,0.5890535712242126,0.3392705023288727,-0.0152753228321671,0.1942493915557861
1631204234197,0.5808230042457581,0.3099195957183838,-0.0378875769674778,0.1995958834886551
1631204234275,0.5683616399765015,0.2903666794300079,-0.0545356273651123,0.2141207903623581
1631204234400,0.5471116304397583,0.2829027473926544,-0.0659174919128418,0.2252448499202728
1631204234540,0.5207871794700623,0.2806618511676788,-0.0705475807189941,0.2236468642950058
1631204234634,0.4995502531528473,0.2759859561920166,-0.0668123587965965,0.2089147716760635
1631204234728,0.4890168905258178,0.26563161611557,-0.0516561232507228,0.1923013627529144
1631204234806,0.4834116101264953,0.2491019964218139,-0.0233434941619634,0.1857393085956573
1631204234900,0.4765028655529022,0.2341211438179016,0.0128201628103852,0.1892356872558593
1631204234978,0.4765028655529022,0.220719501376152,0.0483057424426078,0.1892356872558593
1631204235134,0.4765028655529022,0.2074228376150131,0.0440166965126991,0.1892356872558593
1631204235213,0.4765028655529022,0.1814857423305511,0.0285300984978675,0.1892356872558593
1631204235322,0.4765028655529022,0.1633392721414566,0.0135654862970113,0.1892356872558593
1631204235415,0.4765028655529022,0.1537255495786667,0.0010929232230409,0.1892356872558593
1631204235525,0.2188696265220642,0.1503583341836929,-0.0111548006534576,0.029795367270708
1631204235587,0.2548933625221252,0.1489205956459045,-0.0004283371090423,0.0743076130747795
1631204235763,0.2814245223999023,0.1432076692581176,0.0004267696640454,0.1140515059232711
1631204235840,0.2975335717201233,0.128069519996643,-0.0065018245950341,0.145549863576889
1631204235950,0.3029588460922241,0.1047542914748191,-0.0182002466171979,0.1682057678699493
1631204236012,0.2988651692867279,0.0847776681184768,-0.0297488775104284,0.1822806447744369
1631204236122,0.2871738374233246,0.0831249058246612,-0.0363474898040294,0.1902898401021957
1631204236215,0.2737180888652801,0.1058476418256759,-0.0356358960270881,0.1990760415792465
1631204236356,0.2663806676864624,0.1437542140483856,-0.0268156789243221,0.2139699161052703
1631204236481,0.2727219462394714,0.1826522648334503,-0.0102344304323196,0.2338333874940872
1631204236543,0.293614000082016,0.2150112390518188,0.0104172239080071,0.2527609467506408
1631204236622,0.3206570148468017,0.2399430125951767,0.0360016971826553,0.2638055682182312
1631204236731,0.3588908910751343,0.2595630884170532,0.0522894673049449,0.2821469604969024
1631204236828,0.392098993062973,0.2753779590129852,0.0564243867993354,0.2959608733654022
1631204236968,0.419411689043045,0.2871336042881012,0.0531716533005237,0.3074221909046173
1631204237078,0.4426097869873047,0.2946936190128326,0.0474528707563877,0.3165870904922485
1631204237156,0.4627403616905212,0.2989934384822845,0.0401932001113891,0.3211176693439483
1631204237265,0.4800992906093597,0.3018943965435028,0.0327372886240482,0.3197629451751709
1631204237328,0.4953625500202179,0.3053846657276153,0.0306411851197481,0.3150559961795807
1631204237437,0.5100565552711487,0.3095379471778869,0.0386000089347362,0.3114442527294159
1631204237578,0.5243064761161804,0.3112804293632507,0.0531413592398166,0.312735766172409
1631204237671,0.538012683391571,0.3058063089847564,0.0653562843799591,0.3182966411113739
1631204237751,0.5509681105613708,0.2913464307785034,0.069290317595005,0.3212108314037323
1631204237847,0.5630620718002319,0.2725375890731811,0.0670861303806305,0.3155814409255981
1631204237957,0.5731627345085144,0.2613394260406494,0.0668022707104682,0.3065864443778991
1631204238035,0.5786739587783813,0.2663924694061279,0.0742476508021354,0.3063243925571441
1631204238191,0.5787801742553711,0.2843378782272339,0.0887744724750518,0.3217568695545196
1631204238269,0.5761181712150574,0.3034929931163788,0.1042109131813049,0.3226614594459533
1631204238394,0.5726416110992432,0.3139911592006683,0.1141938492655754,0.3267529904842376
1631204238457,0.5680559873580933,0.3133113086223602,0.1211973652243614,0.3301684856414795
1631204238550,0.5614463090896606,0.3048945665359497,0.1304231882095337,0.331961452960968
1631204238644,0.5530195832252502,0.293736845254898,0.1437979340553283,0.3354374170303345
1631204238804,0.5437285900115967,0.283749371767044,0.1621130257844925,0.3441288471221924
1631204238898,0.5352506637573242,0.2756066024303436,0.1813009679317474,0.3577100932598114
1631204238992,0.5285266041755676,0.2674895823001861,0.1960169523954391,0.3721240758895874
1631204239086,0.5267742276191711,0.2579852640628814,0.2064306735992431,0.3828825652599334
1631204239164,0.5342876315116882,0.2478134483098983,0.21957728266716,0.3904740810394287
1631204239257,0.5519223809242249,0.2363709360361099,0.2051235139369964,0.4056241512298584
1631204239429,0.5519223809242249,0.2192604541778564,0.1798838078975677,0.4056241512298584
1631204239507,0.5519223809242249,0.1880590766668319,0.1287644058465957,0.4056241512298584
1631204239585,0.5519223809242249,0.1378071308135986,0.039461676031351,0.4056241512298584
1631204239663,0.5519223809242249,0.0720754712820053,-0.0888156443834304,0.4056241512298584
1631204239775,0.5519223809242249,0.003322108881548,-0.2380325943231582,0.1127008274197578
1631204239853,0.5641295313835144,-0.0528984628617763,-0.373051643371582,0.1214734986424446
1631204239994,0.5441117286682129,-0.0892687737941742,-0.3651427328586578,0.1376147717237472
1631204240088,0.5286853313446045,-0.1097354963421821,-0.3678258955478668,0.1376147717237472
1631204240213,0.5286853313446045,-0.1229268461465835,-0.3777006566524505,0.1376147717237472
1631204240291,0.5286853313446045,-0.138537123799324,-0.3902172744274139,0.1376147717237472
1631204240385,0.5286853313446045,-0.1619008481502533,-0.4027757346630096,0.1376147717237472
1631204240478,0.5286853313446045,-0.176842525601387,-0.4152308702468872,0.1376147717237472
1631204240650,0.5286853313446045,-0.194707378745079,-0.4269411861896515,0.1376147717237472
1631204240712,0.5286853313446045,-0.2095308899879455,-0.4372467994689941,0.1376147717237472
1631204240806,0.5286853313446045,-0.2166613340377807,-0.4761445224285126,0.1376147717237472
1631204240915,0.5286853313446045,-0.2150328457355499,-0.4942056834697723,0.1376147717237472
1631204241040,0.5286853313446045,-0.2073350250720977,-0.4965815544128418,0.1493779867887497
1631204241087,0.5163811445236206,-0.2315849661827087,-0.4921106398105621,0.1587749570608139
1631204241228,0.5002764463424683,-0.2643368244171142,-0.4861564338207245,0.1587749570608139
1631204241306,0.5002764463424683,-0.3070445954799652,-0.4816516041755676,0.1587749570608139
1631204241415,0.5002764463424683,-0.3596812188625335,-0.4803389012813568,0.1587749570608139
1631204241509,0.5002764463424683,-0.416575163602829,-0.4808142483234405,0.1587749570608139
1631204241618,0.5002764463424683,-0.4631937742233276,-0.4804203510284424,0.1587749570608139
1631204241743,0.5002764463424683,-0.4774284660816192,-0.4777761101722717,0.1587749570608139
1631204241853,0.5002764463424683,-0.438827782869339,-0.4727701246738434,0.1587749570608139
1631204241931,0.4096660614013672,-0.3567224144935608,-0.4639454782009125,0.1587749570608139
1631204242056,0.3973586559295654,-0.2817455232143402,-0.4490976929664612,0.3106414675712585
1631204242134,0.3891803622245788,-0.2263565957546234,-0.4298619031906128,0.2903594374656677
1631204242212,0.3914336860179901,-0.1938696801662445,-0.4114595353603363,0.2926341593265533
1631204242321,0.3969674706459045,-0.1775453388690948,-0.3986541628837585,0.3053175806999206
1631204242431,0.3962627947330475,-0.1684314757585525,-0.3927079141139984,0.3158191442489624
1631204242544,0.3856992125511169,-0.1611711233854293,-0.3932163417339325,0.3181569278240204
1631204242637,0.3689590990543365,-0.1355233788490295,-0.4000979661941528,0.3181569278240204
1631204242731,0.3527473509311676,-0.1118155047297477,-0.4146763384342193,0.3181569278240204
1631204242841,0.3527473509311676,-0.0919880121946334,-0.4338197708129883,0.3181569278240204
1631204242934,0.3527473509311676,-0.0744831413030624,-0.4518078565597534,0.3181569278240204
1631204243059,0.3528049290180206,-0.055628053843975,-0.4651255905628204,0.3181569278240204
1631204243169,0.3526322245597839,-0.0351507738232612,-0.472597599029541,0.3181569278240204
1631204243294,0.34417524933815,-0.0176831353455781,-0.4760285019874573,0.2997080385684967
1631204243356,0.3326586186885834,-0.0093397516757249,-0.4774101376533508,0.2904295027256012
1631204243434,0.3249284923076629,-0.0126085439696908,-0.4795948266983032,0.2993229031562805
1631204243528,0.322443425655365,-0.0251460466533899,-0.4843215942382812,0.3240770101547241
1631204243668,0.3190009295940399,-0.0413317754864692,-0.4898999035358429,0.3505745530128479
1631204243747,0.3029139935970306,-0.0550153143703937,-0.4921864569187164,0.3505745530128479
1631204243845,0.271222859621048,-0.061979591846466,-0.4872825145721435,0.3505745530128479
1631204243954,0.2354449182748794,-0.062434047460556,-0.4746265113353729,0.3505745530128479
1631204244063,0.2354449182748794,-0.0596855953335762,-0.4569048285484314,0.3505745530128479
1631204244126,0.2354449182748794,-0.0573742352426052,-0.4372364282608032,0.3505745530128479
1631204244266,0.2354449182748794,-0.0572535321116447,-0.4180756211280823,0.3505745530128479
1631204244360,0.2354449182748794,-0.0588788837194442,-0.4045461416244507,0.3505745530128479
1631204244470,0.3456077575683594,-0.0640618354082107,-0.3994421362876892,0.3505745530128479
1631204244551,0.2984218597412109,-0.0764152333140373,-0.4007620811462402,0.1918089091777801
1631204244645,0.2685655057430267,-0.0953017249703407,-0.4050679504871368,0.2194672524929046
1631204244739,0.2584772408008575,-0.1143413186073303,-0.408033549785614,0.2347840964794159
1631204244926,0.2651289403438568,-0.1278528720140457,-0.4084654450416565,0.2329896986484527
1631204244989,0.2782725095748901,-0.1365983337163925,-0.4076809287071228,0.2204109281301498
1631204245067,0.2869068384170532,-0.1452503204345703,-0.4078299403190613,0.2091942727565765
1631204245161,0.2867203056812286,-0.1558507084846496,-0.4111271798610687,0.2053570747375488
1631204245302,0.277701199054718,-0.1680621206760406,-0.4188815057277679,0.2054871618747711
1631204245364,0.2672556042671203,-0.1805362552404403,-0.4326988160610199,0.2049341797828674
1631204245489,0.2625084817409515,-0.1905788779258728,-0.4528834223747253,0.2049341797828674
1631204245598,0.265878677368164,-0.1959626078605651,-0.4771129190921783,0.2049341797828674
1631204245676,0.2755405008792877,-0.198404386639595,-0.5035064220428467,0.2049341797828674
1631204245770,0.2778250873088836,-0.2020861655473709,-0.5296103954315186,0.2070568352937698
1631204245864,0.2904161810874939,-0.2083576172590255,-0.5523760914802551,0.2129655927419662
1631204245957,0.2948144376277923,-0.213497593998909,-0.569171130657196,0.2170047014951706
1631204246114,0.3053180277347564,-0.2135425955057144,-0.5781769752502441,0.2113510072231292
1631204246207,0.3175471425056457,-0.210819125175476,-0.5777401924133301,0.1942473649978637
1631204246285,0.3265238106250763,-0.2115956842899322,-0.5689422488212585,0.1728802025318145
1631204246364,0.328804612159729,-0.2211794704198837,-0.5549599528312683,0.1623376905918121
1631204246488,0.3251258134841919,-0.2385141551494598,-0.5401379466056824,0.1722208261489868
1631204246582,0.3218578994274139,-0.2561737298965454,-0.5284627676010132,0.1722208261489868
1631204246723,0.3362179100513458,-0.2667094767093658,-0.5226584672927856,0.1722208261489868
1631204246801,0.3520278632640838,-0.2682375311851501,-0.5216948986053467,0.1722208261489868
1631204246910,0.3657158017158508,-0.2677177190780639,-0.5215537548065186,0.1722208261489868
1631204247004,0.3722927272319793,-0.2763668894767761,-0.5193526744842529,0.121116891503334
1631204247098,0.3703133463859558,-0.2988263368606567,-0.5151945352554321,0.1199170872569084
1631204247176,0.3637950718402862,-0.3306247293949127,-0.5108683109283447,0.1246660053730011
1631204247348,0.3608866035938263,-0.3530036807060241,-0.5042991638183594,0.1327345222234726
1631204247426,0.3395302295684814,-0.3675234913825989,-0.492874801158905,0.1415998786687851
1631204247504,0.3395302295684814,-0.3766315579414367,-0.4778337478637695,0.1509258598089218
1631204247598,0.3395302295684814,-0.3873642385005951,-0.4673742353916168,0.1573309302330017
1631204247691,0.3395302295684814,-0.4018715620040893,-0.4604294300079345,0.1578262895345688
1631204247801,0.3655964434146881,-0.4154429733753204,-0.4622606933116913,0.1536636501550674
1631204247910,0.3781840801239013,-0.4189004302024841,-0.4752416312694549,0.148457184433937
1631204248004,0.3796326220035553,-0.409302145242691,-0.4975225031375885,0.1490313559770584
1631204248129,0.37595996260643,-0.3916792869567871,-0.5344629883766174,0.1582881510257721
1631204248207,0.3711604177951813,-0.3754930794239044,-0.566289484500885,0.1695225983858108
1631204248301,0.3779438734054565,-0.3613601326942444,-0.5900759696960449,0.1849035024642944
1631204248394,0.3996988832950592,-0.3676502406597137,-0.6039968729019165,0.1973985433578491
1631204248568,0.4351037442684173,-0.3859628438949585,-0.6077167391777039,0.2027014195919037
1631204248662,0.478535920381546,-0.4096402525901794,-0.5964856147766113,0.2024868130683899
1631204248740,0.5170902609825134,-0.4339605569839477,-0.5659546852111816,0.1981728076934814
1631204248834,0.5393050909042358,-0.4640841782093048,-0.5615885853767395,0.1909383088350296
1631204248974,0.5411350727081299,-0.4832006990909576,-0.5733544826507568,0.1846947968006134
1631204249006,0.5359718203544617,-0.4832006990909576,-0.6012420058250427,0.1852246075868606
1631204249178,0.5294709801673889,-0.4832006990909576,-0.6012420058250427,0.1968118399381637
1631204249271,0.5294709801673889,-0.4832006990909576,-0.6012420058250427,0.1991456449031829
1631204249334,0.5306288599967957,-0.4103070497512817,-0.5990368723869324,0.2056062668561935
1631204249428,0.5354923605918884,-0.3763531148433685,-0.59034663438797,0.2145675420761108
1631204249521,0.5464323163032532,-0.3642374575138092,-0.5738155245780945,0.2194865494966507
1631204249615,0.5627135634422302,-0.356378436088562,-0.545640766620636,0.2140234857797622
1631204249756,0.5814400911331177,-0.3444198966026306,-0.5160790085792542,0.1984834820032119
1631204249852,0.5991016030311584,-0.3301275074481964,-0.487964004278183,0.1788691282272339
1631204249962,0.6097874641418457,-0.3124063611030578,-0.4621039032936096,0.165415421128273
1631204250040,0.6071900725364685,-0.2913697063922882,-0.439572274684906,0.1642047315835952
1631204250149,0.5841107368469238,-0.2668940722942352,-0.4289860129356384,0.1740836948156356
1631204250227,0.5418716669082642,-0.2412636876106262,-0.4398923516273498,0.1970591396093368
1631204250399,0.5418716669082642,-0.2193633913993835,-0.4539571702480316,0.1970591396093368
1631204250477,0.5418716669082642,-0.20572130382061,-0.4659613668918609,0.1970591396093368
1631204250555,0.5418716669082642,-0.2161036133766174,-0.4722554087638855,0.1970591396093368
1631204250649,0.5418716669082642,-0.2224713414907455,-0.4727436602115631,0.1970591396093368
1631204250727,0.5418716669082642,-0.2238789349794387,-0.4671671092510223,0.1970591396093368
1631204250821,0.5418716669082642,-0.2327575087547302,-0.4468736946582794,0.1970591396093368
1631204250993,0.5418716669082642,-0.2340798527002334,-0.4234387576580047,0.1970591396093368
1631204251086,0.5418716669082642,-0.2296419143676757,-0.4021541774272918,0.1970591396093368
1631204251164,0.5418716669082642,-0.225579634308815,-0.3843331634998321,0.1970591396093368
1631204251243,0.5418716669082642,-0.2269592881202697,-0.364474207162857,0.1970591396093368
1631204251336,0.5418716669082642,-0.235050082206726,-0.3422423899173736,0.1970591396093368
1631204251446,0.5418716669082642,-0.2489978224039077,-0.3241653740406036,0.1970591396093368
1631204251617,0.5418716669082642,-0.2674393951892853,-0.3151857554912567,0.1970591396093368
1631204251696,0.5418716669082642,-0.2869976758956909,-0.3130880296230316,0.1970591396093368
1631204251758,0.5418716669082642,-0.3017435669898987,-0.3117655515670776,0.1970591396093368
1631204251883,0.5418716669082642,-0.307360976934433,-0.3071850538253784,0.1970591396093368
1631204251961,0.5418716669082642,-0.3042577803134918,-0.2913433909416199,0.1970591396093368
1631204252055,0.5418716669082642,-0.2981866300106048,-0.2763646841049194,0.1970591396093368
1631204252180,0.5418716669082642,-0.2937914729118347,-0.2630687057971954,0.1970591396093368
1631204252274,0.5418716669082642,-0.2923403978347778,-0.2471915781497955,0.1970591396093368
1631204252367,0.5418716669082642,-0.2947215735912323,-0.2454911321401596,0.1970591396093368
1631204252477,0.5418716669082642,-0.3024000823497772,-0.2588133811950683,0.1970591396093368
1631204252570,0.5418716669082642,-0.3135595917701721,-0.281995415687561,0.1970591396093368
1631204252664,0.5418716669082642,-0.3248988091945648,-0.3106991946697235,0.1970591396093368
1631204252836,0.5418716669082642,-0.3338574767112732,-0.3471955358982086,0.1970591396093368
1631204252898,0.5418716669082642,-0.3397201597690582,-0.389935702085495,0.1970591396093368
1631204252992,0.5418716669082642,-0.3401076197624206,-0.4280917346477508,0.1970591396093368
1631204253086,0.5418716669082642,-0.3326497375965118,-0.4488973021507263,0.1970591396093368
1631204253180,0.5418716669082642,-0.3205955922603607,-0.4502498209476471,0.1970591396093368
1631204253305,0.5418716669082642,-0.3117677867412567,-0.4412029683589935,0.1970591396093368
1631204253430,0.5418716669082642,-0.3095047771930694,-0.432913064956665,0.1970591396093368
1631204253508,0.5418716669082642,-0.308677077293396,-0.4329748153686523,0.1970591396093368
1631204253617,0.5418716669082642,-0.30169877409935,-0.4369624853134155,0.1970591396093368
1631204253711,0.5418716669082642,-0.2873823940753937,-0.4407126605510711,0.1970591396093368
1631204253789,0.5418716669082642,-0.2720490992069244,-0.4629732668399811,0.1970591396093368
1631204253883,0.5418716669082642,-0.2612229287624359,-0.4724126756191253,0.1970591396093368
1631204254023,0.5418716669082642,-0.2536419332027435,-0.4715256989002228,0.1970591396093368
1631204254117,0.5418716669082642,-0.2450976073741912,-0.4694291651248932,0.1970591396093368
1631204254195,0.4683537483215332,-0.2333919554948806,-0.469389945268631,0.1970591396093368
1631204254289,0.4557280242443084,-0.220154732465744,-0.4682360887527466,0.1970591396093368
1631204254383,0.4410727322101593,-0.2079126238822937,-0.4626510739326477,0.1583308726549148
1631204254492,0.4795494079589844,-0.1987828612327575,-0.4506856799125671,0.0520801916718483
1631204254617,0.5458581447601318,-0.1941120475530624,-0.4317333996295929,-0.0571453720331192
1631204254726,0.5934582948684692,-0.193707138299942,-0.4064565300941467,-0.023290280252695
1631204254804,0.6182633638381958,-0.1951315999031067,-0.3797054886817932,0.0295294988900423
1631204254914,0.628055214881897,-0.1947564333677292,-0.35767662525177,0.0768749713897705
1631204255007,0.632419764995575,-0.1915229111909866,-0.3432164192199707,0.1056180074810981
1631204255101,0.6352941989898682,-0.1883579641580581,-0.3349035382270813,0.114279568195343
1631204255257,0.6363306045532227,-0.1880833804607391,-0.3317590951919555,0.1101517677307128
1631204255335,0.6354406476020813,-0.1898831725120544,-0.3342985212802887,0.1001398414373397
1631204255445,0.6339796185493469,-0.1898280978202819,-0.3409506678581238,0.0898176878690719
1631204255523,0.6311483979225159,-0.1855754852294922,-0.3463586866855621,0.080444648861885
1631204255632,0.6389662027359009,-0.1789398342370987,-0.3447901904582977,0.0725889429450035
1631204255726,0.6538528800010681,-0.1725978702306747,-0.3357395231723785,0.0664419904351234
1631204255838,0.6683437824249268,-0.1667983680963516,-0.3240994811058044,0.0672753453254699
1631204255948,0.6785825490951538,-0.1610660105943679,-0.3160521686077118,0.0760258436203002
1631204256073,0.6789186596870422,-0.1563858240842819,-0.3159778118133545,0.0894042551517486
1631204256135,0.6675999760627747,-0.1544864475727081,-0.3259786665439605,0.1004301384091377
1631204256213,0.6494603157043457,-0.1558601260185241,-0.3476466834545135,0.101308949291706
1631204256338,0.6157110929489136,-0.1593581438064575,-0.3799116015434265,0.0866000428795814
1631204256448,0.5813744068145752,-0.1649461984634399,-0.4167007207870483,0.0574714094400405
1631204256542,0.5421738624572754,-0.1746728271245956,-0.4482645988464355,0.0225506220012903
1631204256667,0.4974420070648193,-0.189811497926712,-0.4701314568519592,-0.0050017996691167
1631204256760,0.4526830613613128,-0.2099702507257461,-0.4866613149642944,-0.0448347926139831
1631204256854,0.41274493932724,-0.2331438362598419,-0.5034658312797546,-0.0767058953642845
1631204256947,0.3796556890010834,-0.2574670314788818,-0.5216670632362366,-0.1102593541145324
1631204257072,0.3541275858879089,-0.2823406755924225,-0.5401765704154968,-0.1446199566125869
1631204257166,0.3368445038795471,-0.3066224157810211,-0.5597096085548401,-0.1744821667671203
1631204257260,0.3446144759654999,-0.3291838467121124,-0.5827126502990723,-0.1927883177995681
1631204257369,0.3504464626312256,-0.3504710495471954,-0.6076146364212036,-0.2137444168329239
1631204257432,0.3573031723499298,-0.3721546530723572,-0.6290497183799744,-0.1774562448263168
1631204257557,0.3651995956897735,-0.3936858475208282,-0.643409788608551,-0.1504883170127868
1631204257682,0.373920738697052,-0.4112128615379333,-0.6514928936958313,-0.1315658986568451
1631204257760,0.3806454241275787,-0.4190681576728821,-0.6541200876235962,-0.120166078209877
1631204257856,0.3778819739818573,-0.4154344797134399,-0.6493664979934692,-0.1137018352746963
1631204257950,0.3758160173892975,-0.4034655094146728,-0.638841450214386,-0.1107709109783172
1631204258075,0.3738172054290771,-0.3894297778606415,-0.6292111873626709,-0.1102310046553611
1631204258153,0.3701610863208771,-0.3791308999061584,-0.6236849427223206,-0.1113108173012733
1631204258294,0.3638671934604645,-0.3735023140907287,-0.6162721514701843,-0.1081070154905319
1631204258387,0.3552421331405639,-0.3688639104366302,-0.5988886952400208,-0.1048774644732475
1631204258481,0.3442366421222687,-0.3612407147884369,-0.570601224899292,-0.0979906395077705
1631204258575,0.3351406455039978,-0.3505537211894989,-0.5386357307434082,-0.0861406922340393
1631204258669,0.3305943608283996,-0.340635746717453,-0.5122212171554565,-0.0730518773198127
1631204258762,0.3276229500770569,-0.3339196443557739,-0.4964454174041748,-0.0640230774879455
1631204258919,0.3202441334724426,-0.3282836377620697,-0.4927162230014801,-0.0587457828223705
1631204258997,0.3042668402194977,-0.3196059167385101,-0.4982970952987671,-0.0505581870675087
1631204259106,0.2817303836345672,-0.3089191913604736,-0.506308376789093,-0.033829640597105
1631204259184,0.2578678727149963,-0.3015931248664856,-0.5089199542999268,-0.0108074573799967
1631204259262,0.2398544996976852,-0.3022469282150268,-0.5018443465232849,0.011133617721498
1631204259372,0.2319050729274749,-0.3110642731189728,-0.4868862330913543,0.0259546171873807
1631204259512,0.2292780429124832,-0.3247030377388,-0.4687978327274322,0.0333500728011131
1631204259609,0.228007897734642,-0.3388805687427521,-0.4516211748123169,0.0406400710344314
1631204259687,0.2276415228843689,-0.3475381433963775,-0.4372633993625641,0.0543883554637432
1631204259812,0.2292486429214477,-0.3453598320484161,-0.4281170070171356,0.0749317184090614
1631204259890,0.2333647906780243,-0.3334389328956604,-0.4272776544094085,0.0935906022787094
1631204259968,0.2361137568950653,-0.3198495805263519,-0.4353405833244324,0.1034761369228363
1631204260109,0.2323600649833679,-0.3114628195762634,-0.4479244947433471,0.105453073978424
1631204260187,0.2203098088502884,-0.3086396157741546,-0.4569894075393677,0.1067701280117034
1631204260310,0.2053151279687881,-0.3091692626476288,-0.4573378264904022,0.1130052804946899
1631204260388,0.1977325677871704,-0.313490629196167,-0.4497037231922149,0.1216054484248161
1631204260514,0.2010148912668228,-0.3222409188747406,-0.4388007223606109,0.1290816217660904
1631204260576,0.21028833091259,-0.3298547863960266,-0.43105348944664,0.1322028934955597
1631204260750,0.2175236642360687,-0.3277550935745239,-0.4326699078083038,0.1335305124521255
1631204260828,0.2161634266376495,-0.3139485418796539,-0.444951057434082,0.1254041343927383
1631204260953,0.2082212418317794,-0.295074850320816,-0.4650811553001404,0.1230391561985015
1631204261015,0.2032141536474228,-0.2784276306629181,-0.4866610169410705,0.1289049535989761
1631204261078,0.2059593796730041,-0.2661977410316467,-0.5035282969474792,0.1371309012174606
1631204261181,0.2154893577098846,-0.2569105327129364,-0.5138888359069824,0.1401163041591644
1631204261350,0.2255113124847412,-0.250038743019104,-0.5185829997062683,0.136599525809288
1631204261427,0.2297834306955337,-0.2466780990362167,-0.5182670950889587,0.1358420401811599
1631204261520,0.2290233373641967,-0.2476689517498016,-0.5129749178886414,0.1484674513339996
1631204261629,0.2271751314401626,-0.2492707073688507,-0.5033635497093201,0.1741397082805633
1631204261707,0.2303177118301391,-0.2591040134429931,-0.4917593896389007,0.2017862647771835
1631204261803,0.2404153496026992,-0.2718312442302704,-0.4803680181503296,0.2223274707794189
1631204261952,0.2498843073844909,-0.2841617465019226,-0.4718978106975555,0.2223274707794189
1631204262046,0.2498843073844909,-0.2922602295875549,-0.46767657995224,0.2223274707794189
1631204262108,0.2498843073844909,-0.2961921989917755,-0.4666859805583954,0.2223274707794189
1631204262218,0.2498843073844909,-0.3001528084278106,-0.4647425711154938,0.2223274707794189
1631204262327,0.2498843073844909,-0.3077949583530426,-0.4614744484424591,0.2223274707794189
1631204262407,0.2498843073844909,-0.3205249905586242,-0.4585086703300476,0.2223274707794189
1631204262566,0.2498843073844909,-0.3373477160930633,-0.4569486975669861,0.2223274707794189
1631204262627,0.2498843073844909,-0.3560126721858978,-0.4562593698501587,0.2223274707794189
1631204262737,0.2498843073844909,-0.3771337568759918,-0.4562098383903503,0.2223274707794189
1631204262832,0.2498843073844909,-0.4012650549411773,-0.4588679671287536,0.2223274707794189
1631204262912,0.2498843073844909,-0.4268050193786621,-0.4659912884235382,0.2223274707794189
1631204263008,0.2498843073844909,-0.4463057219982147,-0.4779813587665558,0.2223274707794189
1631204263178,0.3078404664993286,-0.4404712617397308,-0.4951481223106384,0.2787898182868957
1631204263256,0.3148379325866699,-0.4322572350502014,-0.5151591300964355,0.2990612387657165
1631204263348,0.307657241821289,-0.4193763434886932,-0.5308531522750854,0.3068690896034241
1631204263427,0.307657241821289,-0.4098949730396271,-0.5355421304702759,0.3068690896034241
1631204263535,0.307657241821289,-0.4074837267398834,-0.5297836065292358,0.3068690896034241
1631204263630,0.307657241821289,-0.4102768301963806,-0.5195702910423279,0.3068690896034241
1631204263771,0.307657241821289,-0.4157160520553589,-0.5109155774116516,0.3068690896034241
1631204263865,0.307657241821289,-0.4229313731193542,-0.5066912770271301,0.3068690896034241
1631204263943,0.307657241821289,-0.4280160367488861,-0.5087931156158447,0.3068690896034241
1631204264034,0.307657241821289,-0.4271326661109924,-0.5188583135604858,0.3068690896034241
1631204264127,0.307657241821289,-0.4202888607978821,-0.5367556810379028,0.3068690896034241
1631204264221,0.307657241821289,-0.4117185473442077,-0.5574844479560852,0.3068690896034241
1631204264382,0.3310201168060303,-0.4066877961158752,-0.572338342666626,0.3200796246528625
1631204264476,0.3446562588214874,-0.4057174921035766,-0.5737289786338806,0.334189772605896
1631204264569,0.3446562588214874,-0.4075077176094055,-0.561063289642334,0.334189772605896
1631204264694,0.3446562588214874,-0.4119361042976379,-0.5419339537620544,0.334189772605896
1631204264769,0.3446562588214874,-0.4195522367954254,-0.5278452634811401,0.334189772605896
1631204264849,0.3446562588214874,-0.4287803173065185,-0.5281297564506531,0.334189772605896
1631204264983,0.3639347851276397,-0.4351686239242553,-0.5433874726295471,0.117130309343338
1631204265076,0.3717105388641357,-0.4334546327590942,-0.5688344836235046,0.0859977230429649
1631204265216,0.3763067424297333,-0.424647569656372,-0.5986447930335999,0.0562337264418602
1631204265295,0.3751244843006134,-0.4135101735591888,-0.6283149719238281,0.0322832912206649
1631204265357,0.3692978322505951,-0.4034700393676758,-0.6510242819786072,0.0085897939279675
1631204265466,0.3645530045032501,-0.397510290145874,-0.6580555438995361,-0.0179959684610366
1631204265591,0.3620860874652862,-0.3968091011047363,-0.6485524773597717,-0.0452141836285591
1631204265688,0.359540194272995,-0.3995075523853302,-0.6308876276016235,-0.0674952566623687
1631204265781,0.3532100021839142,-0.4026643931865692,-0.6152357459068298,-0.0797252207994461
1631204265906,0.3408803641796112,-0.4038935303688049,-0.606345534324646,-0.0797392278909683
1631204266000,0.3260239064693451,-0.4025879800319671,-0.6052860021591187,-0.0679980963468551
1631204266078,0.3132134974002838,-0.3984419405460357,-0.611332893371582,-0.0506197586655616
1631204266203,0.3038046658039093,-0.3909971117973327,-0.6221831440925598,-0.0470178797841072
1631204266297,0.299090564250946,-0.3825119435787201,-0.6327749490737915,-0.0662799924612045
1631204266406,0.2927307188510895,-0.3755364120006561,-0.6375096440315247,-0.088762454688549
1631204266484,0.2835189998149872,-0.3707448244094848,-0.63519287109375,-0.1030133813619613
1631204266569,0.2710179686546325,-0.3692017793655395,-0.628902018070221,-0.1064191535115242
1631204266694,0.2687084972858429,-0.3716367185115814,-0.6204572319984436,-0.1037554591894149
1631204266803,0.2766452729701996,-0.3779591023921966,-0.6090808510780334,-0.0990775004029274
1631204266929,0.2713681757450104,-0.3856993615627289,-0.593395471572876,-0.0872119292616844
1631204267006,0.2650292515754699,-0.3895234763622284,-0.5761716961860657,-0.0619348883628845
1631204267100,0.254795104265213,-0.3849218189716339,-0.5613861083984375,-0.0228052791208028
1631204267194,0.2423384338617324,-0.372725248336792,-0.5501614809036255,0.0242932941764593
1631204267319,0.2363359332084655,-0.3583492338657379,-0.5395057201385498,0.0715917572379112
1631204267444,0.2506418824195862,-0.348480761051178,-0.5272877812385559,0.0715917572379112
1631204267536,0.2869317531585693,-0.3459075689315796,-0.514872133731842,0.0715917572379112
1631204267614,0.2869317531585693,-0.3492013812065124,-0.5077432990074158,0.0715917572379112
1631204267695,0.2869317531585693,-0.3544505536556244,-0.5056288838386536,0.0715917572379112
1631204267789,0.2869317531585693,-0.3566182255744934,-0.5051102042198181,0.0715917572379112
1631204267883,0.382967084646225,-0.3531316518783569,-0.5034382939338684,0.0715917572379112
1631204268039,0.3913440704345703,-0.3462097942829132,-0.5007662177085876,0.0380804575979709
1631204268133,0.3887186646461487,-0.3405031561851501,-0.4966373741626739,0.0362181477248668
1631204268226,0.3747402429580688,-0.3385807275772095,-0.4890446662902832,0.031672466546297
1631204268302,0.3414293229579925,-0.3396541476249695,-0.4776572287082672,0.0293470844626426
1631204268427,0.3324681520462036,-0.3416108787059784,-0.4680604338645935,0.0300876162946224
1631204268521,0.3380650281906128,-0.3432527184486389,-0.466472178697586,0.0320397280156612
1631204268663,0.350359171628952,-0.3430400192737579,-0.4733185172080993,0.031561117619276
1631204268742,0.3608440160751343,-0.3395540416240692,-0.4835712909698486,0.0289613585919141
1631204268836,0.3646130263805389,-0.3328869044780731,-0.4934944212436676,0.0260854065418243
1631204268946,0.3655518889427185,-0.3234005272388458,-0.5040565133094788,0.0244283583015203
1631204269039,0.3669920861721039,-0.3091691136360168,-0.5185174942016602,0.0266039427369833
1631204269117,0.3692933619022369,-0.286612868309021,-0.5362014770507812,0.0331245213747024
1631204269273,0.3735515177249908,-0.256730169057846,-0.5559474229812622,0.0502503626048564
1631204269351,0.3828872740268707,-0.2280977666378021,-0.5767398476600647,0.0660733953118324
1631204269429,0.387412965297699,-0.2095970958471298,-0.5977643728256226,0.0771043896675109
1631204269539,0.3911445736885071,-0.203525424003601,-0.617168664932251,0.0831624045968055
1631204269648,0.4014453887939453,-0.2051042467355728,-0.6346502900123596,0.0858552828431129
1631204269742,0.4205160140991211,-0.2086644470691681,-0.6534186601638794,0.0916116088628768
1631204269882,0.4428041279315948,-0.2113584280014038,-0.6768513917922974,0.1033124104142189
1631204269961,0.457647830247879,-0.2121674120426178,-0.7013293504714966,0.117769718170166
1631204270054,0.4600750505924225,-0.2100191563367843,-0.7181104421615601,0.1325428932905197
1631204270148,0.4542310237884521,-0.2066224813461303,-0.7242050766944885,0.1492082923650741
1631204270242,0.4466062486171722,-0.2062148600816726,-0.7236655354499817,0.1684562563896179
1631204270367,0.4448173344135284,-0.2111953049898147,-0.722192645072937,0.1883594840764999
1631204270476,0.4512774050235748,-0.2204959690570831,-0.7203831076622009,0.2050889134407043
1631204270554,0.461829662322998,-0.2332790642976761,-0.7138413190841675,0.2166742235422134
1631204270652,0.4712668359279632,-0.2525602877140045,-0.696795642375946,0.2247840166091919
1631204270746,0.473476380109787,-0.281130850315094,-0.6690225601196289,0.2285782545804977
1631204270824,0.4677304923534393,-0.3130910992622375,-0.6364312767982483,0.2286440134048462
1631204270933,0.456807941198349,-0.3369413316249847,-0.6071028113365173,0.2267198413610458
1631204271074,0.4436155259609222,-0.3464253842830658,-0.582923948764801,0.2237232774496078
1631204271183,0.4278380274772644,-0.3446120619773865,-0.5610445141792297,0.2191978096961975
1631204271308,0.4088642597198486,-0.3364933729171753,-0.5411329865455627,0.2105252742767334
1631204271371,0.3889855444431305,-0.3236975073814392,-0.5254461169242859,0.1990207433700561
1631204271464,0.3733004927635193,-0.3090662658214569,-0.5137457251548767,0.1904666423797607
1631204271558,0.3655384480953216,-0.2997360527515411,-0.4994324445724487,0.1874963492155075
1631204271717,0.3642446398735046,-0.3003580272197723,-0.4749642312526703,0.1861911565065384
1631204271795,0.3636128902435303,-0.3087140321731567,-0.4435463845729828,0.1809516996145248
1631204271889,0.3584970235824585,-0.3177620768547058,-0.4137091040611267,0.170071080327034
1631204271982,0.3427642285823822,-0.3209488689899444,-0.3905797302722931,0.1574021279811859
1631204272061,0.3196611404418945,-0.3166618049144745,-0.3749837279319763,0.1444802433252334
1631204272186,0.2985010743141174,-0.3057948052883148,-0.3671427965164184,0.1294395625591278
1631204272279,0.2870224714279175,-0.2906959950923919,-0.3670680224895477,0.1124600395560264
1631204272388,0.2855100929737091,-0.2750426828861236,-0.3717924654483795,0.0944383889436721
1631204272482,0.2880428433418274,-0.2610441744327545,-0.3768868148326874,0.0797356888651847
1631204272591,0.2893968224525451,-0.2478397637605667,-0.3814790546894073,0.071326345205307
1631204272685,0.2877596318721771,-0.2346329987049102,-0.3865251839160919,0.0702377334237098
1631204272779,0.287732720375061,-0.2233569025993347,-0.3918785154819488,0.0736729502677917
1631204272904,0.2962850928306579,-0.2163591682910919,-0.3959120512008667,0.0740690231323242
1631204273014,0.3182259202003479,-0.2131278961896896,-0.3993951976299286,0.0650002807378768
1631204273092,0.3475315272808075,-0.2107766717672348,-0.4061425328254699,0.0458968356251716
1631204273232,0.3731204867362976,-0.2069630920886993,-0.4190103709697723,0.0220049135386943
1631204273310,0.391333132982254,-0.2023925483226776,-0.4361836910247803,0.004203294403851
1631204273388,0.4023274481296539,-0.2001971006393432,-0.4529857337474823,-0.0014816665789112
1631204273497,0.4109969735145569,-0.2032740712165832,-0.4648517072200775,0.0004678988480009
1631204273591,0.4171394407749176,-0.2134903520345688,-0.4700951278209686,0.005579677876085
1631204273701,0.4182319641113281,-0.2312747091054916,-0.4700230360031128,0.0103103704750537
1631204273810,0.4160670042037964,-0.2545308172702789,-0.4670476913452148,0.0178769677877426
1631204273904,0.4133584797382355,-0.2780244648456573,-0.4628487229347229,0.0365762636065483
1631204273997,0.4117777645587921,-0.2940332293510437,-0.4572218954563141,0.0680570155382156
1631204274122,0.4118085205554962,-0.2990306615829468,-0.4497829675674438,0.1060278564691543
1631204274216,0.4104950428009033,-0.2971651256084442,-0.4433558881282806,0.1386233568191528
1631204274310,0.4031528234481811,-0.2954649925231933,-0.4409775733947754,0.160264104604721
1631204274388,0.3859450817108154,-0.2988964021205902,-0.4432613849639892,0.1724418848752975
1631204274513,0.3578933179378509,-0.3088537156581878,-0.4470515251159668,0.1803274601697921
1631204274607,0.3255037367343902,-0.3233619332313537,-0.4495953619480133,0.1861204952001571
1631204274747,0.2977038621902466,-0.339091032743454,-0.4524308443069458,0.1896275728940963
1631204274841,0.2802761495113373,-0.3511393666267395,-0.4585254490375519,0.1869504004716873
1631204274935,0.2726199626922607,-0.353447675704956,-0.4686514437198639,0.1761611104011535
1631204275028,0.2712169885635376,-0.3450680077075958,-0.4817323684692383,0.1596050560474395
1631204275122,0.2748398780822754,-0.3308356404304504,-0.4953318238258362,0.1402432322502136
1631204275200,0.2809009850025177,-0.3180532455444336,-0.5061454772949219,0.1224350780248642
1631204275341,0.2866578102111816,-0.3113565146923065,-0.513037383556366,0.1063432171940803
1631204275435,0.2912356555461883,-0.3124242424964905,-0.5189154148101807,0.0888522341847419
1631204275544,0.2940714955329895,-0.324079155921936,-0.5284506678581238,0.0684109032154083
1631204275653,0.2969752252101898,-0.347619354724884,-0.5433076620101929,0.046107243746519
1631204275747,0.3081381618976593,-0.3777820765972137,-0.561070442199707,0.0258888322860002
1631204275809,0.333164781332016,-0.4022343754768371,-0.5788828730583191,0.0095051312819123
1631204275966,0.3661284744739532,-0.4117149114608764,-0.596947431564331,-0.0046717352233827
1631204276075,0.395581841468811,-0.4081686735153198,-0.6177400350570679,-0.0179947987198829
1631204276137,0.4119503200054168,-0.4013144671916961,-0.6424987316131592,-0.0293922089040279
1631204276262,0.415836900472641,-0.3988763988018036,-0.6657435894012451,-0.0384483635425567
1631204276356,0.4122808873653412,-0.4034625887870788,-0.6762730479240417,-0.0453528352081775
1631204276419,0.4039576649665832,-0.4159578680992126,-0.6691379547119141,-0.0494594648480415
1631204276544,0.3926445841789245,-0.4340467751026153,-0.6497640013694763,-0.0469999760389328
1631204276685,0.3808618485927582,-0.4509790241718292,-0.6276309490203857,-0.0361147224903106
1631204276780,0.3722914159297943,-0.4584616124629974,-0.6074677109718323,-0.0203767139464616
1631204276843,0.3677117526531219,-0.4522296190261841,-0.589024007320404,-0.0088695222511887
1631204276937,0.3670604526996612,-0.4342633485794067,-0.5733717679977417,-0.0096532711759209
1631204277030,0.3708358407020569,-0.4105453491210937,-0.5631222724914551,-0.0279318783432245
1631204277218,0.3749900758266449,-0.3877798616886139,-0.5591084957122803,-0.0614329501986503
1631204277296,0.3739443123340606,-0.371756762266159,-0.5580130815505981,-0.0974384620785713
1631204277374,0.3631482720375061,-0.3657048046588897,-0.5537406802177429,-0.121411345899105
1631204277483,0.34832963347435,-0.3671635389328003,-0.540534496307373,-0.1257764250040054
1631204277561,0.3365328907966614,-0.3712626993656158,-0.5189698934555054,-0.1145967841148376
1631204277640,0.3327718675136566,-0.371699184179306,-0.4935313165187835,-0.0957330167293548
1631204277780,0.3352347910404205,-0.3641807734966278,-0.4693896174430847,-0.0740046352148056
1631204277889,0.3395660519599914,-0.3489806652069092,-0.4526995122432709,-0.0546986535191535
1631204277983,0.3479927778244018,-0.3306794166564941,-0.4467532634735107,-0.0431794449687004
1631204278077,0.3591286540031433,-0.3160189986228943,-0.4521525204181671,-0.0422330573201179
1631204278171,0.3699485957622528,-0.3090538382530212,-0.4667595028877258,-0.0500687137246131
1631204278249,0.3792093396186828,-0.3085879981517792,-0.4878469407558441,-0.0610568150877952
1631204278374,0.3859870433807373,-0.3125273585319519,-0.5132481455802917,-0.0688710883259773
1631204278483,0.3894838988780975,-0.3210156857967376,-0.5388427972793579,-0.0706891417503357
1631204278592,0.3889104127883911,-0.3340771794319153,-0.5578418970108032,-0.0650586634874343
1631204278686,0.3863500654697418,-0.3495728969573974,-0.5658655166625977,-0.0550583824515342
1631204278795,0.3818676471710205,-0.3628643751144409,-0.5647833347320557,-0.0449622943997383
1631204278874,0.3774725496768951,-0.3697056472301483,-0.5616549849510193,-0.0383510589599609
1631204279014,0.371212899684906,-0.3689664304256439,-0.5644578337669373,-0.0374087132513523
1631204279124,0.3615270853042602,-0.3603551387786865,-0.5770202279090881,-0.0436878018081188
1631204279186,0.3491166234016418,-0.3454708456993103,-0.6008489727973938,-0.058194663375616
1631204279295,0.3338026404380798,-0.3295195698738098,-0.6352594494819641,-0.0761982351541519
1631204279389,0.3165655732154846,-0.3187160193920135,-0.6750295162200928,-0.0865070968866348
1631204279483,0.2973282039165497,-0.3146952986717224,-0.7120455503463745,-0.0785796344280242
1631204279608,0.2754351198673248,-0.3137251734733581,-0.7395197749137878,-0.0542016699910163
1631204279702,0.2521743476390838,-0.3103871345520019,-0.7571767568588257,-0.0224060248583555
1631204279798,0.2269956022500991,-0.3037132918834686,-0.764409065246582,0.0077128326520323
1631204279876,0.2000149488449096,-0.2961546778678894,-0.7550408840179443,0.0315455980598926
1631204279985,0.1732806861400604,-0.2896737456321716,-0.7258924841880798,0.0520003996789455
1631204280110,0.1467227935791015,-0.2829594314098358,-0.6863296031951904,0.0759483650326728
1631204280236,0.1233247071504592,-0.2723607718944549,-0.6522418260574341,0.1091613918542862
1631204280314,0.1066517755389213,-0.2564927637577057,-0.6319455504417419,0.1474522650241851
1631204280407,0.0929132997989654,-0.2380720824003219,-0.6209526658058167,0.1808407604694366
1631204280532,0.0806678012013435,-0.2214982658624649,-0.6072518825531006,0.2029542922973632
1631204280610,0.0734400078654289,-0.2100948989391327,-0.5825574398040771,0.2146551012992859
1631204280688,0.0733048915863037,-0.2058036029338836,-0.549614429473877,0.2228147238492965
1631204280845,0.0793399363756179,-0.208060622215271,-0.5180010795593262,0.2316899746656417
1631204280938,0.0884309634566307,-0.2138611376285553,-0.4940436482429504,0.240525871515274
1631204281032,0.0961958095431327,-0.2187239527702331,-0.4787086248397827,0.2460827827453613
1631204281126,0.107928916811943,-0.2181966006755828,-0.4682208597660064,0.2468571215867996
1631204281204,0.1275679469108581,-0.2131145447492599,-0.457811564207077,0.2433997988700866
1631204281282,0.155702605843544,-0.2074385434389114,-0.4460777342319488,0.2395269274711609
1631204281423,0.1907183229923248,-0.2040528506040573,-0.4360821843147278,0.242085114121437
1631204281563,0.2268076688051223,-0.2030614614486694,-0.4300259053707123,0.2521867752075195
1631204281626,0.2632477879524231,-0.2036944329738617,-0.4210335910320282,0.2642067074775696
1631204281704,0.2995889484882355,-0.2071343064308166,-0.4002592265605926,0.2696382701396942
1631204281833,0.3353616595268249,-0.2145905047655105,-0.3700868487358093,0.266783058643341
1631204281958,0.3691253364086151,-0.225929319858551,-0.3428961634635925,0.2607075572013855
1631204282051,0.394467145204544,-0.2403263598680496,-0.3269979357719421,0.2560830414295196
1631204282161,0.4097162187099457,-0.2574811279773712,-0.31950443983078,0.2526932656764984
1631204282239,0.4166912734508514,-0.2770243287086487,-0.3128030896186828,0.2469673454761505
1631204282333,0.4202929437160492,-0.2964664101600647,-0.3037995100021362,0.2384827882051468
1631204282473,0.4264651238918304,-0.311979204416275,-0.2951329350471496,0.2305025458335876
1631204282504,0.4380252361297607,-0.321893960237503,-0.2893082499504089,0.2257962375879287
1631204282670,0.4537798464298248,-0.3277952671051025,-0.2856059074401855,0.2247405499219894
1631204282764,0.4697858691215515,-0.3318327069282532,-0.2807639837265014,0.2257546186447143
1631204282857,0.4827929139137268,-0.3349067866802215,-0.273189514875412,0.2242519408464431
1631204282935,0.4919908344745636,-0.3349094092845917,-0.2643798291683197,0.2144080847501754
1631204283045,0.4987184703350067,-0.3279707431793213,-0.2592131495475769,0.1953280568122863
1631204283138,0.5033878087997437,-0.3124596178531647,-0.2655115723609924,0.1751877665519714
1631204283279,0.5060403347015381,-0.2916460633277893,-0.2871794402599334,0.1493916511535644
1631204283357,0.5074612498283386,-0.2715470492839813,-0.3181046843528747,0.1210477128624916
1631204283451,0.5065815448760986,-0.2554813623428345,-0.3446917533874511,0.0927380621433258
1631204283560,0.5039553046226501,-0.2415374964475631,-0.3590079545974731,0.070340484380722
1631204283623,0.4993379116058349,-0.2255234718322754,-0.3671104907989502,0.0687886923551559
1631204283748,0.4947398602962494,-0.2044471204280853,-0.378875732421875,0.08494134247303
1631204283888,0.4930554628372192,-0.1782906800508499,-0.3956542611122131,0.1032984778285026
1631204283951,0.491541713476181,-0.15042145550251,-0.4111352264881134,0.1125387772917747
1631204284044,0.4877359271049499,-0.1262678503990173,-0.4204669892787933,0.1141140162944793
1631204284169,0.4808897972106933,-0.1108431369066238,-0.4257095456123352,0.1130895242094993
1631204284247,0.4719447195529938,-0.1041465029120445,-0.4334771335124969,0.1143231764435768
1631204284341,0.4596111476421356,-0.101158358156681,-0.4472412765026092,0.1185835152864456
1631204284482,0.4409293830394745,-0.0981334000825882,-0.4617780148983001,0.1248814761638641
1631204284580,0.4159664809703827,-0.0969823822379112,-0.4657860398292541,0.1310505867004394
1631204284674,0.4030213952064514,-0.1031499058008194,-0.4552105665206909,0.1310505867004394
1631204284767,0.3874704241752624,-0.1188578605651855,-0.4386817812919616,0.1310505867004394
1631204284845,0.3662963509559631,-0.1411828398704528,-0.4299046993255615,0.1310505867004394
1631204284970,0.3411174416542053,-0.1632506251335144,-0.4352706372737884,0.1310505867004394
1631204285111,0.3186344504356384,-0.1799197643995285,-0.4520770609378814,0.1310505867004394
1631204285205,0.3070443868637085,-0.1912957280874252,-0.4736686646938324,0.1309336125850677
1631204285283,0.3075811862945556,-0.2008082866668701,-0.4932219982147217,0.1271939277648925
1631204285376,0.3121148645877838,-0.2121361643075943,-0.5037670731544495,0.1239057555794715
1631204285533,0.3184134662151336,-0.2263205647468567,-0.4994109272956848,0.1034779623150825
1631204285564,0.3238807916641235,-0.2411413341760635,-0.478715717792511,0.093951977789402
1631204285736,0.3193710148334503,-0.2531372606754303,-0.4489791691303253,0.0911461561918258
1631204285798,0.3193710148334503,-0.260137528181076,-0.4213955104351043,0.0811578258872032
1631204285876,0.3193710148334503,-0.2644191384315491,-0.4032225012779236,0.0634281858801841
1631204285970,0.3193710148334503,-0.2695517241954803,-0.3961929678916931,0.0634281858801841
1631204286079,0.3193710148334503,-0.276022344827652,-0.3984686732292175,0.0634281858801841
1631204286204,0.3193710148334503,-0.2793678939342499,-0.4046638011932373,0.0634281858801841
1631204286314,0.3193710148334503,-0.2756963670253753,-0.407073438167572,0.0634281858801841
1631204286423,0.3193710148334503,-0.2662894427776336,-0.4003187119960785,0.0634281858801841
1631204286520,0.3193710148334503,-0.2575733065605163,-0.3865640163421631,0.0634281858801841
1631204286598,0.3193710148334503,-0.2536532282829284,-0.3724682331085205,0.0634281858801841
1631204286692,0.3193710148334503,-0.2519479990005493,-0.3631502091884613,0.049266543239355
1631204286786,0.3193710148334503,-0.2489982396364212,-0.3601270318031311,0.0451711304485797
1631204286942,0.4219437837600708,-0.2444470375776291,-0.3639682829380035,0.0299727898091077
1631204287004,0.3964955806732178,-0.2403969466686248,-0.3749086856842041,0.0269490368664264
1631204287114,0.3650341629981994,-0.236760139465332,-0.3909352719783783,0.0156421139836311
1631204287208,0.3336958885192871,-0.2312438637018203,-0.4055306017398834,0.0129954572767019
1631204287317,0.3076106905937195,-0.2239652127027511,-0.4109772443771362,0.0120322173461318
1631204287380,0.2887291610240936,-0.2180155217647552,-0.4050168395042419,0.0125493109226226
1631204287567,0.2765566408634186,-0.2157683074474334,-0.3938524723052978,0.0163997802883386
1631204287629,0.2707512974739074,-0.2152091115713119,-0.3846417665481567,0.0241007432341575
1631204287754,0.2724357843399048,-0.2133090943098068,-0.379757672548294,0.0319099277257919
1631204287819,0.2779321074485779,-0.2092393189668655,-0.3781623840332031,0.0376873984932899
1631204287913,0.2829724252223968,-0.2050265520811081,-0.3778373599052429,0.0426390618085861
1631204288038,0.2834773957729339,-0.2034102231264114,-0.3777225911617279,0.0501148588955402
1631204288147,0.2675197124481201,-0.2058746963739395,-0.3779861032962799,0.0582322068512439
1631204288272,0.2495407313108444,-0.2118087708950042,-0.3787698447704315,0.070873312652111
1631204288350,0.2343224287033081,-0.2154107838869094,-0.3797169327735901,0.0872698873281478
1631204288460,0.2237952947616577,-0.2104255110025406,-0.3799646496772766,0.1025559678673744
1631204288522,0.2206048965454101,-0.1976866424083709,-0.3797472417354584,0.1141063794493675
1631204288631,0.2296579033136367,-0.1845498532056808,-0.3813277184963226,0.1214856132864952
1631204288772,0.2507282495498657,-0.1763434261083603,-0.3873305916786194,0.1291608214378357
1631204288850,0.2793851792812347,-0.1723805963993072,-0.3973880112171173,0.1373762786388397
1631204288960,0.3108765482902527,-0.1688759624958038,-0.4075759053230285,0.1460710167884826
1631204289038,0.3204599618911743,-0.1646633446216583,-0.4134949743747711,0.1538650542497635
1631204289147,0.3280162811279297,-0.1622902899980545,-0.414690226316452,0.1464178562164306
1631204289210,0.3309976458549499,-0.1625434458255767,-0.4144622087478637,0.1499290019273758
1631204289381,0.3371034860610962,-0.1619366705417633,-0.4145335555076599,0.1549800634384155
1631204289478,0.3457742035388946,-0.1567710787057876,-0.4150604009628296,0.1611324697732925
1631204289603,0.3623998463153839,-0.1460233926773071,-0.4146074652671814,0.1636401414871215
1631204289665,0.3823591768741607,-0.1338856369256973,-0.4111411273479461,0.1558765470981598
1631204289728,0.3972024023532867,-0.12427968531847,-0.404215931892395,0.137834370136261
1631204289853,0.4073292911052704,-0.1209488809108734,-0.3929940462112427,0.1343524307012558
1631204289993,0.4178536534309387,-0.1259892433881759,-0.3790232539176941,0.1460818648338318
1631204290071,0.431878000497818,-0.1367751061916351,-0.3660213053226471,0.1573067903518676
1631204290181,0.4506949186325073,-0.1474273204803466,-0.3594678938388824,0.1598162204027176
1631204290259,0.4719980359077453,-0.1527354717254638,-0.3629552721977234,0.1499971747398376
1631204290337,0.4881916046142578,-0.1517395377159118,-0.3753711879253387,0.1474817991256714
1631204290431,0.4933597445487976,-0.1458917260169983,-0.392317920923233,0.1507412940263748
1631204290576,0.4929487407207489,-0.1367014199495315,-0.4094705879688263,0.1503481417894363
1631204290670,0.4881736934185028,-0.124988779425621,-0.4253072440624237,0.1548552811145782
1631204290795,0.4827428460121155,-0.1141082867980003,-0.4402894973754883,0.1384841054677963
1631204290842,0.4816823303699493,-0.1090941429138183,-0.4564319849014282,0.1194645017385482
1631204290967,0.4810615479946136,-0.1121396720409393,-0.4731160700321197,0.1028190404176712
1631204291077,0.4834887087345123,-0.1224118024110794,-0.4872191250324249,0.0887351408600807
1631204291186,0.4926249086856842,-0.1353262364864349,-0.4957968592643738,0.0770024880766868
1631204291326,0.5054020881652832,-0.1466878056526184,-0.4985026717185974,0.0614556781947612
1631204291389,0.5155024528503418,-0.1549533158540725,-0.5006977915763855,0.0403153300285339
1631204291467,0.5183719992637634,-0.1606421470642089,-0.5056993961334229,0.0207710769027471
1631204291579,0.5236222147941589,-0.1631259769201278,-0.5120390057563782,0.0054263137280941
1631204291673,0.522927463054657,-0.1593509763479232,-0.5130462050437927,-0.0036726118996739
1631204291798,0.513900876045227,-0.1477612853050232,-0.5035116076469421,-0.0120434192940592
1631204291891,0.5008947253227234,-0.1325245499610901,-0.4849638044834137,-0.027522325515747
1631204292001,0.491574615240097,-0.1212815269827842,-0.4642835557460785,-0.0542881116271019
1631204292095,0.491971492767334,-0.1166411191225051,-0.4492930769920349,-0.0836750417947769
1631204292188,0.5001019239425659,-0.116256944835186,-0.442948967218399,-0.1038183569908142
1631204292298,0.5128456354141235,-0.1164408475160598,-0.440906286239624,-0.1085533574223518
1631204292407,0.5307324528694153,-0.1147365942597389,-0.4355817437171936,-0.0983971431851387
1631204292485,0.5489466786384583,-0.1086431443691253,-0.4250134229660034,-0.085067942738533
1631204292579,0.557896614074707,-0.0964483991265297,-0.4152882695198059,-0.0693684518337249
1631204292688,0.557896614074707,-0.0793055295944213,-0.411182701587677,-0.0693684518337249
1631204292785,0.557896614074707,-0.0628643259406089,-0.4123912453651428,-0.0693684518337249
1631204292863,0.557896614074707,-0.051161952316761,-0.4140812158584595,-0.0693684518337249
1631204293035,0.557896614074707,-0.0441695116460323,-0.4151334762573242,-0.0693684518337249
1631204293097,0.557896614074707,-0.0401607975363731,-0.4184890985488891,-0.0693684518337249
1631204293207,0.557896614074707,-0.038658894598484,-0.4265158772468567,-0.0693684518337249
1631204293316,0.4224126040935516,-0.0400396101176738,-0.4390594959259033,0.3464299440383911
1631204293394,0.4240967333316803,-0.0428517051041126,-0.4544403254985809,0.3265644311904907
1631204293472,0.4222598671913147,-0.0444767512381076,-0.4712021648883819,0.2984939515590668
1631204293633,0.416280448436737,-0.0438416637480258,-0.4872811138629913,0.2746634185314178
1631204293727,0.4039829969406128,-0.042488943785429,-0.5004348158836365,0.255513995885849
1631204293821,0.387165367603302,-0.0413191132247448,-0.5128912925720215,0.237507939338684
1631204293930,0.3729692101478576,-0.0399263389408588,-0.5291922688484192,0.2192956209182739
1631204294024,0.3643145263195038,-0.0395926348865032,-0.5494449138641357,0.1998317390680313
1631204294133,0.3593595325946808,-0.0404330231249332,-0.56613689661026,0.1777820736169815
1631204294258,0.353661835193634,-0.0397773645818233,-0.5704202651977539,0.1550602316856384
1631204294336,0.3471248745918274,-0.0339640453457832,-0.5576624274253845,0.1332740634679794
1631204294414,0.3413409888744354,-0.0238302405923604,-0.5326375365257263,0.1147979199886322
1631204294508,0.335318922996521,-0.0149552710354328,-0.5016121864318848,0.0916490852832794
1631204294602,0.3259512782096863,-0.0130315385758876,-0.4662403166294098,0.0507485009729862
1631204294727,0.3154037594795227,-0.0200504716485738,-0.4279507994651794,-0.0001350679813185
1631204294855,0.3059225976467132,-0.0347708910703659,-0.3907574713230133,-0.0470645502209663
1631204294934,0.2990299761295318,-0.0532147549092769,-0.3615086674690246,-0.0812012255191803
1631204295043,0.296862930059433,-0.0696446672081947,-0.3452429473400116,-0.1074463799595832
1631204295136,0.2985655665397644,-0.0814810320734977,-0.3402870893478393,-0.133587896823883
1631204295215,0.3023886978626251,-0.0904583111405372,-0.3410439491271972,-0.1563217341899871
1631204295324,0.3065198957920074,-0.0988750681281089,-0.3418861627578735,-0.1643189191818237
1631204295464,0.3074366450309753,-0.1068407148122787,-0.3398436307907104,-0.1516976803541183
1631204295558,0.3057492673397064,-0.112357348203659,-0.3346575796604156,-0.1230379492044448
1631204295652,0.305352509021759,-0.1173489764332771,-0.3273405134677887,-0.0873864814639091
1631204295746,0.3116500973701477,-0.127581849694252,-0.3207240998744964,-0.0532736405730247
1631204295824,0.322535902261734,-0.1456429064273834,-0.3178981840610504,-0.021663824096322
1631204295918,0.3272180557250976,-0.1666992008686065,-0.3186208009719848,-0.0075065069831907
1631204296043,0.3304474651813507,-0.1814261823892593,-0.3227859437465668,0.0055083655752241
1631204296167,0.332691490650177,-0.1840546578168869,-0.3320775330066681,0.0173304043710231
1631204296245,0.335147887468338,-0.1771825850009918,-0.3508659899234772,0.0276448000222444
1631204296339,0.3372335433959961,-0.1667214483022689,-0.3728242814540863,0.0397115163505077
1631204296449,0.3362399041652679,-0.1560909897089004,-0.3920871019363403,0.0565207935869693
1631204296542,0.3294180333614349,-0.1458812654018402,-0.4001347422599792,0.0817073956131935
1631204296683,0.3184555470943451,-0.1342781335115432,-0.3932306170463562,0.1137051209807396
1631204296808,0.3111893534660339,-0.1193046271800994,-0.3748095035552978,0.1474066078662872
1631204296855,0.315045028924942,-0.1027154102921485,-0.3502618372440338,0.1745257079601287
1631204296964,0.3329086303710937,-0.0891149416565895,-0.3238617479801178,0.1869404911994934
1631204297058,0.3329086303710937,-0.0819421485066413,-0.2987993955612182,0.1869404911994934
1631204297152,0.3329086303710937,-0.0797212794423103,-0.2774576544761657,0.1869404911994934
1631204297277,0.3329086303710937,-0.0788624361157417,-0.2604985237121582,0.1869404911994934
1631204297370,0.3329086303710937,-0.0782630518078804,-0.2604985237121582,0.1869404911994934
1631204297448,0.3329086303710937,-0.0785009264945983,-0.2604985237121582,0.1869404911994934
1631204297542,0.3329086303710937,-0.0799422115087509,-0.2604985237121582,0.1869404911994934
1631204297683,0.3329086303710937,-0.0820742845535278,-0.2604985237121582,0.1869404911994934
1631204297795,0.3329086303710937,-0.0849482268095016,-0.2604985237121582,0.1869404911994934
1631204297888,0.3329086303710937,-0.0900945663452148,-0.2604985237121582,0.1869404911994934
1631204297967,0.3329086303710937,-0.1003597155213356,-0.2604985237121582,0.1869404911994934
1631204298091,0.3329086303710937,-0.1173688173294067,-0.2604985237121582,0.1869404911994934
1631204298201,0.3329086303710937,-0.1413659304380417,-0.2604985237121582,0.1869404911994934
1631204298279,0.3329086303710937,-0.1705616265535354,-0.2604985237121582,0.1869404911994934
1631204298388,0.3329086303710937,-0.2005690634250641,-0.2604985237121582,0.1869404911994934
1631204298529,0.3329086303710937,-0.2251693606376648,-0.2604985237121582,0.1869404911994934
1631204298607,0.3329086303710937,-0.2386045902967453,-0.2604985237121582,0.1869404911994934
1631204298669,0.3329086303710937,-0.2402839064598083,-0.2604985237121582,0.1869404911994934
1631204298780,0.3329086303710937,-0.2353535294532776,-0.2604985237121582,0.1869404911994934
1631204298883,0.3329086303710937,-0.2305008172988891,-0.2604985237121582,0.1869404911994934
1631204298976,0.3329086303710937,-0.2304906845092773,-0.2604985237121582,0.1869404911994934
1631204299102,0.3329086303710937,-0.2346523702144622,-0.2604985237121582,0.1869404911994934
1631204299227,0.3329086303710937,-0.2367724776268005,-0.2604985237121582,0.1869404911994934
1631204299304,0.3329086303710937,-0.2302185446023941,-0.2604985237121582,0.1869404911994934
1631204299398,0.3329086303710937,-0.2132643908262252,-0.3462673723697662,0.1869404911994934
1631204299476,0.3329086303710937,-0.1905585825443267,-0.3575547039508819,0.1869404911994934
1631204299570,0.3329086303710937,-0.1668215095996856,-0.3447903990745544,0.1869404911994934
1631204299726,0.4464678168296814,-0.1428754031658172,-0.3118987679481506,0.6229698061943054
1631204299823,0.4464678168296814,-0.1188151314854621,-0.2792100310325622,0.6532265543937683
1631204299901,0.4464678168296814,-0.0957706868648529,-0.2607688307762146,0.6532265543937683
1631204299995,0.4464678168296814,-0.0725714191794395,-0.2557777762413025,0.6532265543937683
1631204300104,0.4464678168296814,-0.0489076077938079,-0.2502126395702362,0.6532265543937683
1631204300182,0.4464678168296814,-0.0289559587836265,-0.2502126395702362,0.6532265543937683
1631204300339,0.4464678168296814,-0.0173163600265979,-0.2502126395702362,0.6532265543937683
1631204300432,0.4464678168296814,-0.0145430788397789,-0.2502126395702362,0.6532265543937683
1631204300510,0.4464678168296814,-0.0173189397901296,-0.2502126395702362,0.6532265543937683
1631204300604,0.4464678168296814,-0.0227540805935859,-0.2502126395702362,0.6532265543937683
1631204300713,0.4464678168296814,-0.0311438385397195,-0.2433924078941345,0.6532265543937683
1631204300810,0.4464678168296814,-0.0423769727349281,-0.2290546149015426,0.6532265543937683
1631204300935,0.4464678168296814,-0.0550719611346721,-0.2044746577739715,0.6997889876365662
1631204301044,0.4464678168296814,-0.0679320320487022,-0.1925612986087799,0.6997889876365662
1631204301138,0.4464678168296814,-0.0818517953157424,-0.2078570574522018,0.6997889876365662
1631204301232,0.4464678168296814,-0.0983883813023567,-0.2396452873945236,0.6997889876365662
1631204301325,0.4464678168296814,-0.1168482601642608,-0.2667493522167206,0.6997889876365662
1631204301403,0.5013410449028015,-0.1362891793251037,-0.2715518474578857,0.6997889876365662
1631204301544,0.5013410449028015,-0.159684732556343,-0.2606654167175293,0.6997889876365662
1631204301625,0.5013410449028015,-0.1912945508956909,-0.2545974254608154,0.6997889876365662
1631204301719,0.5013410449028015,-0.22927126288414,-0.2561028301715851,0.6997889876365662
1631204301828,0.5013410449028015,-0.2653802931308746,-0.2516098916530609,0.6997889876365662
1631204301922,0.5013410449028015,-0.2908125519752502,-0.2346535623073578,0.6997889876365662
1631204302016,0.5013410449028015,-0.3023892939090729,-0.2092737704515457,0.6997889876365662
1631204302141,0.5013410449028015,-0.3031107783317566,-0.1826338618993759,0.6997889876365662
1631204302266,0.5013410449028015,-0.2983506619930267,-0.1604364216327667,0.6997889876365662
1631204302344,0.5013410449028015,-0.2953504621982574,-0.1459259986877441,0.6997889876365662
1631204302453,0.5013410449028015,-0.2984668612480163,-0.1407097429037094,0.6997889876365662
1631204302547,0.5013410449028015,-0.3056622445583343,-0.135909304022789,0.6997889876365662
1631204302628,0.5013410449028015,-0.3119098544120788,-0.1339962780475616,0.6997889876365662
1631204302769,0.5013410449028015,-0.3127350509166717,-0.1372822523117065,0.6997889876365662
1631204302862,0.5013410449028015,-0.3069833815097809,-0.1456256359815597,0.6997889876365662
1631204302956,0.5013410449028015,-0.2964646518230438,-0.1576109379529953,0.6997889876365662
1631204303034,0.5013410449028015,-0.2869845032691955,-0.1703572571277618,0.6997889876365662
1631204303144,0.6345535516738892,-0.2844025492668152,-0.1816432774066925,0.2116694450378418
1631204303222,0.6002857685089111,-0.2888482213020324,-0.1923727095127105,0.2318651676177978
1631204303362,0.5640678405761719,-0.2933725714683532,-0.2071241587400436,0.240367129445076
1631204303472,0.5640678405761719,-0.289656788110733,-0.2298395335674286,0.2412813901901245
1631204303550,0.5640678405761719,-0.2772261202335357,-0.2610824108123779,0.2412813901901245
1631204303677,0.5640678405761719,-0.2636953890323639,-0.2998737394809723,0.2412813901901245
1631204303755,0.5640678405761719,-0.255536139011383,-0.3388901352882385,0.2412813901901245
1631204303849,0.5640678405761719,-0.2530471384525299,-0.3818935453891754,0.2412813901901245
1631204303974,0.5640678405761719,-0.2523849606513977,-0.4210187494754791,0.2412813901901245
1631204304099,0.5640678405761719,-0.2491095811128616,-0.4465529024600982,0.2412813901901245
1631204304178,0.5640678405761719,-0.2413535267114639,-0.4557635486125946,0.2412813901901245
1631204304271,0.5640678405761719,-0.2322508990764618,-0.456516295671463,0.2412813901901245
1631204304349,0.5405494570732117,-0.2267337292432785,-0.4605656564235687,0.2615748047828674
1631204304443,0.5001749992370605,-0.2258297055959701,-0.4709092974662781,0.277506560087204
1631204304599,0.5001749992370605,-0.2254800349473953,-0.4825235903263092,0.2833245396614074
1631204304693,0.5001749992370605,-0.220784530043602,-0.4861258268356323,0.2833245396614074
1631204304786,0.5001749992370605,-0.2125533521175384,-0.4385116100311279,0.2833245396614074
1631204304896,0.5001749992370605,-0.2060031294822693,-0.3935467898845672,0.2833245396614074
1631204304989,0.5001749992370605,-0.2051814496517181,-0.3638446033000946,0.2833245396614074
1631204305068,0.5001749992370605,-0.2109139412641525,-0.3480762839317322,0.2833245396614074
1631204305208,0.4704604148864746,-0.2203003913164138,-0.3398021161556244,0.2833245396614074
1631204305318,0.4556375443935394,-0.2303435802459716,-0.3495039343833923,0.181626096367836
1631204305380,0.4474846422672272,-0.2395863533020019,-0.3646029233932495,0.1737043261528015
1631204305505,0.4445120692253113,-0.2474974542856216,-0.3832167685031891,0.1720726042985916
1631204305583,0.440738320350647,-0.254427969455719,-0.3996756076812744,0.1790634542703628
1631204305682,0.4320018887519836,-0.2611601948738098,-0.4115617275238037,0.1907538324594497
1631204305823,0.41994109749794,-0.2674631178379059,-0.4198503792285919,0.1972896456718444
1631204305901,0.4092115461826324,-0.2716038823127746,-0.4267824292182922,0.1942068487405777
1631204306010,0.4029990434646606,-0.2719130218029022,-0.4333085417747497,0.1815468221902847
1631204306119,0.3983263075351715,-0.2695802450180053,-0.4386858940124511,0.1652381122112274
1631204306182,0.3921314775943756,-0.2684841156005859,-0.4418519139289856,0.1514922827482223
1631204306307,0.3825405538082123,-0.2707250714302063,-0.4540492594242096,0.1421353816986084
1631204306447,0.3566662669181824,-0.2753327190876007,-0.4672817885875702,0.1367133259773254
1631204306510,0.3304688334465027,-0.2809930443763733,-0.4823656380176544,0.1294834613800048
1631204306637,0.3062373697757721,-0.2872446775436401,-0.5009530782699585,0.1276323497295379
1631204306732,0.2843729853630066,-0.293746143579483,-0.5204694867134094,0.1298974901437759
1631204306825,0.264701783657074,-0.2983785569667816,-0.5345723628997803,0.1335090696811676
1631204306903,0.2457984834909439,-0.2972648441791534,-0.5381444096565247,0.134769856929779
1631204307044,0.2257419228553772,-0.2899883389472961,-0.5319569706916809,0.1315575540065765
1631204307138,0.2096933126449585,-0.2804954051971435,-0.5210225582122803,0.1242987737059593
1631204307216,0.2059775739908218,-0.273893266916275,-0.5078430771827698,0.115536943078041
1631204307341,0.2158838361501693,-0.2727157473564148,-0.4924845099449157,0.1124902665615081
1631204307435,0.2307757884263992,-0.2764301598072052,-0.4752326011657715,0.1170636788010597
1631204307513,0.2406426072120666,-0.2833792567253113,-0.4592178761959076,0.1258027255535125
1631204307638,0.2459504604339599,-0.2909853458404541,-0.4486370682716369,0.132958322763443
1631204307731,0.2542721033096313,-0.2964917719364166,-0.4454921782016754,0.1349624246358871
1631204307825,0.2730990648269653,-0.2990043759346008,-0.4471908211708069,0.133108839392662
1631204307919,0.2991152703762054,-0.3004003763198852,-0.4493171870708465,0.1275599896907806
1631204308013,0.3253693580627441,-0.3033115267753601,-0.4484516382217407,0.1170130893588066
1631204308091,0.3459551334381103,-0.3080908954143524,-0.4444295763969421,0.0987115651369094
1631204308263,0.3597732782363891,-0.3133868873119354,-0.4408816397190094,0.0739626511931419
1631204308356,0.3681316971778869,-0.3186718225479126,-0.4408008754253387,0.0474623665213584
1631204308419,0.3738753795623779,-0.3237311840057373,-0.4457370340824127,0.0229996424168348
1631204308512,0.3797506093978882,-0.3244788944721222,-0.4546344876289367,0.0007741636363789
1631204308637,0.3846799731254577,-0.3158076107501983,-0.4660763442516327,-0.0224751085042953
1631204308735,0.3855770230293274,-0.2983611822128296,-0.4799521863460541,-0.047118104994297
1631204308845,0.3807033598423004,-0.2809022665023803,-0.4963175356388092,-0.0728031024336814
1631204308954,0.3719664514064789,-0.2724058330059051,-0.5130211114883423,-0.0958628803491592
1631204309063,0.3654786050319671,-0.2741909325122833,-0.5254630446434021,-0.1113066300749778
1631204309141,0.366654098033905,-0.2809334695339203,-0.5290612578392029,-0.1157509684562683
1631204309235,0.372370958328247,-0.2868461608886719,-0.5223852396011353,-0.1080079823732376
1631204309313,0.3742581605911255,-0.2897266745567322,-0.5096569657325745,-0.0927470624446868
1631204309454,0.3689792454242706,-0.2913990318775177,-0.4966897666454315,-0.0762757807970047
1631204309548,0.3581013977527618,-0.2938642203807831,-0.4876073896884918,-0.0622859485447406
1631204309658,0.3497461378574371,-0.2976820766925812,-0.4838602840900421,-0.0480787754058837
1631204309757,0.3472902476787567,-0.3023594319820404,-0.4832714200019836,-0.0297076292335987
1631204309835,0.3473586738109588,-0.3075504601001739,-0.4837652742862701,-0.0087352180853486
1631204309929,0.344961941242218,-0.315664142370224,-0.4842402040958404,0.0149828111752867
1631204310069,0.3396526277065277,-0.3325285911560058,-0.4854703247547149,0.0408779680728912
1631204310163,0.3358317017555237,-0.3624932169914245,-0.4890234470367431,0.0639643743634224
1631204310272,0.3392462432384491,-0.4016522765159607,-0.4956070780754089,0.0784331932663917
1631204310382,0.3514169156551361,-0.4348694980144501,-0.5044765472412109,0.0833523049950599
1631204310491,0.3673693537712097,-0.4475790858268738,-0.5148103833198547,0.0856506824493408
1631204310570,0.380726009607315,-0.442486047744751,-0.5257583260536194,0.0939080417156219
1631204310696,0.3873852491378784,-0.4331092238426208,-0.5371105670928955,0.10846958309412
1631204310821,0.388260930776596,-0.4255853593349457,-0.5493953824043274,0.1206149607896804
1631204310899,0.3872576951980591,-0.4158598184585571,-0.5623794198036194,0.1229152157902717
1631204310977,0.3892887532711029,-0.398807555437088,-0.574264407157898,0.1187755092978477
1631204311071,0.3958683907985687,-0.3775193989276886,-0.5833132266998291,0.1155701726675033
1631204311149,0.4034218788146972,-0.3568097352981567,-0.5892804265022278,0.1193772330880165
1631204311290,0.4110213220119476,-0.3383482098579407,-0.593691349029541,0.1289685368537902
1631204311384,0.4207883775234222,-0.3218837976455688,-0.5967227816581726,0.1400481760501861
1631204311462,0.4336021840572357,-0.3078470230102539,-0.5971406698226929,0.1470664292573928
1631204311587,0.4450434446334839,-0.2951977849006653,-0.5945690870285034,0.1486092060804367
1631204311667,0.448498010635376,-0.279826283454895,-0.5901349782943726,0.1504291445016861
1631204311761,0.4437693655490875,-0.2582426369190216,-0.585151195526123,0.1588773280382156
1631204311886,0.436550110578537,-0.2328809052705764,-0.5817185640335083,0.1721445024013519
1631204312027,0.4344643652439117,-0.2090175896883011,-0.5812088251113892,0.1863424777984619
1631204312089,0.4404310584068298,-0.1907407790422439,-0.5820367336273193,0.2020898163318634
1631204312183,0.4524218440055847,-0.1797698140144348,-0.5813005566596985,0.2209506779909134
1631204312277,0.4657177925109863,-0.1769788265228271,-0.5797047019004822,0.2411910593509674
1631204312386,0.4749675989151001,-0.1822487264871597,-0.580877959728241,0.2556232213973999
1631204312511,0.4767622649669647,-0.1927269995212555,-0.5866023898124695,0.260549396276474
1631204312605,0.4720990061759949,-0.2034406065940857,-0.5910178422927856,0.2619316875934601
1631204312703,0.4660042226314544,-0.2112515866756439,-0.5855723023414612,0.2683279514312744
1631204312781,0.4621987342834472,-0.2157582938671112,-0.570357084274292,0.2821878790855407
1631204312874,0.4620569348335266,-0.2171429097652435,-0.5520107746124268,0.2980237603187561
1631204312999,0.4666573405265808,-0.2152393460273742,-0.5343768000602722,0.3090955317020416
1631204313124,0.4767776429653168,-0.2107317000627517,-0.5152096748352051,0.3145363628864288
1631204313218,0.4911277890205383,-0.207244798541069,-0.4940927922725677,0.3166508674621582
1631204313312,0.5036571025848389,-0.2103142887353897,-0.4761848747730255,0.3153283894062042
1631204313421,0.5082550048828125,-0.2238351851701736,-0.4662147760391235,0.3108868598937988
1631204313515,0.5039892196655273,-0.2475716322660446,-0.4635756313800812,0.3012517392635345
1631204313593,0.4927018284797668,-0.2758822739124298,-0.4649491310119629,0.2839240133762359
1631204313721,0.4758963584899902,-0.2996187508106231,-0.4684748649597168,0.258417010307312
1631204313846,0.4553587734699249,-0.3118310272693634,-0.4734065532684326,0.2289547473192215
1631204313924,0.4355747401714325,-0.3129194378852844,-0.4787512123584747,0.2065318375825882
1631204314018,0.421919971704483,-0.3093693554401397,-0.4823958575725555,0.1970225572586059
1631204314111,0.4161945581436157,-0.3071522414684295,-0.4850458800792694,0.1940216571092605
1631204314189,0.4136885106563568,-0.3086204826831817,-0.4881153404712677,0.1848214417695999
1631204314346,0.4071760773658752,-0.3132304251194,-0.4893040955066681,0.1625996232032776
1631204314439,0.3920812904834747,-0.3190596103668213,-0.4867161214351654,0.1319823563098907
1631204314533,0.3705144822597503,-0.3231064677238464,-0.4835026860237121,0.1040342971682548
1631204314627,0.347525805234909,-0.3256160914897918,-0.4874393045902252,0.0848331153392791
1631204314709,0.3302725851535797,-0.3294090330600738,-0.4998298287391662,0.0732205957174301
1631204314802,0.3132102489471435,-0.3362773060798645,-0.5122769474983215,0.0630763843655586
1631204314974,0.2998674511909485,-0.3439680337905884,-0.5140783786773682,0.055577777326107
1631204315052,0.2876617610454559,-0.3479204773902893,-0.503081738948822,0.0542725212872028
1631204315161,0.2736048996448517,-0.3465264737606048,-0.4879902303218841,0.0562580190598964
1631204315255,0.2580810189247131,-0.3430388867855072,-0.4805580377578735,0.0572610534727573
1631204315349,0.2448052614927292,-0.3401961922645569,-0.4742149114608764,0.0579794012010097
1631204315458,0.2385233491659164,-0.3370069861412048,-0.4656140804290771,0.0630607903003692
1631204315583,0.2387184500694275,-0.3306778073310852,-0.4534717500209808,0.074756883084774
1631204315646,0.2403450608253479,-0.3199877440929413,-0.4251366257667541,0.0863861888647079
1631204315774,0.2416666150093078,-0.307373046875,-0.4030677080154419,0.0890104472637176
1631204315852,0.2499664276838302,-0.2961022555828094,-0.3956131339073181,0.0800613090395927
1631204315945,0.2499664276838302,-0.2889784872531891,-0.4020839631557464,0.0800613090395927
1631204316039,0.2499664276838302,-0.2878205776214599,-0.4157299399375915,0.0800613090395927
1631204316164,0.2499664276838302,-0.2901495695114136,-0.427473247051239,0.0800613090395927
1631204316258,0.2499664276838302,-0.2914791107177734,-0.4348790049552917,0.0800613090395927
1631204316367,0.2499664276838302,-0.287270188331604,-0.4401827156543731,0.0800613090395927
1631204316430,0.2499664276838302,-0.2756885588169098,-0.4493463337421417,0.0800613090395927
1631204316539,0.2499664276838302,-0.2593065202236175,-0.4672558605670929,0.0800613090395927
1631204316633,0.2499664276838302,-0.2419920116662979,-0.4925139546394348,0.0800613090395927
1631204316761,0.2113901376724243,-0.2268358767032623,-0.5093967914581299,0.1571691185235977
1631204316886,0.2280305474996566,-0.2156093418598175,-0.5209537744522095,0.1672907322645187
1631204316964,0.2517750263214111,-0.2081963866949081,-0.5280287265777588,0.1803687214851379
1631204317089,0.2767626643180847,-0.2036066055297851,-0.5340569019317627,0.1914471387863159
1631204317136,0.2941170334815979,-0.2013315558433532,-0.5616171956062317,0.1933933943510055
1631204317276,0.3010872900485992,-0.2005284428596496,-0.5891838073730469,0.184679701924324
1631204317402,0.3027364909648895,-0.2007729560136795,-0.6062527894973755,0.1715701520442962
1631204317495,0.3030247390270233,-0.2015197575092315,-0.6119212508201599,0.1629068702459335
1631204317573,0.3030247390270233,-0.20149926841259,-0.6138637065887451,0.1629068702459335
1631204317667,0.3030247390270233,-0.1998735219240188,-0.6200706362724304,0.1629068702459335
1631204317777,0.3030247390270233,-0.1972504705190658,-0.630912721157074,0.1629068702459335
