timestamp,TP9,AF7,AF8,TP10
1631204135312,0.9495827555656432,-0.0258297976106405,0.2537977695465088,0.8376529216766357
1631204135406,1.0915852785110474,0.0236094240099191,0.3472363948822021,0.8680174350738525
1631204135484,1.168007254600525,0.0476714186370372,0.3945461213588714,0.9004919528961182
1631204135578,1.200836181640625,0.0554332137107849,0.4131873846054077,0.9351138472557068
1631204135687,1.2117303609848022,0.0583322681486606,0.419317215681076,0.9725106954574584
1631204135828,1.2183979749679563,0.0666378289461135,0.4196912050247192,1.0141829252243042
1631204135922,1.2216871976852417,0.0791509076952934,0.4190839231014251,1.06190288066864
1631204136015,1.2233667373657229,0.0939435511827468,0.4170732200145721,1.066463828086853
1631204136109,1.2240605354309082,0.1047013476490974,0.4130527079105377,1.0690654516220093
1631204136219,1.2243473529815674,0.1070721521973609,0.4089614450931549,1.0696372985839844
1631204136281,1.2531269788742063,0.1084204539656639,0.4063616096973419,1.0710245370864868
1631204136406,1.2810215950012207,0.1053488254547119,0.4033674597740173,1.0636667013168335
1631204136518,1.3029710054397583,0.0892924070358276,0.3885270953178406,1.0224016904830933
1631204136612,1.3029608726501465,0.0541904531419277,0.3398493230342865,0.8709642887115479
1631204136721,1.2562777996063232,0.0016439124010503,0.2412016987800598,0.1718909442424774
1631204136799,1.1440917253494265,-0.0622113831341266,0.0911374166607856,0.1571604460477829
1631204136908,0.9574328660964966,-0.1131464093923568,-0.0867554545402526,0.1364268809556961
1631204137033,0.7090713381767273,-0.1427237093448639,-0.2473876476287841,0.1133160814642906
1631204137127,0.4677924513816833,-0.1554547995328903,-0.3486645817756653,0.0886073783040046
1631204137221,0.3393718600273132,-0.1663309931755066,-0.3967978060245514,0.065763421356678
1631204137299,0.2178777158260345,-0.1890544891357422,-0.4073317945003509,0.0467264018952846
1631204137393,0.2178777158260345,-0.2221700698137283,-0.4150285124778747,0.0318782217800617
1631204137502,0.2178777158260345,-0.2640611231327057,-0.4270651936531067,0.0070169633254408
1631204137643,0.2178777158260345,-0.3116585314273834,-0.4351939260959625,-0.0058019063435494
1631204137736,0.2178777158260345,-0.3600013554096222,-0.4336320757865906,-0.0217209290713071
1631204137814,-0.371162861585617,-0.4260735213756561,-0.4294084906578064,-0.0542741939425468
1631204137908,-0.3664747774600982,-0.5116292238235474,-0.425670325756073,-0.092191070318222
1631204138017,-0.3602154850959778,-0.599901556968689,-0.4276320040225982,-0.1215296536684036
1631204138127,-0.3403845429420471,-0.6859152317047119,-0.4386572539806366,-0.1298736482858657
1631204138299,-0.2927318215370178,-0.7601376175880432,-0.4551573693752289,-0.1181756630539894
1631204138361,-0.2177804857492447,-0.8062511086463928,-0.4722014963626861,-0.1018877327442169
1631204138439,-0.1323428303003311,-0.8226141333580017,-0.4823107719421386,-0.0915118232369422
1631204138533,-0.0639810860157013,-0.8233028650283813,-0.4737569689750671,-0.0802729502320289
1631204138611,-0.0237629171460866,-0.8190661668777466,-0.4533016085624695,-0.0587283000349998
1631204138720,-0.0055538862943649,-0.8115229606628418,-0.4385707080364227,-0.0363445654511451
1631204138832,0.0040593999437987,-0.8027308583259583,-0.4263315200805664,-0.0137933110818266
1631204138957,0.0184105150401592,-0.7945159077644348,-0.4027194082736969,0.0079462835565209
1631204139067,0.0482319109141826,-0.7885898351669312,-0.3634031116962433,0.0300513077527284
1631204139160,0.0762607604265213,-0.7803931832313538,-0.3168209791183471,0.055638637393713
1631204139254,0.1003467813134193,-0.7657519578933716,-0.2735328376293182,0.0815444141626358
1631204139332,0.1177213564515113,-0.7497311234474182,-0.2433263808488845,0.0975115373730659
1631204139473,0.1264353394508361,-0.7441480159759521,-0.2278906553983688,0.0997055321931839
1631204139583,0.1282809823751449,-0.7515584230422974,-0.2246592342853546,0.0892622247338295
1631204139676,0.1251552850008011,-0.7632591724395752,-0.2313953787088394,0.0688258856534957
1631204139738,0.1155177056789398,-0.7769438028335571,-0.2453044056892395,0.0480843521654605
1631204139832,0.0976623594760894,-0.7883859276771545,-0.2591988742351532,0.0421850122511386
1631204139957,0.0682593956589698,-0.7991058826446533,-0.2680746614933014,0.0541276074945926
1631204140082,0.037995733320713,-0.8045234680175781,-0.2673453390598297,0.0725962221622467
1631204140160,0.0245891902595758,-0.805492103099823,-0.2572094202041626,0.0900569558143615
1631204140285,0.0401907637715339,-0.7882120609283447,-0.2424174845218658,0.1094937920570373
1631204140363,0.0644159615039825,-0.7542652487754822,-0.2338092029094696,0.1194400116801261
1631204140457,0.0806152001023292,-0.6994319558143616,-0.2400153130292892,0.1159577891230583
1631204140551,0.0881412923336029,-0.6281588077545166,-0.2621650993824005,0.1056802868843078
1631204140676,0.0896227583289146,-0.5552940964698792,-0.296686589717865,0.0991239473223686
1631204140769,0.0870353654026985,-0.485909104347229,-0.3430102467536926,0.0998724475502967
1631204140894,0.0838531628251075,-0.420881062746048,-0.3911884129047394,0.109097383916378
1631204140972,0.0852406993508338,-0.3614456951618194,-0.4319369494915008,0.1228914260864257
1631204141082,0.0909372121095657,-0.3095709085464477,-0.4600479304790497,0.132176324725151
1631204141176,0.0971773788332939,-0.267918199300766,-0.4711780846118927,0.1393089890480041
1631204141301,0.102969042956829,-0.2327219545841217,-0.4689915478229522,0.1500511765480041
1631204141426,0.1058104559779167,-0.2024320214986801,-0.4615741372108459,0.1645879298448562
1631204141488,0.1077689006924629,-0.1757966727018356,-0.4558489024639129,0.1799875348806381
1631204141597,0.1022574007511138,-0.15851791203022,-0.4684607982635498,0.1861003786325454
1631204141660,0.0850666835904121,-0.1503103077411651,-0.504406213760376,0.1759524196386337
1631204141786,0.048977043479681,-0.1519105732440948,-0.5466484427452087,0.1504567414522171
1631204141900,0.0023766867816448,-0.1596238166093826,-0.5688925981521606,0.1264541894197464
1631204141994,-0.0500008948147296,-0.1733994483947754,-0.5676511526107788,0.1088922917842865
1631204142088,-0.0826055854558944,-0.1882875114679336,-0.5303292274475098,0.1144454255700111
1631204142197,-0.0413690134882926,-0.2011685669422149,-0.4413655698299408,0.1118717864155769
1631204142276,0.2057950496673584,-0.1976054608821869,-0.2767364382743835,0.1017621755599975
1631204142400,0.5534117817878723,-0.1637621372938156,-0.0688066184520721,0.0937305614352226
1631204142509,0.8485314249992371,-0.1101559922099113,0.1181811094284057,0.0940007492899894
1631204142650,1.051918387413025,-0.0603941418230533,0.2506387233734131,0.1045276448130607
1631204142759,1.173377275466919,-0.0333099961280822,0.325390487909317,0.1150105968117713
1631204142826,1.2019922733306885,-0.0301913097500801,0.35889732837677,0.1098615229129791
1631204142888,1.2327910661697388,-0.0427631698548793,0.3715519905090332,0.0756055936217308
1631204142982,1.2660272121429443,-0.0612323321402072,0.3776295185089111,0.0018739093793556
1631204143123,1.3024485111236572,-0.0765151157975196,0.3843944668769836,-0.0905669927597045
1631204143232,1.307538390159607,-0.0838337168097496,0.3968253135681152,-0.1560588926076889
1631204143341,1.3265374898910522,-0.0820727944374084,0.4242258071899414,-0.1560588926076889
1631204143404,1.3669383525848389,-0.0724603310227394,0.4961430132389068,-0.1560588926076889
1631204143498,1.4118260145187378,-0.0571701824665069,0.6206887364387512,-0.1560588926076889
1631204143607,1.461187720298767,-0.0434615239500999,0.7580214738845825,-0.1560588926076889
1631204143748,1.513777494430542,-0.0373365990817546,0.8663599491119385,-0.1560588926076889
1631204143812,1.5578558444976809,-0.0536661297082901,0.9286676049232484,-0.1560588926076889
1631204143907,1.5709620714187622,-0.1073346734046936,0.9481902718544006,-0.1560588926076889
1631204144017,1.522061109542847,-0.1980393826961517,0.9407954216003418,-0.1560588926076889
1631204144126,1.522061109542847,-0.3106781244277954,0.9243155121803284,-0.1560588926076889
1631204144204,1.522061109542847,-0.3967292606830597,0.9147788286209106,-0.1560588926076889
1631204144361,1.522061109542847,-0.4245643615722656,0.9122827053070068,-0.1560588926076889
1631204144454,1.522061109542847,-0.4077817499637604,0.9134113192558287,-0.1560588926076889
1631204144532,0.6286385655403137,-0.3824231028556824,0.9155189394950868,-0.1560588926076889
1631204144626,0.5678575038909912,-0.365463376045227,0.917547643184662,-0.1560588926076889
1631204144735,0.510948896408081,-0.3582208156585693,0.9184272885322572,0.511485755443573
1631204144813,0.0949799641966819,-0.3587083220481872,0.9141913652420044,0.4616416096687317
1631204144986,0.0637914761900901,-0.3712567687034607,0.8910508155822754,0.4246604740619659
1631204145032,0.0541524663567543,-0.4022956192493438,0.8299919962882996,0.4015597999095917
1631204145157,0.0518398210406303,-0.449196308851242,0.7158523201942444,0.3897991180419922
1631204145235,0.0484410375356674,-0.4956781566143036,0.5469329357147217,0.3834442794322967
1631204145329,0.0484410375356674,-0.5157840251922607,0.3542696833610534,0.3834442794322967
1631204145408,0.0484410375356674,-0.4892149269580841,0.2504999041557312,0.3834442794322967
1631204145563,0.0484410375356674,-0.419603556394577,0.3391782641410827,0.3834442794322967
1631204145641,0.0484410375356674,-0.2671893835067749,0.3362536132335663,0.3834442794322967
1631204145735,0.0484410375356674,-0.0628112256526947,0.3309677243232727,0.3834442794322967
1631204145847,0.0484410375356674,0.1200815811753273,0.3317623138427734,0.3834442794322967
1631204145940,0.0302754826843738,0.2482470870018005,0.3409897983074188,0.3602346181869507
1631204146034,-0.0079055577516555,0.3199932277202606,0.3557212650775909,0.310092568397522
1631204146159,-0.0459053628146648,0.3485033512115478,0.3733019530773163,0.2612039148807525
1631204146268,-0.0522826462984085,0.356610357761383,0.3925032317638397,0.2441926896572113
1631204146362,-0.0177631210535764,0.3610457479953766,0.4180305004119873,0.2604667246341705
1631204146456,-0.0177631210535764,0.3712417781352997,0.458632230758667,0.2604667246341705
1631204146534,-0.0177631210535764,0.3863219320774078,0.4708957076072693,0.2604667246341705
1631204146659,-0.0177631210535764,0.4193987846374511,0.5458876490592957,0.2604667246341705
1631204146784,-0.0177631210535764,0.4834026992321014,0.6149886846542358,0.2604667246341705
1631204146878,-0.0177631210535764,0.5703767538070679,0.6932362914085388,0.2604667246341705
1631204146971,-0.0177631210535764,0.6593160033226013,0.6932362914085388,0.2604667246341705
1631204147065,-0.0177631210535764,0.6828083992004395,0.6932362914085388,0.2604667246341705
1631204147159,-0.0177631210535764,0.6979674696922302,0.6932362914085388,0.2604667246341705
1631204147237,-0.0177631210535764,0.6962714195251465,0.6932362914085388,0.2604667246341705
1631204147393,-0.0177631210535764,0.6773563027381897,0.6932362914085388,0.2604667246341705
1631204147487,-0.0177631210535764,0.6528267860412598,0.6932362914085388,0.2604667246341705
1631204147581,-0.0177631210535764,0.6441527605056763,0.6932362914085388,0.2604667246341705
1631204147659,-0.0177631210535764,0.6670167446136475,0.6932362914085388,0.2604667246341705
1631204147772,-0.0177631210535764,0.7144806981086731,0.6932362914085388,0.2604667246341705
1631204147880,-0.0177631210535764,0.7742217779159546,0.6932362914085388,0.2604667246341705
1631204148005,-0.0177631210535764,0.8401705026626587,0.6932362914085388,0.2604667246341705
1631204148083,-0.0177631210535764,0.9183493256568908,0.6932362914085388,0.2604667246341705
1631204148192,-0.0177631210535764,0.9183493256568908,0.6932362914085388,0.2604667246341705
1631204148270,-0.0177631210535764,0.9183493256568908,0.6932362914085388,0.2604667246341705
1631204148364,-0.0177631210535764,0.9183493256568908,0.6932362914085388,0.2604667246341705
1631204148458,-0.0177631210535764,0.9183493256568908,0.6932362914085388,0.2604667246341705
1631204148616,-0.0177631210535764,0.9183493256568908,0.6932362914085388,0.2604667246341705
1631204148710,-0.0177631210535764,0.5105695128440857,0.6932362914085388,0.2604667246341705
1631204148788,-0.0177631210535764,0.4954518377780914,0.6932362914085388,0.2604667246341705
1631204148898,-0.0177631210535764,0.581741452217102,0.6932362914085388,0.2604667246341705
1631204148976,-0.0177631210535764,0.7314860820770264,0.6932362914085388,0.2604667246341705
1631204149069,-0.0177631210535764,0.8677990436553955,0.6932362914085388,0.2604667246341705
1631204149194,-0.0177631210535764,0.9541831612586976,0.6932362914085388,0.2604667246341705
1631204149319,-0.0177631210535764,0.9874181151390076,0.6932362914085388,0.2604667246341705
1631204149413,-0.0177631210535764,0.9817524552345276,0.6932362914085388,0.2604667246341705
1631204149491,-0.0177631210535764,0.9562684297561646,0.6932362914085388,0.2604667246341705
1631204149601,-0.0177631210535764,0.9258356094360352,1.0171912908554075,0.2604667246341705
1631204149679,-0.0177631210535764,0.8974464535713196,0.9272417426109314,0.2604667246341705
1631204149821,-0.0177631210535764,0.8726242780685425,0.8562467098236084,0.2604667246341705
1631204149915,-0.0177631210535764,0.8608987331390381,0.8028233051300049,0.2604667246341705
1631204150024,-0.0177631210535764,0.8508530259132385,0.7605847120285034,0.2604667246341705
1631204150103,-0.0177631210535764,0.8422115445137024,0.7231590151786804,0.2604667246341705
1631204150258,0.25908163189888,0.8353513479232788,0.6870552897453308,0.1851308345794677
1631204150322,0.2048937976360321,0.8246029615402222,0.65179443359375,0.1718378812074661
1631204150496,0.1617247760295868,0.792421281337738,0.618204653263092,0.1442689299583435
1631204150543,0.1256598979234695,0.7177290916442871,0.587519109249115,0.1076946854591369
1631204150637,0.0956158190965652,0.5810227394104004,0.5606061220169067,0.0721610710024833
1631204150730,0.0698204040527343,0.3714306056499481,0.535879373550415,0.0387737117707729
1631204150824,0.0507141537964344,0.1068904623389244,0.2801177501678467,0.0202518496662378
1631204150902,0.0416981391608715,-0.1378189325332641,0.0474892556667327,0.0306190848350524
1631204151059,0.0376770421862602,-0.2749335765838623,-0.0665777847170829,0.0579075030982494
1631204151152,0.0299494303762912,-0.3313733637332916,-0.0839858129620552,0.0856148228049278
1631204151240,0.0226709842681884,-0.3817695081233978,-0.0772187337279319,0.1012052595615387
1631204151382,0.0226973034441471,-0.4623946845531463,-0.0772603899240493,0.1008810028433799
1631204151554,-0.0371491499245166,-0.5769515633583069,-0.1004903614521026,0.0809008404612541
1631204151728,-0.0601366609334945,-0.6749041676521301,-0.1381954550743103,0.0636949986219406
1631204151900,-0.0369343385100364,-0.67110675573349,-0.1711429506540298,0.0626736357808113
1631204152056,0.0089538786560297,-0.5523150563240051,-0.1679536998271942,0.082466721534729
1631204152197,0.0578920394182205,-0.3859129548072815,-0.1249134764075279,0.1144497618079185
1631204152384,0.1021573320031166,-0.2363860756158828,-0.0605165660381317,0.151394248008728
1631204152588,0.1353039145469665,-0.1235043555498123,0.0045888531021773,0.186105340719223
1631204152759,0.15211883187294,-0.0436987057328224,0.0509579181671142,0.2163417041301727
1631204152947,0.1641169339418411,0.0135846398770809,0.0769853368401527,0.2407656610012054
1631204153119,0.1808638125658035,0.0527078993618488,0.0857293829321861,0.2515817582607269
1631204153259,0.204859659075737,0.0772356837987899,0.0833009108901023,0.248294860124588
1631204153431,0.2374877631664276,0.0916063860058784,0.0741470828652381,0.2458927631378173
1631204153634,0.3050629496574402,0.1040091514587402,0.0623579956591129,0.239017829298973
1631204153793,0.4776630401611328,0.1271325498819351,0.0743591859936714,0.2367735058069229
1631204153980,0.752040684223175,0.1706702560186386,0.1488344520330429,0.2475484907627105
1631204154136,1.0219581127166748,0.2324594110250473,0.2779128551483154,0.2704504728317261
1631204154308,1.225111484527588,0.2924479842185974,0.4048521518707275,0.2957331836223602
1631204154480,1.2518210411071775,0.3322397172451019,0.4928715825080871,0.3107724785804748
1631204154699,1.2801157236099243,0.3454078733921051,0.5350524187088013,0.3044385313987732
1631204154886,1.3103368282318115,0.333393394947052,0.5437340140342712,0.2796493172645569
1631204155058,1.343617558479309,0.305537611246109,0.5363166332244873,0.2431810051202774
1631204155230,1.3811509609222412,0.2708495557308197,0.5234915018081665,0.2026482820510864
1631204155402,1.4243186712265017,0.2373104095458984,0.508444607257843,0.2026482820510864
1631204155636,1.423621654510498,0.2077257484197616,0.4959319829940796,0.2026482820510864
1631204155826,1.4220401048660278,0.1851212978363037,0.4888510406017303,0.2026482820510864
1631204156013,1.419053554534912,0.1707545965909958,0.4865003228187561,0.2026482820510864
1631204156201,1.414760708808899,0.1658023297786712,0.486199140548706,-0.0657936558127403
1631204156404,1.4061813354492188,0.1663652658462524,0.4853373169898987,-0.1108093634247779
1631204156638,1.3767884969711304,0.1585493832826614,0.4743107855319977,-0.1343026310205459
1631204156841,1.2864540815353394,0.1241284906864166,0.434722751379013,-0.1149303838610649
1631204157076,1.0464197397232056,0.0508950762450695,0.343830406665802,-0.0528264567255973
1631204157247,-0.2580296695232391,-0.0578561499714851,0.1893635839223861,0.0256298258900642
1631204157482,-0.2739187479019165,-0.1761785000562667,-0.0167540702968835,0.0803571864962577
1631204157716,-0.2925747036933899,-0.2656272947788238,-0.2161445617675781,0.1006329357624054
1631204157935,-0.3085357546806335,-0.301910936832428,-0.3296169340610504,0.0963296964764595
1631204158138,-0.3186736404895782,-0.304373025894165,-0.3744001686573028,0.0818816199898719
1631204158325,-0.318237692117691,-0.2921537756919861,-0.4098183512687683,0.0630103051662445
1631204158562,-0.3033091425895691,-0.2700258493423462,-0.4179822206497192,0.0454214997589588
1631204158827,-0.3019199967384338,-0.2384039759635925,-0.3959217071533203,0.0303271412849426
1631204159062,-0.2568823099136352,-0.2060619741678238,-0.3482698202133178,0.0324275903403759
1631204159249,-0.2556891143321991,-0.1673357784748077,-0.2745819985866546,0.0396503433585166
1631204159468,-0.2542711794376373,-0.1179600358009338,-0.1251373142004013,0.0543453730642795
1631204159703,-0.2589737176895141,-0.0454885624349117,0.1160173639655113,0.0779718682169914
1631204159987,-0.2619577646255493,0.049616515636444,0.3637414872646332,0.1015164256095886
1631204160237,-0.2583590149879455,0.1434300243854522,0.554564356803894,0.1126389056444168
1631204160471,-0.2427668273448944,0.2093531340360641,0.6760914325714111,0.0948878973722457
1631204160799,-0.2210932821035385,0.242955207824707,0.7410721182823181,0.0293944012373685
1631204161049,-0.1962858140468597,0.2521916329860687,0.767575204372406,-0.0787674933671951
1631204161361,-0.1581625342369079,0.2506882548332214,0.7757109999656677,-0.198057934641838
1631204161611,-0.110192097723484,0.2462286502122879,0.778300940990448,-0.2887555360794067
1631204161939,-0.0536102280020713,0.2399543672800064,0.778346598148346,-0.2887555360794067
1631204162111,0.2454777210950851,0.2332146614789962,0.7779440879821777,-0.2887555360794067
1631204162205,0.3615913987159729,0.2249815911054611,0.7771973609924316,-0.2887555360794067
1631204162752,0.4097393751144409,0.2300623953342437,0.7903656363487244,-0.2887555360794067
1631204163486,0.4097393751144409,0.7811472415924072,1.170329451560974,-0.2887555360794067
1631204163845,0.4097393751144409,0.8190751075744629,1.2075759172439575,-0.2887555360794067
1631204164095,0.4097393751144409,0.8434242606163025,1.2472721338272097,-0.2887555360794067
1631204164361,0.4097393751144409,0.8676157593727112,1.2884881496429443,-0.2887555360794067
1631204164644,0.4097393751144409,0.9056927561759948,1.3235784769058228,-0.2887555360794067
1631204164847,0.4097393751144409,0.9578434824943542,1.340374231338501,-0.2887555360794067
1631204165113,0.4097393751144409,0.9794322848320008,1.2994990348815918,-0.2887555360794067
1631204165553,0.4097393751144409,1.0938928127288818,1.2730578184127808,-0.2887555360794067
1631204165849,0.4097393751144409,1.0852890014648438,1.2730578184127808,-0.2887555360794067
1631204167617,0.4097393751144409,1.0647797584533691,1.2730578184127808,-0.2887555360794067
1631204168148,0.4097393751144409,1.0647797584533691,1.3012466430664062,-0.2887555360794067
1631204168698,0.4097393751144409,1.0647797584533691,1.254981279373169,-0.2887555360794067
1631204170491,0.4097393751144409,1.0647797584533691,1.1876946687698364,-0.2887555360794067
1631204172520,0.3407918214797973,0.4768878817558288,0.8318577408790588,0.1745868325233459
1631204172671,0.3407918214797973,0.4483751952648163,0.8172494173049927,0.1745868325233459
1631204172812,0.3407918214797973,0.3845005333423614,0.7833115458488464,0.1745868325233459
1631204173358,0.3407918214797973,-0.2305110394954681,0.6022517085075378,0.1745868325233459
1631204173608,0.3407918214797973,-0.2591650784015655,0.6121574640274048,0.1745868325233459
1631204174438,0.3407918214797973,-0.3346627354621887,0.6120450496673584,0.1745868325233459
1631204175284,0.053901620209217,-0.3411582112312317,0.4758803844451904,0.2356456816196441
1631204175394,0.0291876178234815,-0.3369104862213135,0.3687246739864349,0.2313103675842285
1631204176128,0.093874841928482,-0.4556712806224823,-0.1701910942792892,0.1612061709165573
1631204176897,0.2155169695615768,-0.3692057430744171,-0.1114159524440765,0.0836357548832893
1631204179737,0.4067449569702148,-0.498000293970108,-0.25376757979393,0.4424587786197662
1631204183454,0.3852770626544952,-0.2767418026924133,-0.6389302015304565,0.4701139032840729
1631204185181,0.4922862946987152,-0.4012197256088257,-0.1264678537845611,0.263202965259552
1631204188814,0.2511900663375854,0.6089529991149902,1.0718679428100586,0.502790629863739
1631204188948,0.2511900663375854,0.6089529991149902,1.1236025094985962,0.502790629863739
1631204189434,1.170809626579285,0.6089529991149902,1.1588523387908936,1.136526584625244
1631204190784,0.4928532838821411,-0.324272871017456,-0.2970074415206909,0.5873357653617859
1631204192244,0.1865320354700088,0.2539978325366974,0.6725386381149292,-0.0116472570225596
1631204193244,0.0383522287011146,0.4627492427825928,1.5477495193481443,-0.1397168636322021
1631204193446,0.0383522287011146,0.3693830370903015,1.4530426263809204,-0.1397168636322021
1631204193958,-0.005016672424972,0.4805605411529541,1.1631375551223757,0.4612700641155243
1631204194973,0.5957411527633667,0.6543007493019104,0.5086589455604553,0.682029128074646
1631204195382,0.5182226896286011,0.1714446544647216,-0.1090410202741622,0.4836556613445282
1631204196825,0.1882707327604293,0.0062842834740877,0.2112847417593002,0.2238498479127884
1631204199877,0.2893125116825104,1.0942500829696655,1.3097623586654663,0.2478642016649246
1631204200095,0.2893125116825104,0.9740493297576904,1.3097623586654663,0.2478642016649246
1631204202679,0.1325606256723404,-0.3234812915325165,-0.2793754637241363,0.1963403075933456
1631204203573,0.2483276277780532,0.0306720454245805,-0.359183520078659,0.1588871777057647
1631204203963,0.0744953006505966,-0.067331850528717,-0.2950530052185058,-0.0330972969532012
1631204204041,0.0179498884826898,-0.1400572210550308,-0.2898340821266174,-0.0951045602560043
1631204204479,-0.1618556827306747,-0.5209207534790039,-0.3877886533737182,-0.6824888586997986
1631204204666,-0.1444621682167053,-0.5899767875671387,-0.4585376977920532,-0.4869422018527984
1631204204932,0.0110032819211483,-0.6481420993804932,-0.4455946087837219,-0.0017053558258339
1631204204994,0.0654195174574852,-0.6769697070121765,-0.4093170464038849,0.1034162119030952
1631204205447,0.1407482922077179,-0.7502312660217285,-0.1751029938459396,0.2906345427036285
1631204205825,0.2331250011920929,-0.7571935057640076,-0.1485921293497085,0.3617387115955353
1631204206215,0.4608442187309265,-0.5979629158973694,-0.3903625011444092,0.4616676867008209
1631204207156,0.4456693828105926,-0.5793785452842712,-0.545427680015564,0.5363417267799377
1631204207832,0.4812537431716919,-0.3793281018733978,-0.3775775730609894,0.6442172527313232
1631204208222,0.5460166335105896,-0.239284873008728,-0.3853476047515869,0.733961820602417
1631204208378,0.5360633730888367,-0.2669618725776672,-0.4165905714035034,0.7202965021133423
1631204208628,0.5089237689971924,-0.3199325799942016,-0.5496557950973511,0.6812341809272766
1631204208706,0.539003312587738,-0.3264356255531311,-0.5552653074264526,0.677357017993927
1631204208773,0.571912407875061,-0.3461757302284241,-0.5531443357467651,0.6660395860671997
1631204209117,0.5735926628112793,-0.502762496471405,-0.670099139213562,0.5859149098396301
1631204209460,0.6733387112617493,-0.6292831897735596,-0.4634424746036529,0.6809443235397339
1631204210057,0.7168519496917725,-0.365494966506958,-0.40147465467453,0.8470303416252136
1631204210119,0.7434677481651306,-0.3110164105892181,-0.4105800688266754,0.8806756734848022
1631204210338,0.7573950290679932,-0.1674683392047882,-0.4080857932567596,0.905964195728302
1631204210400,0.7599798440933228,-0.1404366344213485,-0.3825145959854126,0.9035044312477112
1631204210873,0.9062765836715698,0.0694513022899627,-0.2320614159107208,0.9327858090400696
1631204211029,0.9185752272605896,0.1092633754014968,-0.1776616275310516,0.9233362078666688
1631204211295,0.9261938333511353,0.0982605814933776,-0.0522029101848602,0.8707929253578186
1631204211357,0.9515473246574402,0.0854474678635597,-0.0062119150534272,0.8733476400375366
1631204211513,1.0010994672775269,0.065665915608406,0.0385695435106754,0.9044431447982788
1631204211701,1.01423180103302,-0.0077564427629113,1.7797825421439484e-05,0.9343924522399902
1631204211812,0.9520003199577332,-0.1607732772827148,-0.0663522034883499,0.8927728533744812
1631204211875,0.9466068744659424,-0.2094451338052749,-0.0960058271884918,0.9011181592941284
1631204211984,0.9700515270233154,-0.2328096777200698,-0.1177567094564437,0.946172058582306
1631204212047,0.9689366817474364,-0.2403354793787002,-0.1304046213626861,0.9523051977157592
1631204212094,0.9501250982284546,-0.2563859224319458,-0.1580188125371933,0.9397127032279968
1631204212140,0.9172024726867676,-0.2752734422683716,-0.2047884911298751,0.9154726266860962
1631204212328,0.7865095138549805,-0.3145954310894012,-0.3435891270637512,0.8171249032020569
1631204212390,0.7337408065795898,-0.3483672142028808,-0.3352832794189453,0.7779920101165771
1631204212453,0.6813090443611145,-0.3830906450748443,-0.3211668133735657,0.7492536902427673
1631204212519,0.6567733883857727,-0.3885780870914459,-0.3134887218475342,0.7585128545761108
1631204212582,0.6673524975776672,-0.3542498648166656,-0.3189471364021301,0.804121732711792
1631204212691,0.7310580015182495,-0.2794015407562256,-0.3238570094108581,0.8027071356773376
1631204212738,0.7360166907310486,-0.2655242383480072,-0.3108789324760437,0.7824922800064087
1631204212785,0.7262329459190369,-0.2528899610042572,-0.2786587476730346,0.7535053491592407
1631204212832,0.7202116847038269,-0.2326161712408065,-0.2215967774391174,0.7257604002952576
1631204213004,0.7872568964958191,-0.189233973622322,-0.0225205831229686,0.7651646733283997
1631204213066,0.828533947467804,-0.1866092979907989,0.0058338022790849,0.8042681813240051
1631204213097,0.8741228580474854,-0.1793333142995834,0.0135721424594521,0.8511995077133179
1631204213144,0.9198618531227112,-0.1583403050899505,0.0072644297033548,0.9019433856010436
1631204213238,0.9922863841056824,-0.0808028280735015,-0.0343139879405498,0.9731955528259276
1631204213316,0.9666463136672974,-0.1162139996886253,-0.024912828579545,0.9283462166786194
1631204213363,0.957027792930603,-0.1279836446046829,-0.0149727156385779,0.9347614645957948
1631204213472,1.0059977769851685,-0.0624074302613735,-0.0125115439295768,1.0469272136688232
1631204213503,1.0175553560256958,-0.0477982088923454,-0.054628774523735,1.0753438472747805
1631204213550,1.0218795537948608,-0.0410585217177867,-0.1183494254946708,1.0908305644989014
1631204213582,1.0197422504425049,-0.0400827415287494,-0.1761041283607483,1.0983916521072388
1631204213613,1.0132557153701782,-0.043106123805046,-0.1979819536209106,1.1030346155166626
1631204213675,0.9854364395141602,-0.0530020147562027,-0.1444784253835678,1.104936599731445
1631204213722,0.9683030247688292,-0.0332389436662197,-0.0943536609411239,1.100479245185852
1631204213769,0.9556812644004822,0.0142177697271108,-0.0396928302943706,1.0958075523376465
1631204213816,0.951039731502533,0.0727015808224678,0.0081287007778882,1.0957624912261963
1631204213863,0.9498388171195984,0.1207669079303741,0.0449766926467418,1.0992296934127808
1631204213910,0.9487470984458924,0.1525215208530426,0.0719105154275894,1.1036951541900637
1631204213941,0.944931149482727,0.1717446744441986,0.0970101654529571,1.0999501943588257
1631204213988,0.941073477268219,0.1922567784786224,0.1356289833784103,1.0844568014144895
1631204214035,0.9499123096466064,0.2241815626621246,0.1851726621389389,1.066080093383789
1631204214066,0.9668433666229248,0.2620913684368133,0.2326858937740326,1.0513668060302734
1631204214113,0.983141541481018,0.2934626042842865,0.2753761410713196,1.0416427850723269
1631204214144,0.987299144268036,0.3147566318511963,0.3105532526969909,1.039545655250549
1631204214191,0.9930144548416138,0.3267607986927032,0.3332512974739074,1.038321852684021
1631204214253,0.9976221919059752,0.3388393819332123,0.3399384021759033,1.0350947380065918
1631204214331,1.0102250576019287,0.3589281439781189,0.3387962281703949,1.0354677438735962
1631204214394,1.0382286310195925,0.3814920485019684,0.3319802582263946,1.042838454246521
1631204214456,1.0665359497070312,0.3940141499042511,0.3211287260055542,1.0497815608978271
1631204214519,1.0827745199203491,0.3892771303653717,0.3060494363307953,1.050021767616272
1631204214566,1.098755955696106,0.3713253736495971,0.2896040678024292,1.050980567932129
1631204214613,1.1249829530715942,0.3507729768753052,0.2725360989570617,1.056605100631714
1631204214644,1.1760038137435913,0.3413134217262268,0.2593322396278381,1.06334125995636
1631204214691,1.2471818923950195,0.3471848666667938,0.2468438148498535,1.0718045234680176
1631204214800,1.2648248672485352,0.3527040481567383,0.2255990356206894,1.077388048171997
1631204214894,1.271520733833313,0.3473392128944397,0.1911686211824417,1.0716339349746704
1631204215034,1.2738710641860962,0.3342447876930237,0.1621881574392318,1.1452871561050415
1631204215128,1.3262734413146973,0.3285740613937378,0.1692655980587005,1.2057613134384155
1631204215222,1.36059308052063,0.3450051844120025,0.2295254915952682,1.2628742456436155
1631204215300,1.3912460803985596,0.393820971250534,0.3288386464118957,1.3225549459457395
1631204215394,1.4179595708847046,0.4661595523357391,0.4345424771308899,1.3888332843780518
1631204215503,1.459323763847351,0.5391767621040344,0.5155879259109497,1.4543428421020508
1631204215644,1.4843149185180664,0.5950762033462524,0.5649598836898804,1.5061625242233276
1631204215737,1.4918076992034912,0.6236253976821899,0.5901402831077576,1.5353732109069824
1631204215818,1.4886969327926636,0.633091926574707,0.6023199558258057,1.5461467504501345
1631204215912,1.4785031080245972,0.6333605051040649,0.6092703342437744,1.5424954891204834
1631204216006,1.462079405784607,0.6314736604690552,0.6121445894241333,1.5316849946975708
1631204216131,1.4322043657302856,0.6249043941497803,0.6117944121360779,1.495274543762207
1631204216240,1.3805280923843384,0.6116176247596741,0.6087406277656555,1.4620651006698608
1631204216318,1.3481513261795044,0.5936183929443359,0.6022792458534241,1.4317395687103271
1631204216444,1.3186688423156738,0.5732784271240234,0.595172107219696,1.403841257095337
1631204216524,1.2918689250946045,0.553240954875946,0.5856918096542358,1.3595417737960815
1631204216649,1.236483454704285,0.5322966575622559,0.5639586448669434,1.3147540092468262
1631204216727,1.1691962480545044,0.5044326186180115,0.5187128186225891,1.2645217180252075
1631204216836,1.0816015005111694,0.4566022157669067,0.43916717171669,1.2015457153320312
1631204216993,0.9660414457321168,0.3718251883983612,0.3190172016620636,1.1108407974243164
1631204217055,0.8112298250198364,0.236281618475914,0.1652101278305053,0.9747948050498962
1631204217133,0.6363303065299988,0.045931402593851,0.008055250160396,0.7927044034004211
1631204217227,0.521442711353302,-0.1506401449441909,-0.1185656040906906,0.6239990592002869
1631204217321,0.5224431157112122,-0.2824063301086426,-0.2111701667308807,0.5499839186668396
1631204217461,0.5797156095504761,-0.3221448361873626,-0.2823788821697235,0.5782445073127747
1631204217555,0.6437225341796875,-0.3186783790588379,-0.3117746710777282,0.642002284526825
1631204217648,0.6907913088798523,-0.304409921169281,-0.3066178262233734,0.6998621821403503
1631204217741,0.7246667742729187,-0.293429285287857,-0.2732419073581695,0.7394755482673645
1631204217856,0.7484033703804016,-0.274034172296524,-0.2227239310741424,0.7660155296325684
1631204217950,0.7644376158714294,-0.2411523759365081,-0.1777886301279068,0.7880498766899109
1631204218075,0.7824758887290955,-0.2071114927530288,-0.1566839516162872,0.8166106939315796
1631204218153,0.8107278943061829,-0.1837540864944458,-0.1565603613853454,0.8566531538963318
1631204218262,0.8484746813774109,-0.1651065200567245,-0.1683230102062225,0.9041888117790222
1631204218356,0.8818519115447998,-0.126910924911499,-0.1777306795120239,0.9438111782073976
1631204218450,0.9010508060455322,-0.047227919101715,-0.1794634759426117,0.9666476249694824
1631204218532,0.9072206020355223,0.0645811110734939,-0.165679931640625,0.97283935546875
1631204218704,0.9021116495132446,0.1790946871042251,-0.1354105323553085,0.9648987650871276
1631204218798,0.8874489665031433,0.2644066512584686,-0.0960587188601493,0.9453940391540528
1631204218876,0.8678010702133179,0.3149655759334564,-0.0530535168945789,0.9185837507247924
1631204218970,0.8545037508010864,0.3394832611083984,-0.0079419277608394,0.8973300457000732
1631204219063,0.8597949743270874,0.354282021522522,0.0483029559254646,0.8971014618873596
1631204219141,0.8818630576133728,0.3731870353221893,0.1125624626874923,0.9165267944335938
1631204219298,0.9073036313056946,0.3955492079257965,0.1634804010391235,0.9447159171104432
1631204219407,0.9273028373718262,0.414055734872818,0.1862553358078003,0.970516800880432
1631204219485,0.9434567093849182,0.4244733154773712,0.1835806369781494,0.9910596013069152
1631204219579,0.9575136303901672,0.4286190867424011,0.1700444519519806,1.0044952630996704
1631204219672,0.9689936637878418,0.4312200844287872,0.161755084991455,1.0103304386138916
1631204219752,0.9795783758163452,0.4328425526618957,0.164481058716774,1.0104790925979614
1631204219929,0.9955546259880066,0.4281413853168487,0.1744047552347183,1.01225483417511
1631204220007,1.019711971282959,0.4080974757671356,0.1853539794683456,1.0214592218399048
1631204220085,1.043143391609192,0.3647356331348419,0.1911411583423614,1.0340734720230105
1631204220195,1.0542185306549072,0.2940060198307037,0.1912493854761123,1.041140079498291
1631204220304,1.052662372589111,0.2083745449781417,0.189614862203598,1.04091215133667
1631204220398,1.040977120399475,0.1279358565807342,0.1881602257490158,1.0353397130966189
1631204220511,1.019978642463684,0.0707806572318077,0.1803188920021057,1.0212994813919067
1631204220604,0.9888464212417604,0.030791699886322,0.1590420305728912,0.9930821657180786
1631204220698,0.9600008726119996,-0.0004935567849315,0.1398697942495346,0.9579377770423888
1631204220791,0.9709372520446776,-0.011917202733457,0.1720749735832214,0.930627703666687
1631204220869,0.96285218000412,0.0428838543593883,0.3047035038471222,0.9049373865127563
1631204220979,0.9606720209121704,0.0236275419592857,0.3127610385417938,0.8812727928161621
1631204221119,0.9565801620483398,0.0156418792903423,0.3339566886425018,0.8534390926361084
1631204221213,0.9441299438476562,0.0172150749713182,0.3606630265712738,0.8133863806724548
1631204221307,0.9188236594200134,0.0235496144741773,0.3884263336658478,0.7547517418861389
1631204221385,0.8794887065887451,0.0331660583615303,0.4167474210262298,0.6788308024406433
1631204221494,0.8249626159667969,0.0447410158812999,0.4480689764022827,0.579470157623291
1631204221588,0.7639490962028503,0.0597302764654159,0.4845369160175323,0.4594354629516601
1631204221713,0.7432563304901123,0.0839522778987884,0.5258278250694275,0.3641836643218994
1631204221825,0.747344970703125,0.125473603606224,0.571254551410675,0.3447167575359344
1631204221919,0.7776654958724976,0.1864897459745407,0.6227896213531494,0.3447167575359344
1631204222012,0.8237261772155762,0.2658867835998535,0.690633237361908,0.3447167575359344
1631204222122,0.8751599788665771,0.2658867835998535,0.690633237361908,0.3447167575359344
1631204222200,0.8960685729980469,0.2658867835998535,0.690633237361908,0.3447167575359344
1631204222325,0.7285203337669373,0.2658867835998535,0.690633237361908,0.3447167575359344
1631204222434,0.7285203337669373,0.2658867835998535,0.690633237361908,0.3447167575359344
1631204222531,0.7285203337669373,1.1566119194030762,0.690633237361908,0.3447167575359344
1631204222609,0.7285203337669373,1.104127287864685,0.690633237361908,0.3447167575359344
1631204222702,0.7285203337669373,1.058544039726257,1.488727331161499,0.3447167575359344
1631204222796,0.7285203337669373,1.0130106210708618,1.488727331161499,0.3447167575359344
1631204222952,0.7285203337669373,0.966250479221344,1.488727331161499,0.3447167575359344
1631204223030,0.7285203337669373,0.9198533296585084,1.488727331161499,0.3447167575359344
1631204223124,0.7285203337669373,0.8761058449745178,1.3966994285583496,0.3447167575359344
1631204223218,0.7285203337669373,0.8363709449768066,1.3195143938064575,0.3447167575359344
1631204223328,0.7285203337669373,0.8006399869918823,1.254158854484558,0.3447167575359344
1631204223421,0.7285203337669373,0.7680686116218567,1.1973106861114502,0.3447167575359344
1631204223562,0.7285203337669373,0.739132821559906,1.146729588508606,0.3447167575359344
1631204223687,0.7285203337669373,0.7206049561500549,1.103829860687256,-0.0934791564941406
1631204223748,0.2305648326873779,0.6018142104148865,1.071531057357788,-0.0238912925124168
1631204223830,0.3067317306995392,0.5866602063179016,1.05503249168396,0.1085848063230514
1631204223955,0.3959666788578033,0.6825898289680481,1.0240533351898191,0.2540040016174316
1631204224049,0.4800167381763458,0.6642124056816101,0.9731592535972596,0.3681663572788238
1631204224206,0.5558832287788391,0.6527446508407593,0.8340724110603333,0.4293048083782196
1631204224268,0.5973371863365173,0.6477552056312561,0.645272433757782,0.4451776444911957
1631204224331,0.6361382603645325,0.6563208699226379,0.645272433757782,0.4323309659957886
1631204224486,0.6866282224655151,0.680931806564331,0.7121080160140991,0.4136255085468292
1631204224533,0.7363010048866272,0.7192472815513611,0.7713600397109985,0.3973830640316009
1631204224658,0.7653063535690308,0.7671905755996704,0.8335844278335571,0.3861133158206939
1631204224799,0.7699324488639832,0.8225062489509583,0.8745792508125305,0.3779703974723816
1631204224908,0.7563974857330322,0.904784083366394,0.8958567976951599,0.3838721215724945
1631204224971,0.7524388432502747,0.9280205368995668,0.9081530570983888,0.3925514817237854
1631204225064,0.7502320408821106,0.9385337829589844,0.919454038143158,0.4004566967487335
1631204225142,0.751251220703125,0.9572798609733582,0.9335031509399414,0.4113461077213287
1631204225236,0.7484441995620728,0.9680788516998292,0.9470651745796204,0.4329107701778412
1631204225393,0.7395690679550171,0.9438151121139526,0.9542392492294312,0.4701860547065735
1631204225471,0.7239569425582886,0.8526302576065063,0.9465938210487366,0.5160242915153503
1631204225580,0.7026028633117676,0.8983511924743652,0.9192488789558412,0.5510489344596863
1631204225658,0.675345778465271,0.8983511924743652,0.9275098443031312,0.5676954984664917
1631204225751,0.6519118547439575,0.8983511924743652,0.9226085543632508,0.5701525807380676
1631204225838,0.6198986768722534,0.8983511924743652,0.9160704016685486,0.5683561563491821
1631204226010,0.5884327292442322,0.8983511924743652,0.8997277617454529,0.5717701315879822
1631204226088,0.6038100719451904,0.8983511924743652,0.8725715279579163,0.5918290615081787
1631204226182,0.6906992197036743,0.8983511924743652,0.8483425378799438,0.6345639228820801
1631204226275,0.805227518081665,0.8983511924743652,0.8391798138618469,0.7004024982452393
1631204226369,0.8968143463134766,0.8811758160591125,0.8511602878570557,0.7930721640586853
1631204226463,0.9495556354522704,0.9188257455825806,0.877890408039093,0.8844234347343445
1631204226622,0.9716238975524902,0.9799631834030152,0.9112557172775269,0.9600878357887268
1631204226716,0.9783467650413512,1.0315781831741333,0.9409732818603516,1.0178231000900269
1631204226794,0.9783207178115844,1.0315781831741333,0.9633995890617372,1.0572428703308103
1631204226903,0.97567617893219,1.0315781831741333,0.9718783497810364,1.0769625902175903
1631204226981,0.9728989005088806,1.0315781831741333,0.9310079216957092,1.0786793231964111
1631204227091,0.970990002155304,1.0315781831741333,0.8502921462059021,1.068535566329956
1631204227200,0.9687015414237976,1.0315781831741333,0.7470802664756775,1.0556198358535769
1631204227294,0.966437578201294,0.8815266489982605,0.6875892281532288,1.0505738258361816
1631204227403,0.9655173420906068,0.9410855770111084,0.6725509166717529,1.055288314819336
1631204227498,0.9556678533554076,1.001401662826538,0.7036409378051758,1.0625221729278564
1631204227613,0.9381674528121948,1.033313512802124,0.7108475565910339,1.0823389291763306
1631204227691,0.8761171102523804,1.0334597826004028,0.7270865440368652,1.0944031476974487
1631204227848,0.7586240768432617,1.0160406827926636,0.7837052941322327,1.0946598052978516
1631204227910,0.5937688946723938,0.9979189038276672,0.7837052941322327,1.0714638233184814
1631204228035,0.424593448638916,0.9984211921691896,0.7837052941322327,1.026930570602417
1631204228097,0.313956618309021,0.9984211921691896,0.7837052941322327,0.9663621187210084
1631204228207,0.2709660530090332,0.9984211921691896,0.7837052941322327,0.8900183439254761
1631204228285,0.2852975726127624,0.9984211921691896,0.7837052941322327,0.7961509823799133
1631204228441,0.3269511759281158,0.9984211921691896,0.7837052941322327,0.6874265074729919
1631204228535,0.3710694909095764,0.999540150165558,0.7786504626274109,0.5732194185256958
1631204228613,0.396689623594284,1.0117912292480469,0.7911440134048462,0.4990154504776001
1631204228722,0.396689623594284,1.03700852394104,0.8281418085098267,0.4990154504776001
1631204228801,0.396689623594284,1.053357720375061,0.8672782182693481,0.4990154504776001
1631204228910,0.396689623594284,1.0410219430923462,0.8916836977005005,0.4990154504776001
1631204229035,0.396689623594284,0.994817554950714,0.8916836977005005,0.4990154504776001
1631204229144,0.396689623594284,0.9296748638153076,0.8916836977005005,0.4990154504776001
1631204229238,0.396689623594284,0.9296748638153076,0.8916836977005005,0.4990154504776001
1631204229331,0.396689623594284,0.9296748638153076,0.8916836977005005,0.4990154504776001
1631204229425,0.396689623594284,0.9296748638153076,0.8916836977005005,0.4990154504776001
1631204229503,0.396689623594284,0.9296748638153076,0.8916836977005005,0.4990154504776001
1631204229628,0.396689623594284,0.9296748638153076,0.8916836977005005,0.4990154504776001
1631204229769,0.396689623594284,0.9296748638153076,0.8916836977005005,0.4990154504776001
1631204229863,0.396689623594284,0.9296748638153076,0.8916836977005005,0.4990154504776001
1631204229925,0.396689623594284,0.9715032577514648,0.8916836977005005,0.4990154504776001
1631204230019,0.396689623594284,0.9261524677276612,0.8916836977005005,0.4990154504776001
1631204230128,0.396689623594284,0.893650233745575,0.8916836977005005,0.4990154504776001
1631204230237,0.396689623594284,0.8745893836021423,0.8916836977005005,0.4990154504776001
1631204230331,0.396689623594284,0.8666012287139893,0.8916836977005005,0.4990154504776001
1631204230456,0.396689623594284,0.8604252934455872,0.8916836977005005,0.4990154504776001
1631204230538,0.396689623594284,0.8490541577339172,0.8916836977005005,0.4990154504776001
1631204230632,0.396689623594284,0.8311446309089661,0.8916836977005005,0.4990154504776001
1631204230710,0.396689623594284,0.8080319762229919,0.8916836977005005,0.4990154504776001
1631204230866,0.396689623594284,0.7930482029914856,0.8916836977005005,0.4990154504776001
1631204230944,0.396689623594284,0.7086551785469055,0.8916836977005005,0.4990154504776001
1631204231053,0.396689623594284,0.7086551785469055,0.8916836977005005,0.4990154504776001
1631204231163,0.396689623594284,0.7086551785469055,0.8916836977005005,0.4990154504776001
1631204231256,0.396689623594284,0.7056559324264526,0.8916836977005005,0.4990154504776001
1631204231335,0.396689623594284,0.7171220183372498,0.8916836977005005,0.4990154504776001
1631204231491,0.396689623594284,0.7255681157112122,0.8916836977005005,0.4990154504776001
1631204231553,0.396689623594284,0.7309257984161377,0.8916836977005005,0.4990154504776001
1631204231647,0.396689623594284,0.7368903756141663,0.8916836977005005,0.4990154504776001
1631204231760,0.396689623594284,0.736676037311554,0.8916836977005005,0.4990154504776001
1631204231854,0.396689623594284,0.7239348292350769,0.8916836977005005,0.4990154504776001
1631204231932,0.396689623594284,0.6983938217163086,0.8916836977005005,0.4990154504776001
1631204232072,0.396689623594284,0.6942777037620544,0.6135005354881287,0.4990154504776001
1631204232197,0.396689623594284,0.7046819925308228,0.5991414785385132,0.4990154504776001
1631204232275,0.396689623594284,0.7165363430976868,0.5655032396316528,0.4990154504776001
1631204232385,0.396689623594284,0.6931788921356201,0.5195829272270203,0.4990154504776001
1631204232463,0.8768691420555115,0.5424821972846985,0.4743275344371795,0.2011056840419769
1631204232557,0.7982169985771179,0.5466629862785339,0.4498976469039917,0.1855220198631286
1631204232697,0.7449369430541992,0.6387763023376465,0.4756623804569244,0.1988667100667953
1631204232791,0.7256512641906738,0.772028386592865,0.5552939176559448,0.2616161108016968
1631204232916,0.726436197757721,0.8857244849205017,0.6495435833930969,0.3560863137245178
1631204232994,0.7273267507553101,0.954417645931244,0.719803512096405,0.4368999898433685
1631204233072,0.7164095044136047,0.9812771081924438,0.7546857595443726,0.4901532232761383
1631204233181,0.6921361088752747,0.9757458567619324,0.7561106085777283,0.5069610476493835
1631204233291,0.6652387380599976,0.96067076921463,0.7464808821678162,0.5041412711143494
1631204233431,0.643757700920105,0.96067076921463,0.7437835335731506,0.5096093416213989
1631204233509,0.6288478970527649,0.9769248962402344,0.7476537227630615,0.5312330722808838
1631204233603,0.6176660656929016,0.9933562874794006,0.7531523108482361,0.5559916496276855
1631204233681,0.5361679196357727,1.0169569253921509,0.7568787336349487,0.5813369154930115
1631204233775,0.4663461744785309,1.0291752815246582,0.757616400718689,0.5944709181785583
1631204233916,0.4407916963100433,1.0354372262954712,0.7580762505531311,0.6155413389205933
1631204234041,0.4477282464504242,1.0378881692886353,0.7691235542297363,0.6401646733283997
1631204234119,0.4667978882789612,1.0295264720916748,0.7915659546852112,0.6647960543632507
1631204234213,0.4800534248352051,1.0014992952346802,0.8003743886947632,0.6880939602851868
1631204234275,0.4676863253116607,0.943737268447876,0.7810755372047424,0.7019038796424866
1631204234384,0.4252720475196838,0.8543428778648376,0.7253833413124084,0.6986010670661926
1631204234540,0.3649423718452453,0.7477618455886841,0.6414788365364075,0.6825124621391296
1631204234619,0.316997617483139,0.649032473564148,0.5564737915992737,0.66289883852005
1631204234728,0.316377580165863,0.5881426930427551,0.5193054676055908,0.6655375361442566
1631204234806,0.344656765460968,0.5429753661155701,0.5284495949745178,0.6957162618637085
1631204234900,0.3679511547088623,0.5109221935272217,0.5313246250152588,0.7221187353134155
1631204234994,0.3679511547088623,0.4803751707077026,0.497646152973175,0.7221187353134155
1631204235134,0.3679511547088623,0.4530887603759765,0.3340973258018493,0.7221187353134155
1631204235213,0.3679511547088623,0.3258840441703796,0.1318435221910476,0.7221187353134155
1631204235322,0.3679511547088623,0.2293472439050674,-0.0277233999222517,0.7221187353134155
1631204235400,0.3679511547088623,0.1740084737539291,-0.1069291308522224,0.7221187353134155
1631204235525,0.340512067079544,0.1516972929239273,-0.5166551470756531,0.0074018333107233
1631204235587,0.3942329883575439,0.1424197405576706,-0.4669000506401062,0.0394672565162181
1631204235763,0.4120669066905975,0.1105992943048477,-0.4447500109672546,0.0599107332527637
1631204235840,0.4004251956939697,0.0413497872650623,-0.4341717958450317,0.0679786056280136
1631204235950,0.3699216544628143,-0.0630362853407859,-0.432120531797409,0.0540143139660358
1631204236028,0.3302188217639923,-0.1837647259235382,-0.4195145070552826,0.0423582345247268
1631204236122,0.2896787822246551,-0.2832849025726318,-0.3896323442459106,0.0458925254642963
1631204236215,0.2532685697078705,-0.3340015113353729,-0.3574801087379455,0.060588389635086
1631204236356,0.2217419445514679,-0.3504376709461212,-0.3321688175201416,0.0715110152959823
1631204236465,0.1954948753118515,-0.3609736263751983,-0.3135139644145965,0.0730575919151306
1631204236543,0.1743241995573043,-0.3589193224906921,-0.3010361492633819,0.0682646185159683
1631204236622,0.162332072854042,-0.3530525863170624,-0.2736104726791382,0.0667991340160369
1631204236731,0.1647415459156036,-0.3461820483207702,-0.2453648298978805,0.0762762576341629
1631204236812,0.1597367227077484,-0.3462554514408111,-0.2260165065526962,0.0891928598284721
1631204236968,0.1472105830907821,-0.3559797704219818,-0.2194084078073501,0.1105684489011764
1631204237062,0.1268207877874374,-0.370157390832901,-0.2185098826885223,0.1385391354560852
1631204237156,0.1039779037237167,-0.374865859746933,-0.213179349899292,0.1661368310451507
1631204237281,0.0830499827861785,-0.3630217909812927,-0.2044462263584137,0.1890464425086975
1631204237328,0.0644448176026344,-0.339727520942688,-0.1991249620914459,0.2097888737916946
1631204237453,0.0532906465232372,-0.3196853399276733,-0.1970737129449844,0.2343440800905227
1631204237578,0.0569135956466198,-0.3075296580791473,-0.1972475051879882,0.2548881471157074
1631204237671,0.0796471014618873,-0.2988186180591583,-0.2022349834442138,0.2622436285018921
1631204237752,0.1084995493292808,-0.2901538610458374,-0.2113823741674423,0.2516449391841888
1631204237847,0.1371751278638839,-0.2795045673847198,-0.2235569059848785,0.2330486178398132
1631204237957,0.1565999239683151,-0.2644312083721161,-0.244414135813713,0.2178540676832199
1631204238035,0.1628894060850143,-0.2442385703325271,-0.2719525396823883,0.2096160501241684
1631204238191,0.1615053862333297,-0.2238636612892151,-0.307362288236618,0.2085619419813156
1631204238269,0.16947802901268,-0.2060439139604568,-0.2764910757541656,0.2163057327270507
1631204238394,0.1697688549757003,-0.1883247047662735,-0.0647275075316429,0.219875231385231
1631204238457,0.1564879268407821,-0.1395591497421264,-0.0533029697835445,0.2124987840652465
1631204238550,0.1261310130357742,-0.0314490720629692,-0.0402911603450775,0.1899696737527847
1631204238644,0.0829223543405532,0.1230940297245979,-0.0295674167573452,0.1545751243829727
1631204238804,0.0413140244781971,0.276379257440567,-0.0178338941186666,0.1129020676016807
1631204238898,0.0291461031883955,0.3945333361625671,0.0005203374312259,0.0625519827008247
1631204238992,0.0495771393179893,0.4673528671264648,0.0272783618420362,-0.0030167403165251
1631204239070,0.0793933048844337,0.5033167600631714,0.0563627555966377,-0.0930697694420814
1631204239179,0.0829195007681846,0.5184675455093384,0.0862859115004539,-0.195271223783493
1631204239257,0.0596837140619754,0.5264424681663513,0.0759426280856132,-0.2368423342704773
1631204239413,0.0596837140619754,0.5287485122680664,0.0556391812860965,-0.2368423342704773
1631204239507,0.0596837140619754,0.5278753638267517,0.0486021935939788,-0.2368423342704773
1631204239585,0.0596837140619754,0.5254871845245361,0.0544508323073387,-0.2368423342704773
1631204239663,0.0596837140619754,0.5219869017601013,0.0719096809625625,-0.2368423342704773
1631204239775,0.0596837140619754,0.5174956321716309,0.0320941060781478,0.3523149490356445
1631204239869,0.2143294960260391,0.5120744705200195,-0.4502933025360107,0.2915352284908294
1631204240009,0.1982353329658508,0.4995946288108825,-0.4207425415515899,0.235303983092308
1631204240088,0.1969531923532486,0.4760050773620605,-0.3740864098072052,0.235303983092308
1631204240213,0.1969531923532486,0.4433452785015106,-0.2808776199817657,0.235303983092308
1631204240291,0.1969531923532486,0.4393752813339233,-0.0733432024717331,0.235303983092308
1631204240385,0.1969531923532486,0.5457642674446106,0.210722729563713,0.235303983092308
1631204240494,0.1969531923532486,0.5081024765968323,0.4452671706676483,0.235303983092308
1631204240650,0.1969531923532486,0.4961745142936706,0.625318706035614,0.235303983092308
1631204240712,0.1969531923532486,0.5081841945648193,0.7536454796791077,0.235303983092308
1631204240806,0.1969531923532486,0.5321224927902222,0.8728216290473938,0.235303983092308
1631204240915,0.1969531923532486,0.5670978426933289,0.9584477543830872,0.235303983092308
1631204241056,0.1969531923532486,0.6095685958862305,1.0117233991622925,0.156088188290596
1631204241072,0.2021216601133346,0.678275465965271,1.040509581565857,0.0539610907435417
1631204241228,0.1889483332633972,0.7054685354232788,1.055726408958435,0.0539610907435417
1631204241306,0.1889483332633972,0.7109691500663757,1.062999606132507,0.0539610907435417
1631204241400,0.1889483332633972,0.7116500735282898,1.0652014017105105,0.0539610907435417
1631204241509,0.1889483332633972,0.7128522396087646,1.065694808959961,0.0539610907435417
1631204241603,0.1889483332633972,0.70697420835495,1.0645512342453003,0.0539610907435417
1631204241743,0.1889483332633972,0.6789982914924622,1.061640381813049,0.0539610907435417
1631204241853,0.1889483332633972,0.584926962852478,1.052342414855957,0.0539610907435417
1631204241915,-0.256216287612915,0.1902113705873489,1.0267380475997925,0.0539610907435417
1631204242040,-0.0144011778756976,0.167079672217369,0.9802279472351074,-0.3287137150764465
1631204242134,0.1994232088327407,0.1791843622922897,0.90877366065979,-0.226641833782196
1631204242212,0.3503420948982239,0.2475084364414215,0.8153082132339478,-0.176015555858612
1631204242321,0.4809106290340423,0.3873448967933655,0.7040950655937195,-0.1235372200608253
1631204242431,0.6090271472930908,0.5710801482200623,0.5989624261856079,-0.0522105880081653
1631204242544,0.7172250747680664,0.7365423440933228,0.539255678653717,0.0575650930404663
1631204242637,0.7869263291358948,0.8510224223136902,0.5247968435287476,0.0575650930404663
1631204242731,0.8343412280082703,0.9296597242355348,0.5307440757751465,0.0575650930404663
1631204242841,0.8343412280082703,0.9712082147598268,0.5644406080245972,0.0575650930404663
1631204242934,0.8343412280082703,0.9887531995773317,0.6583447456359863,0.0575650930404663
1631204243059,1.1400669813156128,0.996376097202301,0.8175338506698608,0.0575650930404663
1631204243169,1.1741664409637451,0.9985805749893188,0.9975218772888184,0.0575650930404663
1631204243294,1.2113667726516724,1.000903844833374,1.1437616348266602,0.0951526537537574
1631204243356,1.251673698425293,1.004318356513977,1.2457449436187744,0.1397630125284195
1631204243450,1.2943687438964844,1.008623719215393,1.311654806137085,0.1850201040506363
1631204243543,1.3390555381774902,1.0125374794006348,1.352847933769226,0.2252637594938278
1631204243668,1.3853020668029783,1.01248037815094,1.3759533166885376,0.2617704570293426
1631204243747,1.4361473321914673,1.005102276802063,1.3865642547607422,0.2617704570293426
1631204243845,1.492110013961792,0.9876819252967834,1.3902528285980225,0.2617704570293426
1631204243954,1.552958369255066,0.9539183974266052,1.3935319185256958,0.2617704570293426
1631204244063,1.552958369255066,0.9036234021186828,1.400808811187744,0.2617704570293426
1631204244126,1.552958369255066,0.8516349792480469,1.4105076789855957,0.2617704570293426
1631204244266,1.552958369255066,0.8272318243980408,1.4211742877960205,0.2617704570293426
1631204244360,1.552958369255066,0.8425442576408386,1.4282699823379517,0.2617704570293426
1631204244470,1.6050336360931396,0.8762145638465881,1.4241787195205688,0.2617704570293426
1631204244551,1.3266699314117432,0.9023871421813964,1.3982115983963013,0.7593064308166504
1631204244645,1.2935892343521118,0.9140716195106506,1.3403081893920898,0.7707617282867432
1631204244739,1.2445672750473022,0.9152395725250244,1.2556809186935425,0.7501150369644165
1631204244926,1.1907299757003784,0.9113889932632446,1.157194972038269,0.7111038565635681
1631204244989,1.1392216682434082,0.9051514863967896,1.060185432434082,0.6650955677032471
1631204245083,1.094242811203003,0.8987743854522705,0.9758766889572144,0.6204032301902771
1631204245161,1.0544430017471311,0.8935123085975647,0.9139684438705444,0.5819857716560364
1631204245286,1.018669843673706,0.8886236548423767,0.8749063014984131,0.5484298467636108
1631204245364,0.9865683913230896,0.8747256398200989,0.8445224761962891,0.5197781920433044
1631204245489,0.9608710408210754,0.840820848941803,0.801166832447052,0.5197781920433044
1631204245598,0.9495621919631958,0.7781388759613037,0.7295053601264954,0.5197781920433044
1631204245676,0.9777551889419556,0.6900960206985474,0.6574684381484985,0.5197781920433044
1631204245770,1.0524533987045288,0.5816937685012817,0.6265309453010559,0.5150029063224792
1631204245864,1.181577205657959,0.4623869061470032,0.6587574481964111,0.4892205595970154
1631204245957,1.163622260093689,0.3461541533470154,0.7211129665374756,0.4299114346504211
1631204246114,1.1479326486587524,0.2607902288436889,0.775408923625946,0.3205247521400451
1631204246192,1.149531602859497,0.2324389517307281,0.8125060796737671,0.1644197553396225
1631204246285,1.1687992811203003,0.2286334186792373,0.8334694504737854,-0.0024660036433488
1631204246380,1.2014614343643188,0.2546321749687195,0.8456893563270569,-0.1279859393835067
1631204246488,1.2427347898483276,0.3340413272380829,0.8576236963272095,-0.1679989844560623
1631204246582,1.2895106077194214,0.4581990838050842,0.8899714946746826,-0.1679989844560623
1631204246723,1.288541555404663,0.598366379737854,0.9447142481803894,-0.1679989844560623
1631204246801,1.288712978363037,0.7164180874824524,1.004169464111328,-0.1679989844560623
1631204246910,1.291552186012268,0.7942938804626465,1.0519849061965942,-0.1679989844560623
1631204247020,1.2947479486465454,0.8351302742958069,1.0792709589004517,0.9418376088142396
1631204247098,1.291372537612915,0.8529210090637207,1.0874592065811155,0.8967874646186829
1631204247176,1.2597962617874146,0.8652682900428772,1.0845690965652466,0.8403453230857849
1631204247348,1.1379883289337158,0.8864465951919556,1.0843791961669922,0.7875974774360657
1631204247426,0.6312423348426819,0.9036487340927124,1.1093217134475708,0.7487353682518005
1631204247504,0.6312423348426819,0.9193648099899292,1.1719943284988403,0.7222457528114319
1631204247613,0.6312423348426819,0.9385146498680116,1.1645746231079102,0.7009897828102112
1631204247691,0.6312423348426819,0.9666980504989624,1.1703855991363523,0.6781998872756958
1631204247801,0.8154511451721191,1.0055091381072998,1.1898571252822876,0.650611937046051
1631204247910,0.8619245886802673,1.0460649728775024,1.2187734842300415,0.6263705492019653
1631204248004,0.8602680563926697,1.0749937295913696,1.2514668703079224,0.614230215549469
1631204248113,0.8470495939254761,1.0798343420028689,1.2375097274780271,0.6227535605430603
1631204248207,0.863868772983551,1.0431510210037231,1.1956288814544678,0.6303625702857971
1631204248301,0.8813208341598511,0.8611214756965637,1.136747121810913,0.6318132281303406
1631204248394,0.8906545639038086,0.6129704713821411,1.0754414796829224,0.6214144229888916
1631204248568,0.895905077457428,0.3988033533096313,1.0385417938232422,0.6030558943748474
1631204248662,0.901433289051056,0.4755218625068664,1.0481992959976196,0.5884919762611389
1631204248740,0.928276300430298,0.8000925779342651,1.1059720516204834,0.6021842956542969
1631204248818,0.9897280931472778,1.0753272771835327,1.1097065210342407,0.6605415940284729
1631204248974,1.0653836727142334,1.2521082162857056,1.032368779182434,0.7383435368537903
1631204249006,1.1157121658325195,1.2521082162857056,0.6953692436218262,0.8085730075836182
1631204249178,1.1325805187225342,1.2521082162857056,0.6953692436218262,0.8546186685562134
1631204249256,1.1325805187225342,1.2521082162857056,0.6953692436218262,0.8755936026573181
1631204249349,1.1103867292404177,1.2244486808776855,0.7002554535865784,0.9025998711586
1631204249428,1.1095718145370483,1.1911708116531372,0.67692631483078,0.931824266910553
1631204249521,1.127216935157776,1.1641422510147097,0.6498354077339172,0.958471953868866
1631204249615,1.154057502746582,1.1458739042282104,0.637991726398468,0.9760388731956482
1631204249740,1.1866685152053833,1.1281678676605225,0.6566133499145508,0.9807973504066468
1631204249852,1.2223714590072632,1.139586091041565,0.6734201312065125,0.9780597686767578
1631204249962,1.2659692764282229,1.1438136100769043,0.6873144507408142,0.9843329787254332
1631204250040,1.3169890642166138,1.13920259475708,0.6888317465782166,1.017285943031311
1631204250149,1.3756775856018066,1.119118332862854,0.6574341654777527,1.079051852226257
1631204250227,1.4243793487548828,1.0595108270645142,0.5185731649398804,1.146130084991455
1631204250399,1.4243793487548828,0.918038547039032,0.6259707808494568,1.146130084991455
1631204250477,1.4243793487548828,0.6038695573806763,0.7443245053291321,1.146130084991455
1631204250555,1.4243793487548828,0.5954189300537109,0.8398669362068176,1.146130084991455
1631204250649,1.4243793487548828,0.58416748046875,0.8932909369468689,1.146130084991455
1631204250727,1.4243793487548828,0.5672860741615295,0.9101247191429138,1.146130084991455
1631204250821,1.4243793487548828,0.4984709322452545,0.9108036160469056,1.146130084991455
1631204250977,1.4243793487548828,0.4492317736148834,0.9082929491996764,1.146130084991455
1631204251086,1.4243793487548828,0.384820818901062,0.9035409092903136,1.146130084991455
1631204251164,1.4243793487548828,0.2789188325405121,0.8964130878448486,1.146130084991455
1631204251258,1.4243793487548828,0.1524017304182052,0.8887799978256226,1.146130084991455
1631204251336,1.4243793487548828,0.0676908195018768,0.8827489614486694,1.146130084991455
1631204251446,1.4243793487548828,0.0772371739149093,0.8797974586486816,1.146130084991455
1631204251617,1.4243793487548828,0.2063529789447784,0.8844476938247681,1.146130084991455
1631204251696,1.4243793487548828,0.4193312227725982,0.9019116163253784,1.146130084991455
1631204251758,1.4243793487548828,0.6305672526359558,0.9346938133239746,1.146130084991455
1631204251883,1.4243793487548828,0.7921794652938843,0.9688016176223756,1.146130084991455
1631204251977,1.4243793487548828,0.888825535774231,0.9311962127685548,1.146130084991455
1631204252055,1.4243793487548828,0.93801087141037,0.8691520690917969,1.146130084991455
1631204252180,1.4243793487548828,0.962959885597229,0.8049998879432678,1.146130084991455
1631204252274,1.4243793487548828,0.9808475971221924,0.8196818828582764,1.146130084991455
1631204252367,1.4243793487548828,0.9977219104766846,0.8522388339042664,1.146130084991455
1631204252477,1.4243793487548828,1.0113904476165771,0.8802929520606995,1.146130084991455
1631204252570,1.4243793487548828,1.0186612606048584,0.8985951542854309,1.146130084991455
1631204252664,1.4243793487548828,1.0223127603530884,0.9058746099472046,1.146130084991455
1631204252836,1.4243793487548828,1.024436593055725,0.9075998663902284,1.146130084991455
1631204252898,1.4243793487548828,1.0235671997070312,0.90807044506073,1.146130084991455
1631204252992,1.4243793487548828,1.017916202545166,0.9061014652252196,1.146130084991455
1631204253086,1.4243793487548828,0.999904453754425,0.8971165418624878,1.146130084991455
1631204253180,1.4243793487548828,0.9543835520744324,0.8738897442817688,1.146130084991455
1631204253320,1.4243793487548828,0.8662763237953186,0.8293276429176331,1.146130084991455
1631204253414,1.4243793487548828,0.7282193303108215,0.7529575228691101,1.146130084991455
1631204253508,1.4243793487548828,0.5634193420410156,0.7823862433433533,1.146130084991455
1631204253601,1.4243793487548828,0.4090689420700073,0.7953323721885681,1.146130084991455
1631204253711,1.4243793487548828,0.2846037447452545,0.7919710874557495,1.146130084991455
1631204253789,1.4243793487548828,0.1693011671304702,0.7324422597885132,1.146130084991455
1631204253883,1.4243793487548828,0.0347309708595275,0.6758500933647156,1.146130084991455
1631204254023,1.4243793487548828,-0.1113212183117866,0.6313437223434448,1.146130084991455
1631204254117,1.4243793487548828,-0.2100084275007248,0.6023567318916321,1.146130084991455
1631204254211,0.8011376261711121,-0.2612659335136413,0.5900707244873047,1.146130084991455
1631204254289,0.7116151452064514,-0.2909975945949554,0.5867124199867249,1.146130084991455
1631204254383,0.342522382736206,-0.3064163029193878,0.585996687412262,0.8478114604949951
1631204254492,-0.1342699974775314,-0.3144121468067169,0.5848485827445984,0.7246591448783875
1631204254617,-0.1849400550127029,-0.3293115496635437,0.5737490653991699,-0.1098564118146896
1631204254726,-0.226223349571228,-0.3543948829174042,0.5397421717643738,-0.1343304514884948
1631204254804,-0.2569275796413421,-0.3805236518383026,0.4662682712078094,-0.1530590057373047
1631204254929,-0.2696873843669891,-0.3992919325828552,0.343596488237381,-0.1696535497903823
1631204255007,-0.272279143333435,-0.4175321757793426,0.1752314865589141,-0.1846334487199783
1631204255101,-0.252960205078125,-0.4474075436592102,-0.0297517683357,-0.194409966468811
1631204255257,-0.1755587458610534,-0.489147424697876,-0.2415368854999542,-0.1854158341884613
1631204255335,-0.0556592233479023,-0.54171222448349,-0.434336245059967,-0.1414054930210113
1631204255445,0.0690641179680824,-0.6043391823768616,-0.5904093980789185,-0.0607673414051532
1631204255523,0.1711518615484237,-0.6777957677841187,-0.6388390064239502,0.0609122328460216
1631204255632,0.2792111039161682,-0.7465248107910156,-0.6304593086242676,0.2157644480466842
1631204255726,0.2995865046977997,-0.7870861887931824,-0.5952265858650208,0.4121790528297424
1631204255838,0.3249621987342834,-0.7896957993507385,-0.5533043742179871,0.6438878774642944
1631204255963,0.35336634516716,-0.7623666524887085,-0.5209203362464905,0.6681761145591736
1631204256073,0.3854869306087494,-0.7054805159568787,-0.4964162409305572,0.6955904960632324
1631204256120,0.4228132963180542,-0.6311854720115662,-0.4676299393177032,0.7264025807380676
1631204256213,0.4646391570568084,-0.5568537712097168,-0.4415441155433655,0.7603433132171631
1631204256323,0.7578303217887878,-0.4969272315502167,-0.418912261724472,0.7979621887207031
1631204256448,0.8497032523155212,-0.4580592215061188,-0.4028990566730499,0.8401191234588623
1631204256542,0.8714812994003296,-0.4333825409412384,-0.3900784254074096,0.8878195881843567
1631204256667,0.8719032406806946,-0.4134905636310577,-0.3655698001384735,0.9421218037605286
1631204256760,0.8632971048355103,-0.3964214920997619,-0.3245760798454284,0.9426416754722596
1631204256854,0.8430368900299072,-0.3807238638401031,-0.2845804989337921,0.9375239014625548
1631204256932,0.8097852468490601,-0.3691457211971283,-0.261007010936737,0.923244297504425
1631204257072,0.7673625946044922,-0.3606588244438171,-0.2561652362346649,0.8921574950218201
1631204257166,0.7010942697525024,-0.3566608130931854,-0.2621157765388489,0.8278078436851501
1631204257260,0.6660963892936707,-0.3542680740356445,-0.2720905542373657,0.6632965207099915
1631204257369,0.6400648951530457,-0.3574027121067047,-0.2787052989006042,-0.1101671159267425
1631204257432,0.6182823777198792,-0.3684759140014648,-0.2857623100280761,-0.0447105690836906
1631204257557,0.597568154335022,-0.387950450181961,-0.2928603291511535,-0.0032575384248048
1631204257682,0.5764148235321045,-0.4184390902519226,-0.3017841875553131,0.01595064625144
1631204257760,0.5557048916816711,-0.4566133022308349,-0.3090535700321197,0.0181759037077426
1631204257872,0.2874662578105926,-0.5009515881538391,-0.314205139875412,0.0142660997807979
1631204257950,0.0555268079042434,-0.5365100502967834,-0.319895476102829,0.010843887925148
1631204258075,-0.0417146533727645,-0.5545926094055176,-0.3296188712120056,0.0072079808451235
1631204258153,-0.0578163117170333,-0.5517961382865906,-0.3527168333530426,-0.002846110612154
1631204258294,-0.0615265518426895,-0.5325369238853455,-0.3928471505641937,-0.0127319656312465
1631204258387,-0.0592681393027305,-0.5165506601333618,-0.4412918984889984,-0.0216166786849498
1631204258481,-0.0539833344519138,-0.5127996206283569,-0.4832010865211487,-0.0285235252231359
1631204258575,-0.0450065806508064,-0.519968569278717,-0.5068583488464355,-0.0370102114975452
1631204258669,-0.0395768918097019,-0.5269461274147034,-0.5208532214164734,-0.0492110922932624
1631204258747,-0.0325025022029876,-0.5368489623069763,-0.5362829566001892,-0.0618239678442478
1631204258919,0.0034257073421031,-0.5500813722610474,-0.5521373152732849,-0.0592621378600597
1631204258997,0.0906470566987991,-0.5663495659828186,-0.5508192181587219,-0.0232054889202117
1631204259106,0.2014219462871551,-0.5782552361488342,-0.5319302082061768,0.0367725230753421
1631204259184,0.2914315164089203,-0.5697247385978699,-0.5092560648918152,0.1005259975790977
1631204259262,0.3473199903964996,-0.525735080242157,-0.4869928956031799,0.1535784751176834
1631204259372,0.3792369067668915,-0.4430156946182251,-0.4492866694927215,0.1975714266300201
1631204259512,0.3965719938278198,-0.3550051152706146,-0.390627384185791,0.2466837465763092
1631204259609,0.415688544511795,-0.288498044013977,-0.3237548470497131,0.304506778717041
1631204259687,0.4342763721942901,-0.2558004260063171,-0.2553882598876953,0.3545123338699341
1631204259812,0.451703280210495,-0.2483104467391967,-0.1943052411079406,0.393247127532959
1631204259890,0.4714937210083008,-0.2451148629188537,-0.1477731019258499,0.421437919139862
1631204259968,0.4903327822685241,-0.2287511825561523,-0.1153629794716835,0.4447852075099945
1631204260109,0.5046496391296387,-0.2046598941087722,-0.1001659706234932,0.4649043381214142
1631204260217,0.5161378979682922,-0.1828175783157348,-0.0956519842147827,0.480712741613388
1631204260310,0.5225654244422913,-0.1696909219026565,-0.0976131707429885,0.4880962669849396
1631204260388,0.5123392343521118,-0.16548453271389,-0.1059879809617996,0.4838869571685791
1631204260514,0.4865885078907013,-0.1641688793897628,-0.1182541996240615,0.4711467325687408
1631204260577,0.4515781104564667,-0.1584803611040115,-0.1280984580516815,0.4561399519443512
1631204260750,0.4875093996524811,-0.1512568145990371,-0.1110263243317604,0.5002838969230652
1631204260828,0.6858630180358887,-0.1456997245550155,-0.0219455678015947,0.4964606165885925
1631204260968,0.6959026455879211,-0.1451780498027801,0.1340227127075195,0.495699018239975
1631204261015,0.7155340313911438,-0.1053341552615165,0.3020644783973694,0.4883872270584106
1631204261078,0.7369580864906311,-0.0122079914435744,0.4416896402835846,0.4674147069454193
1631204261181,0.760735809803009,0.1603038609027862,0.5341343879699707,0.4457986354827881
1631204261365,0.7874380350112915,0.396988570690155,0.5926536917686462,0.4302218854427337
1631204261428,0.8152686357498169,0.6164888143539429,0.6358057260513306,0.426183134317398
1631204261520,0.8476749062538147,0.7757883071899414,0.6727137565612793,0.4302937388420105
1631204261629,0.8878946900367737,0.8024603724479675,0.7008394002914429,0.4438510537147522
1631204261707,0.9372355341911316,0.8608605265617371,0.7215732336044312,0.4742537140846252
1631204261809,0.9985469579696656,0.8817695379257202,0.7419068813323975,0.531895637512207
1631204261952,1.080323338508606,0.8882875442504883,0.7697335481643677,0.531895637512207
1631204262046,1.080323338508606,0.8916530609130859,0.8038734197616577,0.531895637512207
1631204262108,1.080323338508606,0.8946619629859924,0.8344141840934753,0.531895637512207
1631204262218,1.080323338508606,0.8968417644500732,0.8510921001434326,0.531895637512207
1631204262327,1.080323338508606,0.8971655964851379,0.8480356335639954,0.531895637512207
1631204262407,1.080323338508606,0.8957460522651672,0.8225293755531311,0.531895637512207
1631204262565,1.080323338508606,0.8894148468971252,0.7752522826194763,0.531895637512207
1631204262627,1.080323338508606,0.8756946325302124,0.7106085419654846,0.531895637512207
1631204262737,1.080323338508606,0.8435245156288147,0.6433412432670593,0.531895637512207
1631204262834,1.080323338508606,0.7669909596443176,0.5827151536941528,0.531895637512207
1631204262911,1.080323338508606,0.6127524375915527,0.5262717008590698,0.531895637512207
1631204263007,1.080323338508606,0.3312240242958069,0.4691481292247772,0.531895637512207
1631204263179,0.8425358533859253,0.3147865533828735,0.4205896556377411,0.7868167757987976
1631204263256,0.8906776309013367,0.0945576056838035,0.3825378715991974,0.7831651568412781
1631204263333,0.8982902765274048,-0.0241687558591365,0.3411546647548675,0.7564496994018555
1631204263427,0.8982902765274048,-0.0582464858889579,0.2715533971786499,0.7564496994018555
1631204263535,0.8982902765274048,-0.0666340515017509,0.1730321943759918,0.7564496994018555
1631204263630,0.8982902765274048,-0.0603553988039493,0.114123411476612,0.7564496994018555
1631204263771,0.8982902765274048,-0.0185429900884628,0.1839852482080459,0.7564496994018555
1631204263865,0.8982902765274048,0.0511860772967338,0.3265122771263122,0.7564496994018555
1631204263943,0.8982902765274048,0.1189843341708183,0.4483105540275574,0.7564496994018555
1631204264034,0.8982902765274048,0.1613985896110534,0.5188828110694885,0.7564496994018555
1631204264143,0.8982902765274048,0.1782886534929275,0.5498635768890381,0.7564496994018555
1631204264221,0.8982902765274048,0.18155138194561,0.5609950423240662,0.7564496994018555
1631204264382,0.9527136087417604,0.1766148507595062,0.5642731189727783,0.7884435057640076
1631204264476,0.9952457547187804,0.1675062030553817,0.5670285224914551,0.7935605049133301
1631204264569,0.9952457547187804,0.1568386852741241,0.5687732696533203,0.7935605049133301
1631204264693,0.9952457547187804,0.1424249559640884,0.5689560770988464,0.7935605049133301
1631204264755,0.9952457547187804,0.125510424375534,0.5674520134925842,0.7935605049133301
1631204264850,0.9952457547187804,0.1099695563316345,0.564657986164093,0.7935605049133301
1631204264983,-0.0793370828032493,0.0966482833027839,0.5601963400840759,-0.7476353049278259
1631204265076,-0.1309746503829956,0.0825558826327323,0.5472908616065979,-0.7218490839004517
1631204265216,-0.1660097688436508,0.0567964129149913,0.5102326273918152,-0.6796760559082031
1631204265295,-0.1948616951704025,0.0001341701427008,0.4292236566543579,-0.6224260926246643
1631204265357,-0.2212255895137787,-0.0992415025830268,0.2895473539829254,-0.5568044781684875
1631204265451,-0.2439944595098495,-0.2392361760139465,0.0880860537290573,-0.4907918274402618
1631204265591,-0.2601911127567291,-0.3899703919887543,-0.1368799060583114,-0.4250818192958832
1631204265688,-0.2709019482135772,-0.4942096173763275,-0.2988717257976532,-0.3518940210342407
1631204265781,-0.2672832906246185,-0.5320575833320618,-0.357144296169281,-0.2715422213077545
1631204265906,-0.2506284117698669,-0.534023106098175,-0.3579265177249908,-0.1990111917257309
1631204266000,-0.2361709922552108,-0.5315526127815247,-0.3701325058937073,-0.1553267240524292
1631204266078,-0.224156841635704,-0.5335102081298828,-0.3891859650611877,-0.1264142543077469
1631204266203,-0.1974249333143234,-0.5403472185134888,-0.4053278565406799,-0.049549825489521
1631204266281,-0.2131091356277465,-0.5344388484954834,-0.3992477655410766,-0.0248809736222028
1631204266406,-0.2242968380451202,-0.4744857847690582,-0.3403592705726623,0.0010391385294497
1631204266484,-0.2189925611019134,-0.3169280886650085,-0.2009762823581695,0.0296488739550113
1631204266569,-0.2037156969308853,-0.0945450738072395,0.0034496986772865,0.0594722926616668
1631204266694,0.9836398959159852,0.1097491756081581,0.2669107019901275,0.0902059152722358
1631204266803,1.3460538387298584,0.2758808135986328,0.5582743287086487,0.1210564523935318
1631204266929,1.3868452310562134,0.4142048060894012,0.8177084922790527,0.1516525000333786
1631204267006,1.4320237636566162,0.5259482860565186,1.012086272239685,0.1824960708618164
1631204267100,1.4825308322906494,0.6069152355194092,1.137498140335083,0.2133127003908157
1631204267194,1.5398035049438477,0.6532821655273438,1.2039661407470703,0.2390940636396408
1631204267319,1.6056933403015137,0.6744040846824646,1.230096697807312,0.2517293095588684
1631204267444,1.683409571647644,0.680460512638092,1.236862301826477,0.2517293095588684
1631204267536,1.7788268327713013,0.6815488934516907,1.2372429370880127,0.2517293095588684
1631204267614,1.7788268327713013,0.6807286739349365,1.236950397491455,0.2517293095588684
1631204267695,1.7788268327713013,0.6803984045982361,1.2364448308944702,0.2517293095588684
1631204267789,1.7788268327713013,0.679639458656311,1.235852837562561,0.2517293095588684
1631204267883,1.7773696184158323,0.6764139533042908,1.2343575954437256,0.2517293095588684
1631204268039,1.681633710861206,0.6652018427848816,1.2302842140197754,-0.2370687127113342
1631204268133,1.6035091876983645,0.6373077630996704,1.220926284790039,-0.1235490664839744
1631204268211,1.373579502105713,0.5889671444892883,1.1988197565078735,-0.0465283654630184
1631204268302,-0.1754227131605148,0.5180969834327698,1.14782452583313,-0.0110033750534057
1631204268427,-0.0930709093809127,0.4152054488658905,1.045865535736084,0.0065089659765362
1631204268505,0.0437588542699813,0.2675665915012359,0.8700510263442993,0.0387005992233753
1631204268673,0.1619664877653122,0.0677668303251266,0.59907066822052,0.0895355269312858
1631204268742,0.2290903031826019,-0.1498412638902664,0.228459283709526,0.1334485113620758
1631204268836,0.2499125897884369,-0.3286241590976715,-0.1695527881383896,0.1607801616191864
1631204268930,0.2440164238214492,-0.4135406911373138,-0.4200694561004638,0.1688078343868255
1631204269039,0.2303503900766372,-0.4415640532970428,-0.465872585773468,0.1693113148212433
1631204269117,0.213064894080162,-0.4393024146556854,-0.4730495810508728,0.1619945168495178
1631204269258,0.1943026185035705,-0.4359882771968841,-0.4578728079795837,0.1785358637571334
1631204269367,0.190525621175766,-0.43232262134552,-0.4297659695148468,0.1985784769058227
1631204269414,0.1938226073980331,-0.4354014992713928,-0.3897879719734192,0.2157526165246963
1631204269539,0.201525866985321,-0.4540500938892364,-0.3553067743778229,0.2215816527605056
1631204269648,0.2094249129295349,-0.4895054996013641,-0.3353816270828247,0.2120034098625183
1631204269742,0.2235818058252334,-0.5260167717933655,-0.3355075716972351,0.1950455456972122
1631204269867,0.2464458346366882,-0.5542165040969849,-0.3511345386505127,0.1847112029790878
1631204269961,0.2608955800533294,-0.5826626420021057,-0.3722746074199676,0.1815430074930191
1631204270039,0.2506007254123688,-0.6200649738311768,-0.3864527642726898,0.1686030030250549
1631204270132,0.2203414291143417,-0.6463608741760254,-0.3967489004135132,0.1395847052335739
1631204270242,0.1883178502321243,-0.6492628455162048,-0.3983396589756012,0.1003811806440353
1631204270367,0.1702230125665664,-0.6179906129837036,-0.3817630112171173,0.0615764409303665
1631204270476,0.1623638868331909,-0.5566352009773254,-0.3517762422561645,0.0318954810500144
1631204270554,0.1547775715589523,-0.4864977598190307,-0.3241810500621795,0.0076701138168573
1631204270668,0.1478289514780044,-0.4330931305885315,-0.3056183457374573,-0.0050641680136322
1631204270746,0.1417914181947708,-0.4086933135986328,-0.3025687038898468,-0.0159889962524175
1631204270824,0.1327520012855529,-0.4089988470077514,-0.319876879453659,-0.0389894619584083
1631204270933,0.1204362660646438,-0.4231484532356262,-0.357433944940567,-0.0655834451317787
1631204271089,0.1068088263273239,-0.4374898970127105,-0.4065609276294708,-0.0840585678815841
1631204271183,0.094433307647705,-0.4417333006858825,-0.455078512430191,-0.0808091461658477
1631204271292,0.0742074325680732,-0.4426397979259491,-0.4898780584335327,-0.06817427277565
1631204271371,0.0290219523012638,-0.4433794617652893,-0.5103271007537842,-0.065618596971035
1631204271464,-0.0363898314535617,-0.4445746541023254,-0.5230249166488647,-0.0807419568300247
1631204271542,-0.101163774728775,-0.4434095621109009,-0.5307300686836243,-0.1049366146326065
1631204271717,-0.1521634310483932,-0.4442331194877624,-0.5177578330039978,-0.1375963985919952
1631204271795,-0.1811892539262771,-0.4469684660434723,-0.495917797088623,-0.1692868173122406
1631204271889,-0.1973616480827331,-0.4587812423706054,-0.482653796672821,-0.1945409625768661
1631204271982,-0.194254994392395,-0.4777879118919372,-0.4856038391590118,-0.1910971850156784
1631204272061,-0.1240397989749908,-0.4840431809425354,-0.5014011859893799,-0.1217024400830268
1631204272186,0.0264591444283723,-0.454879492521286,-0.5177854299545288,0.029053546488285
1631204272279,0.19797183573246,-0.395128071308136,-0.5287967324256897,0.2054896652698516
1631204272388,0.338267832994461,-0.3385904431343078,-0.5379157066345215,0.3495156466960907
1631204272482,0.4299249053001404,-0.2994798719882965,-0.5450549721717834,0.4431845247745514
1631204272591,0.4783536493778229,-0.2733035087585449,-0.5504886507987976,0.4901949763298034
1631204272685,0.4974331259727478,-0.2538152933120727,-0.5517357587814331,0.5051496028900146
1631204272779,0.50398188829422,-0.2382794022560119,-0.5510278940200806,0.5054741501808167
1631204272904,0.506882905960083,-0.2229664772748947,-0.5512390732765198,0.50087970495224
1631204273014,0.5087084174156189,-0.207904502749443,-0.5500065684318542,0.4966698884963989
1631204273092,0.506915271282196,-0.1927849203348159,-0.5372567176818848,0.494778037071228
1631204273232,0.5004518032073975,-0.1656787395477295,-0.4730065166950226,0.4961822032928467
1631204273294,0.4921532869338989,-0.1158918589353561,-0.3385208249092102,0.4994687438011169
1631204273388,0.4878827035427093,-0.0527829863131046,-0.190928429365158,0.5035956501960754
1631204273497,0.4870190620422363,-0.0023164788726717,-0.0795951932668685,0.5046665668487549
1631204273591,0.4746377766132355,0.0207654722034931,-0.0169662833213806,0.4913473427295685
1631204273701,0.4318295419216156,0.0141552379354834,0.0114843472838401,0.4450769424438476
1631204273810,0.3507597148418426,-0.0106986975297331,0.0212124474346637,0.3527692854404449
1631204273904,0.2505282461643219,-0.0334129072725772,0.0305664017796516,0.2190283387899398
1631204273997,0.1821080148220062,-0.0427694544196128,0.0500492863357067,0.0763152688741684
1631204274138,0.1768260449171066,-0.0418640859425067,0.0808532685041427,-0.007703483570367
1631204274232,0.216818168759346,-0.0382129214704036,0.1148223578929901,-0.0079928925260901
1631204274310,0.2518317997455597,-0.0341086722910404,0.1430362910032272,0.022239975631237
1631204274404,0.2768340408802032,-0.0312683060765266,0.1603492945432663,0.0509368106722831
1631204274513,0.3016495406627655,-0.0305225029587745,0.1681956201791763,0.0724794268608093
1631204274607,0.3348807096481323,-0.0327276438474655,0.1678525656461715,0.0915935561060905
1631204274747,0.3707373440265655,-0.0448760315775871,0.1516994386911392,0.1049749180674552
1631204274841,0.4040049612522125,-0.0774325057864189,0.107997752726078,0.1164381653070449
1631204274935,0.4256009757518768,-0.1360294818878173,0.0339660197496414,0.1229262202978134
1631204275028,0.4330999851226806,-0.210952028632164,-0.0542303174734115,0.1222156509757042
1631204275122,0.4315875172615051,-0.2824305891990661,-0.1197593584656715,0.1157749518752098
1631204275200,0.4285903871059418,-0.3270280957221985,-0.1442398130893707,0.109118103981018
1631204275341,0.4223792850971222,-0.3482768833637237,-0.135221242904663,0.1008762493729591
1631204275435,0.4019953608512878,-0.3663986623287201,-0.125311404466629,0.0875094980001449
1631204275544,0.361018031835556,-0.3902531266212463,-0.1365693509578704,0.0605920366942882
1631204275653,0.3083551824092865,-0.4120954275131225,-0.1726592630147934,0.0159748308360576
1631204275747,0.2580848932266235,-0.4183701872825622,-0.217689648270607,-0.0438391081988811
1631204275809,0.2326236069202423,-0.4093305766582489,-0.251123309135437,-0.1003811806440353
1631204275966,0.2254012525081634,-0.4033989906311035,-0.2552407383918762,-0.1379314810037613
1631204276075,0.2130393385887146,-0.4105884134769439,-0.2439785003662109,-0.1555659621953964
1631204276137,0.1792446821928024,-0.425395131111145,-0.2313087731599807,-0.1615715771913528
1631204276247,0.127293586730957,-0.4440504610538482,-0.2238059043884277,-0.1588791906833648
1631204276341,0.0596210993826389,-0.4633793532848358,-0.2282996475696563,-0.1574241816997528
1631204276419,-0.0050424174405634,-0.4743919670581817,-0.240208625793457,-0.1565076857805252
1631204276544,-0.0460488907992839,-0.4672699868679046,-0.2560805082321167,-0.1518470793962478
1631204276684,-0.0611983127892017,-0.4480152726173401,-0.2776709496974945,-0.1463701277971267
1631204276765,-0.0571012943983078,-0.424528568983078,-0.3053930103778839,-0.1458865702152252
1631204276843,-0.034954335540533,-0.3970053195953369,-0.3387015163898468,-0.1524293720722198
1631204276937,-0.001434690086171,-0.3707498013973236,-0.3673329353332519,-0.1632424145936966
1631204277046,0.022863183170557,-0.3539020717144012,-0.3828414976596832,-0.1660173386335373
1631204277218,0.0318176038563251,-0.3513416647911072,-0.3891685307025909,-0.1448950916528701
1631204277296,0.0338474996387958,-0.3675547242164612,-0.4000535607337951,-0.0887923091650009
1631204277374,0.0449151210486888,-0.3978294432163238,-0.4241117238998413,-0.0098259961232543
1631204277483,0.0876247063279151,-0.4305720031261444,-0.4603438973426819,0.0787884667515754
1631204277561,0.1646789908409118,-0.4532050192356109,-0.4874547123908996,0.167210578918457
1631204277640,0.2491242736577987,-0.4640518724918365,-0.4971996545791626,0.2373234778642654
1631204277780,0.3226483762264251,-0.4599470794200897,-0.478055328130722,0.2935628592967987
1631204277889,0.3930993378162384,-0.4473058879375458,-0.4209195077419281,0.3551557064056396
1631204277983,0.4825604259967804,-0.4047361016273498,-0.300250381231308,0.4544772803783417
1631204278062,0.6116499900817871,-0.316136747598648,-0.1234427168965339,0.5938597321510315
1631204278171,0.7563720345497131,-0.2088355123996734,0.0544614307582378,0.7367530465126038
1631204278249,0.8747377991676331,-0.1244695782661438,0.1884383857250213,0.843275249004364
1631204278389,0.9526246786117554,-0.0826370120048523,0.2698057889938354,0.90592622756958
1631204278467,0.9955424666404724,-0.0725200474262237,0.3093105256557464,0.935612976551056
1631204278592,1.0141420364379885,-0.0727137625217437,0.3234576284885406,0.9460851550102234
1631204278686,1.0206419229507446,-0.0730705261230468,0.3267606198787689,0.9478389024734496
1631204278795,1.0228675603866575,-0.0737358033657074,0.3278413414955139,0.9457483887672424
1631204278874,1.021029353141785,-0.0759361013770103,0.3282071948051452,0.9388253688812256
1631204278999,1.0135512351989746,-0.0807820186018943,0.3274721503257751,0.92727929353714
1631204279124,1.001809000968933,-0.0848388522863388,0.3252598941326141,0.9123553037643432
1631204279186,0.9889593124389648,-0.0865759029984474,0.3220309913158417,0.8974477648735046
1631204279295,0.9772381782531738,-0.0903697311878204,0.3160420656204223,0.8827997446060181
1631204279389,0.964588701725006,-0.0988656282424926,0.3055581748485565,0.8642382621765137
1631204279483,0.94158273935318,-0.1266312003135681,0.2792665064334869,0.8272370100021362
1631204279608,0.8894896507263184,-0.1941761821508407,0.2178463786840438,0.7496232390403748
1631204279720,0.7907219529151917,-0.3134639263153076,0.103205882012844,0.6103628277778625
1631204279798,0.6436663866043091,-0.4716046154499054,-0.0682595744729042,0.4105298221111297
1631204279876,0.4660431742668152,-0.6100379824638367,-0.2739568650722503,0.1813414394855499
1631204279985,0.2990511059761047,-0.673038899898529,-0.4561715424060821,-0.0164173059165477
1631204280110,0.2041437178850174,-0.6863969564437866,-0.5568033456802368,-0.1347240060567855
1631204280236,0.1829976439476013,-0.6831761002540588,-0.5886634588241577,-0.2001199722290039
1631204280314,0.1843996345996856,-0.6598668694496155,-0.6017093658447266,-0.2593069076538086
1631204280407,0.1875790059566497,-0.6235940456390381,-0.6066344380378723,-0.2900684773921966
1631204280532,0.1899871826171875,-0.5821099877357483,-0.6090222597122192,-0.2892210781574249
1631204280610,0.1814441084861755,-0.5446280837059021,-0.6146294474601746,-0.2629382014274597
1631204280688,0.1643348336219787,-0.5082813501358032,-0.6245469450950623,-0.202668085694313
1631204280845,0.147338256239891,-0.4633392691612243,-0.6351251602172852,-0.1126630306243896
1631204280923,0.1383200287818908,-0.4136397242546081,-0.6391328573226929,-0.0269591156393289
1631204281032,0.1403741091489792,-0.3722085654735565,-0.6224777102470398,0.0317202880978584
1631204281126,0.151230126619339,-0.3454079031944275,-0.5803351998329163,0.0678348913788795
1631204281204,0.1601165235042572,-0.3285875618457794,-0.5217719078063965,0.0895339250564575
1631204281282,0.160577967762947,-0.3131186664104461,-0.4554404318332672,0.1029528379440307
1631204281423,0.155618742108345,-0.2904331088066101,-0.4002989828586578,0.1125151291489601
1631204281563,0.1624643355607986,-0.2594399750232696,-0.3623471558094024,0.1415992081165313
1631204281626,0.1754976063966751,-0.2172017097473144,-0.3167003989219665,0.1796039342880249
1631204281726,0.2498873174190521,-0.1565767377614975,-0.2369494587182998,0.2609661221504211
1631204281833,0.406218022108078,-0.0731225162744522,-0.1234358176589012,0.3988946378231048
1631204281958,0.5897870659828186,0.0168527644127607,-0.0080174077302217,0.5511776208877563
1631204282036,0.737148642539978,0.0927284583449363,0.0827999338507652,0.673150897026062
1631204282176,0.830053448677063,0.1422212123870849,0.142182320356369,0.746747612953186
1631204282239,0.8746834397315979,0.1674611568450927,0.1759294122457504,0.7762271165847778
1631204282333,0.8889269828796387,0.1749191284179687,0.1933587938547134,0.7763714790344238
1631204282473,0.8903496861457825,0.1724394261837005,0.2010430544614792,0.767723023891449
1631204282505,0.8883248567581177,0.1676011830568313,0.2051561772823333,0.7606227993965149
1631204282670,0.89829421043396,0.1628318428993225,0.2102716416120529,0.7702490091323853
1631204282764,0.9300707578659058,0.1609738171100616,0.2184650003910064,0.802742600440979
1631204282857,0.9801570177078248,0.1608493775129318,0.2273876816034317,0.8520240187644958
1631204282920,1.0293031930923462,0.1602930575609207,0.237098142504692,0.8997777104377747
1631204283045,1.060346007347107,0.1590416580438614,0.2461543828248977,0.929689347743988
1631204283138,1.0719470977783203,0.1539462804794311,0.2459698319435119,0.9516447186470032
1631204283279,1.0640263557434082,0.1355792731046676,0.2260726541280746,0.9662861824035645
1631204283357,1.0342329740524292,0.0935819298028945,0.1788123250007629,0.961505115032196
1631204283451,0.9776239395141602,0.0243483744561672,0.1067472621798515,0.9306017160415648
1631204283560,0.9047064781188964,-0.0608373060822486,0.0247296933084726,0.8807561993598938
1631204283623,0.8372755646705627,-0.1394369304180145,-0.0466141179203987,0.7984833121299744
1631204283732,0.798008143901825,-0.1946966797113418,-0.095129445195198,0.7451279163360596
1631204283873,0.7868178486824036,-0.217162549495697,-0.1238774955272674,0.7247225642204285
1631204283951,0.7865561842918396,-0.2133618146181106,-0.1401397585868835,0.7139610648155212
1631204284044,0.786479115486145,-0.1991038918495178,-0.1579286307096481,0.7036358118057251
1631204284154,0.7684277892112732,-0.1849218308925628,-0.1868574172258377,0.6718953847885132
1631204284263,0.7166696190834045,-0.1853363960981369,-0.2348426729440689,0.5932415127754211
1631204284341,0.6254521012306213,-0.196198284626007,-0.2937284111976623,0.4698763489723205
1631204284482,0.5454764366149902,-0.204421192407608,-0.3461704850196838,0.4052386581897735
1631204284580,0.6177563667297363,-0.1787735521793365,-0.3254148364067077,0.6258881688117981
1631204284674,0.5914735794067383,-0.0985683500766754,-0.1826171427965164,0.6258881688117981
1631204284767,0.594631552696228,0.0117038441821932,0.0135819343850016,0.6258881688117981
1631204284845,0.6090691089630127,0.1058004572987556,0.1730360835790634,0.6258881688117981
1631204284970,0.6300235390663147,0.1625746935606002,0.2691786289215088,0.6258881688117981
1631204285111,0.6481325626373291,0.1832200437784195,0.3129794001579284,0.6258881688117981
1631204285205,0.6671654582023621,0.1845201849937439,0.3260792791843414,0.6628738641738892
1631204285283,0.6915856599807739,0.179766371846199,0.3284257352352142,0.7100322842597961
1631204285376,0.7250779867172241,0.1713927388191223,0.3327701985836029,0.7652588486671448
1631204285533,0.7706013917922974,0.1623439490795135,0.3479940891265869,0.7963570952415466
1631204285564,0.8335735201835632,0.1665589064359665,0.3940137326717376,0.9079857468605042
1631204285736,0.9193434119224548,0.1999779343605041,0.4772652983665466,0.9720136523246764
1631204285798,0.9193434119224548,0.2589017152786255,0.5732482075691223,1.0473785400390625
1631204285876,0.9193434119224548,0.3194600641727447,0.6516485810279846,1.121070384979248
1631204285970,0.9193434119224548,0.3607424199581146,0.699986457824707,1.121070384979248
1631204286079,0.9193434119224548,0.3710873425006866,0.7175565958023071,1.121070384979248
1631204286204,0.9193434119224548,0.3468038141727447,0.7089073061943054,1.121070384979248
1631204286298,0.9193434119224548,0.2926919460296631,0.6782679557800293,1.121070384979248
1631204286423,0.9193434119224548,0.2246054410934448,0.6368371248245239,1.121070384979248
1631204286520,0.9193434119224548,0.1647232770919799,0.5990734696388245,1.121070384979248
1631204286598,0.9193434119224548,0.1315843164920807,0.5761021375656128,1.121070384979248
1631204286692,0.9193434119224548,0.1203566491603851,0.5676314830780029,0.6431318521499634
1631204286786,0.9193434119224548,0.1183805912733078,0.567881166934967,0.5714134573936462
1631204286926,-0.2738174796104431,0.1183460354804992,0.5706339478492737,0.5223178267478943
1631204287004,-0.309384673833847,0.1154738962650299,0.5680757761001587,0.4835292994976043
1631204287114,-0.2617399096488952,0.0968487486243248,0.5433472990989685,0.0425314344465732
1631204287208,-0.1525486558675766,0.0452065281569957,0.4758421778678894,0.0625688508152961
1631204287317,-0.035683799535036,-0.0493826791644096,0.3527856171131134,0.1217885464429855
1631204287380,0.0440253801643848,-0.1813554912805557,0.1764223724603653,0.1976848244667053
1631204287551,0.0800096243619918,-0.3195931017398834,-0.0274486783891916,0.2534469068050384
1631204287629,0.0850683823227882,-0.4201111793518066,-0.2013760805130005,0.2792825102806091
1631204287754,0.0676897391676902,-0.4642372131347656,-0.3099803328514099,0.2833255231380462
1631204287819,0.0421160422265529,-0.4744125008583069,-0.3665770292282104,0.276347815990448
1631204287913,0.013268282637,-0.4766872525215149,-0.4074378907680511,0.2669892907142639
1631204288038,-0.0140197100117802,-0.4728319942951202,-0.4240866899490356,0.255794495344162
1631204288147,-0.0489849671721458,-0.4656731188297272,-0.4175788462162018,0.2580475211143493
1631204288272,-0.0588342323899269,-0.4583741426467895,-0.3989481627941131,0.2554163932800293
1631204288350,-0.0538675971329212,-0.4529957771301269,-0.3955408930778503,0.2440997511148452
1631204288444,-0.0287777483463287,-0.4500996768474579,-0.4212445616722107,0.2386806905269622
1631204288522,0.0480340644717216,-0.4479829668998718,-0.4370924234390259,0.2647371888160705
1631204288616,0.1689682453870773,-0.4372559487819671,-0.3858373463153839,0.3380919694900512
1631204288772,0.3790764808654785,-0.4122905731201172,-0.2386088967323303,0.3480980396270752
1631204288850,0.639841616153717,-0.3713686764240265,-0.0498478561639785,0.343943327665329
1631204288960,0.8697752356529236,-0.3212239444255829,0.1157644614577293,0.320521742105484
1631204289053,0.8916023373603821,-0.2737951278686523,0.2289682179689407,0.2883183062076568
1631204289147,0.9183491468429564,-0.2400118261575698,0.2928056716918945,0.755828857421875
1631204289210,0.9505077600479126,-0.2226651906967163,0.3231666684150696,0.7823116183280945
1631204289381,1.0123376846313477,-0.2139532417058944,0.3373266756534576,0.8170161843299866
1631204289459,1.036088943481445,-0.2069135159254074,0.3436756134033203,0.8583093285560608
1631204289603,1.0495563745498655,-0.1948189735412597,0.3457351326942444,0.9076136946678162
1631204289665,1.0565212965011597,-0.1766582280397415,0.3427171111106872,0.9682315587997437
1631204289728,1.0600221157073977,-0.1558075994253158,0.3358994424343109,0.9698413014411926
1631204289853,1.0628952980041504,-0.1396261900663375,0.328050285577774,0.9732545018196106
1631204289993,1.064552903175354,-0.1315808445215225,0.322851151227951,0.9721367955207824
1631204290071,1.0602383613586426,-0.1271404176950454,0.3183888792991638,0.956944465637207
1631204290181,1.0451271533966064,-0.1248704120516777,0.3073761761188507,0.915144979953766
1631204290259,0.9959025382995604,-0.1312125027179718,0.2741440534591675,0.8612784743309021
1631204290337,0.8636733889579773,-0.152847021818161,0.2012804746627807,0.8145718574523926
1631204290431,0.522082507610321,-0.1936195194721222,0.0784359946846962,0.7726731300354004
1631204290576,0.4931148588657379,-0.2449193000793457,-0.0787599384784698,0.7352597117424011
1631204290670,0.4672329127788543,-0.2866871356964111,-0.2293130010366439,0.0450432412326335
1631204290795,0.4436164498329162,-0.309745192527771,-0.3357860743999481,0.0410935543477535
1631204290842,0.2488247454166412,-0.3219273686408996,-0.3971807956695556,0.0620582215487957
1631204290967,0.1868703663349151,-0.324716717004776,-0.4046792387962341,0.1335538476705551
1631204291077,0.2957947850227356,-0.308921068906784,-0.3121355473995209,0.3201296627521515
1631204291186,0.539483368396759,-0.2637082040309906,-0.1243402585387229,0.5761297941207886
1631204291326,0.7810403108596802,-0.1903215050697326,0.0720341354608535,0.8240824341773987
1631204291389,0.9501758217811584,-0.1082453727722168,0.221693217754364,0.9972966909408568
1631204291467,1.04661762714386,-0.0415065102279186,0.3139404654502868,1.0975947380065918
1631204291579,1.0722352266311646,-0.0013645184226334,0.3603224158287048,1.1248462200164795
1631204291657,1.1004688739776611,0.0147532559931278,0.3818705677986145,1.1536506414413452
1631204291798,1.132177710533142,0.0167098026722669,0.3963213264942169,1.184859275817871
1631204291891,1.1678593158721924,0.0202776938676834,0.4323145747184753,1.2194703817367554
1631204291986,1.2078205347061155,0.0404923148453235,0.5186160802841187,1.2581770420074463
1631204292095,1.2521324157714844,0.0800988897681236,0.638649046421051,1.3014483451843262
1631204292173,1.3016847372055054,0.1314846575260162,0.7552700042724609,1.3500279188156128
1631204292298,1.3580355644226074,0.1813777685165405,0.842872679233551,1.4055912494659424
1631204292407,1.420536756515503,0.2168815582990646,0.8951112031936646,1.4682458639144895
1631204292485,1.489951729774475,0.2349896430969238,0.9200043082237244,1.537873148918152
1631204292579,1.5554763078689575,0.2372459173202514,0.9250629544258118,1.6046125888824463
1631204292704,1.5554763078689575,0.226082295179367,0.9156834483146667,1.6046125888824463
1631204292785,1.5554763078689575,0.2002250105142593,0.8960825204849243,1.6046125888824463
1631204292878,1.5554763078689575,0.1620664298534393,0.8717489838600159,1.6046125888824463
1631204293035,1.5554763078689575,0.1233183369040489,0.8502368927001953,1.6046125888824463
1631204293097,1.5554763078689575,0.0949127525091171,0.8357247710227966,1.6046125888824463
1631204293207,1.5554763078689575,0.0803396478295326,0.8263421654701233,1.6046125888824463
1631204293300,0.1356334686279297,0.0761954560875892,0.8187406659126282,0.3684156239032745
1631204293394,0.1562222391366958,0.0673131719231605,0.8026010394096375,0.3461876213550567
1631204293472,0.1664208173751831,0.0387119837105274,0.7586448192596436,0.3070414364337921
1631204293617,0.1586287468671798,-0.0177625250071287,0.6701327562332153,0.2579265236854553
1631204293727,0.1413637995719909,-0.1057385876774787,0.5241838693618774,0.2084264606237411
1631204293805,0.1137923300266265,-0.2154757529497146,0.3198594450950622,0.1637434661388397
1631204293930,0.0820036828517913,-0.3148280680179596,0.0838571190834045,0.1269416958093643
1631204294024,0.0514921061694622,-0.3786125481128692,-0.1362525969743728,0.1037713959813118
1631204294118,0.0255816299468278,-0.4119944870471954,-0.2833448946475982,0.0948978886008262
1631204294258,0.0033174797426909,-0.4449060559272766,-0.365949422121048,0.0951844379305839
1631204294336,-0.0181544106453657,-0.4805632829666137,-0.4339425265789032,0.1006206721067428
1631204294414,-0.0378256887197494,-0.5077110528945923,-0.4895041286945343,0.1092561185359954
1631204294508,-0.0566494613885879,-0.5287836194038391,-0.515526533126831,0.1100988760590553
1631204294602,-0.062694065272808,-0.5493205785751343,-0.5012324452400208,0.1040264591574668
1631204294743,-0.0652733221650123,-0.5738558173179626,-0.4681797921657562,0.0937206894159317
1631204294840,-0.0755275264382362,-0.5938236117362976,-0.4414669871330261,0.0860281661152839
1631204294934,-0.0975546091794967,-0.5948804020881653,-0.4268856644630432,0.0917466059327125
1631204295043,-0.1270334124565124,-0.5764176249504089,-0.4203415811061859,0.1162226945161819
1631204295136,-0.1379908770322799,-0.5458144545555115,-0.4271168708801269,0.1548480093479156
1631204295215,-0.1157287061214447,-0.5115408301353455,-0.4453805685043335,0.1987621635198593
1631204295308,-0.0747268050909042,-0.484405905008316,-0.4647877216339111,0.2348960787057876
1631204295464,-0.0280929673463106,-0.4710688292980194,-0.4734545350074768,0.261014312505722
1631204295558,0.0109094651415944,-0.4756602346897125,-0.463498055934906,0.2770701348781585
1631204295636,0.0444917865097522,-0.4869540929794311,-0.4410936236381531,0.281892865896225
1631204295746,0.0853028520941734,-0.4903430342674255,-0.4119765162467956,0.2766660749912262
1631204295839,0.1300347298383712,-0.4814542829990387,-0.3759207725524902,0.2641429305076599
1631204295918,0.1530320197343826,-0.4641103446483612,-0.2890655696392059,0.2674505412578583
1631204296043,0.1727153658866882,-0.4185240566730499,-0.069471076130867,0.265591949224472
1631204296152,0.1824486702680587,-0.2852921187877655,0.2402788996696472,0.2583896219730377
1631204296245,0.1866751909255981,-0.0528511591255664,0.2597347199916839,0.2508501708507538
1631204296339,0.1928736716508865,0.2059083431959152,0.2837761342525482,0.2449819892644882
1631204296449,0.207607090473175,0.4328949451446533,0.3123518526554107,0.2384122908115387
1631204296542,0.2325264513492584,0.6012730598449707,0.344967633485794,0.2252264320850372
1631204296667,0.2573283910751343,0.7077475786209106,0.3816101253032684,0.2003877162933349
1631204296808,0.2669354975223541,0.7644690275192261,0.4219309091567993,0.155032992362976
1631204296855,0.2712882757186889,0.788200318813324,0.466801255941391,0.1019717678427696
1631204296964,0.2744023501873016,0.7965059280395508,0.518109142780304,0.0465927794575691
1631204297058,0.2744023501873016,0.7987785339355469,0.5781137347221375,0.0465927794575691
1631204297152,0.2744023501873016,0.8000885248184204,0.6497678160667419,0.0465927794575691
1631204297277,0.2744023501873016,0.8019000291824341,0.7376736402511597,0.0465927794575691
1631204297370,0.2744023501873016,0.8080868124961853,0.7376736402511597,0.0465927794575691
1631204297448,0.2744023501873016,0.8239778876304626,0.7376736402511597,0.0465927794575691
1631204297558,0.2744023501873016,0.8491587042808533,0.7376736402511597,0.0465927794575691
1631204297683,0.2744023501873016,0.8738194108009338,0.7376736402511597,0.0465927794575691
1631204297795,0.2744023501873016,0.8814988732337952,0.7376736402511597,0.0465927794575691
1631204297888,0.2744023501873016,0.8598898649215698,0.7376736402511597,0.0465927794575691
1631204297982,0.2744023501873016,0.8025124669075012,0.7376736402511597,0.0465927794575691
1631204298091,0.2744023501873016,0.7139787673950195,0.7376736402511597,0.0465927794575691
1631204298216,0.2744023501873016,0.6160983443260193,0.7376736402511597,0.0465927794575691
1631204298279,0.2744023501873016,0.541965663433075,0.7376736402511597,0.0465927794575691
1631204298388,0.2744023501873016,0.5099449157714844,0.7376736402511597,0.0465927794575691
1631204298513,0.2744023501873016,0.506399393081665,0.7376736402511597,0.0465927794575691
1631204298607,0.2744023501873016,0.5190483927726746,0.7376736402511597,0.0465927794575691
1631204298685,0.2744023501873016,0.5393044352531433,0.7376736402511597,0.0465927794575691
1631204298779,0.2744023501873016,0.5637139678001404,0.7376736402511597,0.0465927794575691
1631204298867,0.2744023501873016,0.5837393403053284,0.7376736402511597,0.0465927794575691
1631204298976,0.2744023501873016,0.5861205458641052,0.7376736402511597,0.0465927794575691
1631204299102,0.2744023501873016,0.5611327290534973,0.7376736402511597,0.0465927794575691
1631204299227,0.2744023501873016,0.5154323577880859,0.7376736402511597,0.0465927794575691
1631204299304,0.2744023501873016,0.475763201713562,0.7376736402511597,0.0465927794575691
1631204299398,0.2744023501873016,0.4676195681095123,1.1323785781860352,0.0465927794575691
1631204299476,0.2744023501873016,0.4905090928077698,1.0587544441223145,0.0465927794575691
1631204299570,0.2744023501873016,0.5277069807052612,1.0002005100250244,0.0465927794575691
1631204299726,0.8570861220359802,0.5596253275871277,0.9491846561431884,0.6200409531593323
1631204299807,0.8570861220359802,0.5739838480949402,0.901944100856781,0.664466142654419
1631204299901,0.8570861220359802,0.5812962651252747,0.8687877655029297,0.664466142654419
1631204299995,0.8570861220359802,0.5939313173294067,0.8626669645309448,0.664466142654419
1631204300104,0.8570861220359802,0.6208750605583191,0.4554491639137268,0.664466142654419
1631204300198,0.8570861220359802,0.6769436597824097,0.4554491639137268,0.664466142654419
1631204300339,0.8570861220359802,0.7511375546455383,0.4554491639137268,0.664466142654419
1631204300417,0.8570861220359802,0.8163557052612305,0.4554491639137268,0.664466142654419
1631204300510,0.8570861220359802,0.8575019836425781,0.4554491639137268,0.664466142654419
1631204300604,0.8570861220359802,0.8756132125854492,0.4554491639137268,0.664466142654419
1631204300713,0.8570861220359802,0.8761200308799744,0.4619088768959045,0.664466142654419
1631204300810,0.8570861220359802,0.8666382431983948,0.4827975034713745,0.664466142654419
1631204300935,0.8570861220359802,0.8495816588401794,0.492177814245224,0.727124035358429
1631204301044,0.8570861220359802,0.8275040984153748,0.4257933795452118,0.727124035358429
1631204301138,0.8570861220359802,0.8029252886772156,0.3494210243225097,0.727124035358429
1631204301232,0.8570861220359802,0.7855483293533325,0.2927704155445099,0.727124035358429
1631204301310,0.8570861220359802,0.7887932658195496,0.2956788837909698,0.727124035358429
1631204301403,0.3421927094459533,0.8116118907928467,0.3013506531715393,0.727124035358429
1631204301544,0.3421927094459533,0.8388084173202515,0.2226641029119491,0.727124035358429
1631204301625,0.3421927094459533,0.8495218753814697,0.3396341502666473,0.727124035358429
1631204301719,0.3421927094459533,0.8307849168777466,0.4540416896343231,0.727124035358429
1631204301828,0.3421927094459533,0.7887779474258423,0.6189819574356079,0.727124035358429
1631204301922,0.3421927094459533,0.7548044919967651,0.7948329448699951,0.727124035358429
1631204302016,0.3421927094459533,0.7567129731178284,0.92862731218338,0.727124035358429
1631204302156,0.3421927094459533,0.7897531986236572,1.0093462467193604,0.727124035358429
1631204302266,0.3421927094459533,0.8201487064361572,1.0489904880523682,0.727124035358429
1631204302344,0.3421927094459533,0.8435100317001343,1.0617386102676392,0.727124035358429
1631204302438,0.3421927094459533,0.8771423697471619,1.0692152976989746,0.727124035358429
1631204302547,0.3421927094459533,0.9209307432174684,1.1097166538238523,0.727124035358429
1631204302628,0.3421927094459533,0.9616661071777344,1.1445643901824951,0.727124035358429
1631204302769,0.3421927094459533,0.9876022934913636,1.1663838624954224,0.727124035358429
1631204302862,0.3421927094459533,0.9919810891151428,1.174813985824585,0.727124035358429
1631204302972,0.3421927094459533,0.976199746131897,1.173566222190857,0.727124035358429
1631204303034,0.3421927094459533,0.949306309223175,1.1665555238723757,0.727124035358429
1631204303144,0.5444604158401489,0.9227008819580078,1.1562880277633667,0.1419204920530319
1631204303222,0.4908260405063629,0.899548351764679,1.1411727666854858,0.1040206402540206
1631204303362,0.493025541305542,0.8726312518119812,1.110703945159912,0.1308388859033584
1631204303456,0.493025541305542,0.8301154375076294,1.0542711019515991,0.3236767053604126
1631204303550,0.493025541305542,0.7708699107170105,0.987390637397766,0.3236767053604126
1631204303677,0.493025541305542,0.7152944803237915,0.9596595168113708,0.3236767053604126
1631204303755,0.493025541305542,0.7092616558074951,0.9099422097206116,0.3236767053604126
1631204303849,0.493025541305542,0.74481600522995,0.8769217133522034,0.3236767053604126
1631204303974,0.493025541305542,0.7742727398872375,0.8419243693351746,0.3236767053604126
1631204304099,0.493025541305542,0.7784034013748169,0.7771400213241577,0.3236767053604126
1631204304178,0.493025541305542,0.7737793326377869,0.6946691274642944,0.3236767053604126
1631204304255,0.493025541305542,0.7806469202041626,0.6269522309303284,0.3236767053604126
1631204304365,0.3666386306285858,0.7996180653572083,0.6043753027915955,0.3216225504875183
1631204304458,0.3052090108394623,0.8141204714775085,0.6314188838005066,0.3443369269371032
1631204304599,0.3052090108394623,0.8228917717933655,0.6868230104446411,0.3991634547710418
1631204304693,0.3052090108394623,0.8287511467933655,0.763917863368988,0.3991634547710418
1631204304786,0.3052090108394623,0.8320900201797485,0.7728824615478516,0.3991634547710418
1631204304880,0.3052090108394623,0.8337290287017822,0.7707883715629578,0.3991634547710418
1631204304989,0.3052090108394623,0.8335277438163757,0.7607479095458984,0.3991634547710418
1631204305068,0.3052090108394623,0.8289937973022461,0.6621386408805847,0.3991634547710418
1631204305208,0.083436444401741,0.8130459785461426,-0.1348151415586471,0.3991634547710418
1631204305302,0.0653721168637275,0.7763660550117493,-0.1181209087371826,0.0133079309016466
1631204305380,0.0743197575211525,0.714451014995575,-0.1220365092158317,-0.027823057025671
1631204305489,0.1121281683444976,0.6312026381492615,-0.1471986919641494,-0.0670334324240684
1631204305583,0.1587326824665069,0.5379613637924194,-0.1794522851705551,-0.1023273319005966
1631204305666,0.1938755065202713,0.4340466260910034,-0.2027714103460312,-0.1370585560798645
1631204305823,0.2101630568504333,0.3088058233261108,-0.2093431949615478,-0.1584905236959457
1631204305901,0.2158651947975158,0.1806218475103378,-0.2013927996158599,-0.1543415486812591
1631204306010,0.2252752780914306,0.112263411283493,-0.1919580698013305,-0.103347398340702
1631204306119,0.2408992946147918,0.0911084935069084,-0.1913636624813079,-0.0307384636253118
1631204306182,0.2601289451122284,0.0867132991552352,-0.2023070454597473,0.042455680668354
1631204306307,0.2777004837989807,0.0797160863876342,-0.2248085290193557,0.0952013209462165
1631204306447,0.2992755174636841,0.070095770061016,-0.240816980600357,0.1259201318025589
1631204306495,0.324640542268753,0.0593088641762733,-0.2708793878555298,0.1436380892992019
1631204306639,0.345294326543808,0.0486691370606422,-0.3166282773017883,0.1495808959007263
1631204306732,0.3594260215759277,0.0352979749441146,-0.3740794658660888,0.1498099714517593
1631204306825,0.3624421656131744,0.0179865509271621,-0.4332210421562195,0.1449780911207199
1631204306903,0.3542517721652984,-0.0039586867205798,-0.4758278727531433,0.137874886393547
1631204307044,0.3343783915042877,-0.0275867879390716,-0.481943130493164,0.1351198852062225
1631204307138,0.3059755861759186,-0.0475859232246875,-0.4651960432529449,0.1411046832799911
1631204307216,0.2779346704483032,-0.0689066424965858,-0.4563646018505096,0.1599756628274917
1631204307326,0.2601645886898041,-0.0983823165297508,-0.4768861532211303,0.1830113679170608
1631204307435,0.255784273147583,-0.1499132215976715,-0.530165433883667,0.202279046177864
1631204307513,0.283926784992218,-0.2293295264244079,-0.5873520374298096,0.2283056229352951
1631204307653,0.3705098628997803,-0.3104284703731537,-0.5910504460334778,0.2874926626682281
1631204307731,0.510209321975708,-0.3495891094207763,-0.4866312444210052,0.385140061378479
1631204307825,0.6599552035331726,-0.3382979035377502,-0.3256072402000427,0.5027147531509399
1631204307919,0.7893922924995422,-0.3138853907585144,-0.1761427074670791,0.6188276410102844
1631204308013,0.8823875784873962,-0.3016486167907715,-0.0618578605353832,0.7062253952026367
1631204308091,0.9342346787452698,-0.2987965643405914,0.0073071573860943,0.7605716586112976
1631204308278,0.9581642150878906,-0.2997311055660248,0.0450956299901008,0.7913052439689636
1631204308356,0.9690005779266356,-0.301328957080841,0.0650177896022796,0.8107317686080933
1631204308435,0.972872793674469,-0.3007916212081909,0.0755549222230911,0.8204058408737183
1631204308512,0.9739760160446168,-0.2972458600997925,0.0841969847679138,0.8237148523330688
1631204308637,0.9740989804267884,-0.2919948399066925,0.0942138731479644,0.8229264616966248
1631204308735,0.9734131693840028,-0.2816581130027771,0.1052498891949653,0.8192963004112244
1631204308845,0.9718735814094543,-0.2649798095226288,0.1157961562275886,0.8147038817405701
1631204308970,0.9686249494552612,-0.2455215156078338,0.1260061115026474,0.8104495406150818
1631204309048,0.9578089118003844,-0.2366246283054351,0.1356396675109863,0.8022811412811279
1631204309141,0.9297506213188172,-0.25262051820755,0.1416584402322769,0.7839297652244568
1631204309235,0.8720065951347351,-0.2852858901023865,0.1335064172744751,0.7473108172416687
1631204309329,0.7743496298789978,-0.3088208138942718,0.1005305424332618,0.6866121888160706
1631204309454,0.6236858367919922,-0.3038095533847809,0.0420683249831199,0.5965520739555359
1631204309548,0.4136489033699035,-0.2715352177619934,-0.0336379185318946,0.4943612813949585
1631204309657,0.1863813400268554,-0.2341619282960891,-0.1004625558853149,0.4105665981769562
1631204309757,0.0359837524592876,-0.2054847925901413,-0.1440882235765457,0.3674724698066711
1631204309835,0.0287660937756299,-0.1876271963119506,-0.1643202900886535,0.3600123524665832
1631204309929,0.1071843057870864,-0.1785124540328979,-0.1706551164388656,0.3805254399776459
1631204310085,0.1879653930664062,-0.1765072047710418,-0.176740825176239,0.4080834984779358
1631204310163,0.2424679398536682,-0.1759443581104278,-0.1808012127876281,0.4298186600208282
1631204310272,0.2718970477581024,-0.1751517653465271,-0.1729453355073928,0.4391415417194366
1631204310382,0.2855523824691772,-0.1778610944747924,-0.1565570086240768,0.4430314004421234
1631204310491,0.2909269332885742,-0.1859650909900665,-0.1449490338563919,0.4448257386684418
1631204310570,0.292691558599472,-0.2024020999670028,-0.1472809314727783,0.4416629374027252
1631204310681,0.2964799106121063,-0.2198578715324401,-0.1680989265441894,0.426248699426651
1631204310806,0.3037703037261963,-0.2416799366474151,-0.2006185352802276,0.3994706273078918
1631204310899,0.3076490461826324,-0.2740095257759094,-0.2291015088558197,0.3662791848182678
1631204310977,0.3071116805076599,-0.3155487179756164,-0.245871439576149,0.3288701474666595
1631204311071,0.3034665286540985,-0.3649713397026062,-0.2446187436580658,0.2862346172332763
1631204311149,0.2921606302261352,-0.4145734906196594,-0.227210059762001,0.2389209121465683
1631204311290,0.2629696726799011,-0.4581958353519439,-0.2067837715148925,0.1882300078868866
1631204311384,0.2109048664569854,-0.4953087866306305,-0.1924703419208526,0.133345827460289
1631204311462,0.1625205129384994,-0.5278055667877197,-0.1904645711183548,0.0912234708666801
1631204311587,0.1580626517534256,-0.5501071214675903,-0.2030357122421264,0.0967104956507682
1631204311667,0.2143026292324066,-0.5626357793807983,-0.2340442240238189,0.1620006412267685
1631204311761,0.2802722454071045,-0.5656553506851196,-0.2822978496551513,0.2412358522415161
1631204311886,0.3269429504871368,-0.5477004051208496,-0.3309863805770874,0.3081573843955993
1631204312027,0.3577330708503723,-0.5157372951507568,-0.3603488802909851,0.3639110624790191
1631204312089,0.3893072605133056,-0.478836327791214,-0.3672355115413666,0.4216463267803192
1631204312183,0.4221497178077698,-0.4515025317668915,-0.3611166477203369,0.4878943562507629
1631204312277,0.4504266381263733,-0.4324573874473572,-0.3612595796585083,0.5451227426528931
1631204312402,0.4687404036521911,-0.41553795337677,-0.3689916431903839,0.5797670483589172
1631204312511,0.4772537052631378,-0.4054959714412689,-0.3774856925010681,0.5943266749382019
1631204312620,0.4799178838729858,-0.3928770124912262,-0.3899508416652679,0.5987169742584229
1631204312703,0.4805324375629425,-0.3751738667488098,-0.4004699289798736,0.6001208424568176
1631204312781,0.4785555303096771,-0.3517524600028991,-0.3980036079883575,0.5997758507728577
1631204312874,0.4694884121417999,-0.3352226018905639,-0.3900802731513977,0.5971210598945618
1631204312999,0.4486685693264007,-0.3165459632873535,-0.3656615316867828,0.5894371867179871
1631204313124,0.410971462726593,-0.2948185801506042,-0.3019364178180694,0.5710954666137695
1631204313218,0.3588520288467407,-0.2567053437232971,-0.2093466371297836,0.542962372303009
1631204313296,0.3289855718612671,-0.1975567787885666,-0.1016750335693359,0.5263465046882629
1631204313421,0.3347744643688202,-0.1270123422145843,0.0028029966633766,0.52512526512146
1631204313515,0.3535787463188171,-0.0620033927261829,0.083564855158329,0.5245429277420044
1631204313593,0.3555456697940826,-0.0162349082529544,0.137572094798088,0.5079407095909119
1631204313737,0.3351380825042724,0.0066138696856796,0.166898027062416,0.4605493247509002
1631204313846,0.3054279088973999,0.0108746169134974,0.1792483776807785,0.4026244282722473
1631204313924,0.2904326617717743,0.0079700015485286,0.1822035610675811,0.3640639185905456
1631204314018,0.287117451429367,0.0047327987849712,0.1828070133924484,0.3564141392707824
1631204314111,0.2865402400493622,-0.0006931067910045,0.1823518574237823,0.3656845390796661
1631204314189,0.2841317653656006,-0.0085931541398167,0.1800757348537445,0.377341091632843
1631204314362,0.2810240089893341,-0.0194605886936187,0.1744695603847503,0.3833249509334564
1631204314424,0.2807972133159637,-0.0285007581114768,0.1690385639667511,0.3807380199432373
1631204314533,0.2865210771560669,-0.0396995544433593,0.1652822196483612,0.3786782324314117
1631204314627,0.3129684925079345,-0.0540496222674846,0.1575860679149627,0.3969146907329559
1631204314724,0.3794370591640472,-0.0824630558490753,0.1404234617948532,0.4439972341060638
1631204314802,0.3580826818943023,-0.1342053115367889,0.1341642439365387,0.4340002834796905
1631204314974,0.314849704504013,-0.21491639316082,0.1775382161140442,0.4031483829021454
1631204315052,0.2665702700614929,-0.305474579334259,0.2915718555450439,0.3643343448638916
1631204315161,0.2342691272497177,-0.3509922325611114,0.444873571395874,0.3331860899925232
1631204315255,0.2292602509260177,-0.3029348254203796,0.4542108476161957,0.3289279341697693
1631204315364,0.2392247319221496,-0.2088450640439987,0.4757944941520691,0.3362332284450531
1631204315443,0.2461884319782257,-0.1044324189424514,0.5063230395317078,0.3438213765621185
1631204315583,0.2638819217681885,0.0079185282811522,0.5413706302642822,0.3481495082378387
1631204315662,0.3011937141418457,0.1097694262862205,0.7795990705490112,0.3580534756183624
1631204315774,0.3622958064079284,0.1809425354003906,0.9203197956085204,0.3817428350448608
