timestamp,TP9,AF7,AF8,TP10
1631204135312,1.2968778610229492,0.2380770444869995,0.0574971176683902,1.3575711250305176
1631204135406,1.2968778610229492,0.2400562614202499,0.0611326396465301,1.3575711250305176
1631204135484,1.2968778610229492,0.243377223610878,0.063686579465866,1.3575711250305176
1631204135578,1.302886128425598,0.2440960258245468,0.0708146467804908,1.3575711250305176
1631204135687,1.302886128425598,0.2440960258245468,0.0708146467804908,1.3575711250305176
1631204135828,1.302886128425598,0.2440960258245468,0.0708146467804908,1.3575711250305176
1631204135922,1.302886128425598,0.2440960258245468,0.060230478644371,1.3575711250305176
1631204136015,1.302886128425598,0.2440960258245468,0.0343675687909126,1.3575711250305176
1631204136109,1.302886128425598,0.2440960258245468,-0.003935710992664,1.3575711250305176
1631204136219,1.302886128425598,0.2440960258245468,-0.033111035823822,1.3575711250305176
1631204136281,1.302886128425598,0.2520475685596466,-0.033111035823822,1.3556420803070068
1631204136406,1.285639405250549,0.2891240417957306,-0.0269619952887296,1.3533130884170532
1631204136518,1.277687907218933,0.308737963438034,-0.0156600549817085,1.3511781692504885
1631204136612,1.277687907218933,0.3088497221469879,0.0022468545939773,1.3511226177215576
1631204136737,1.251286864280701,0.300879567861557,-0.0022551903966814,0.519469141960144
1631204136783,1.1700938940048218,0.2817287147045135,-0.0217365343123674,0.5636324882507324
1631204136908,1.0489040613174438,0.2684449851512909,-0.0252366922795772,0.5639697909355164
1631204137033,0.9804126024246216,0.263507068157196,-0.0298900827765464,0.5639697909355164
1631204137127,0.9402989745140076,0.2378449887037277,-0.0476422570645809,0.5639697909355164
1631204137221,0.9083157181739808,0.2110269665718078,-0.0426356568932533,0.5639697909355164
1631204137299,0.8958476781845093,0.2087367177009582,-0.040292702615261,0.5639697909355164
1631204137393,0.8958476781845093,0.222313642501831,-0.040292702615261,0.5654870271682739
1631204137502,0.8958476781845093,0.2370370179414749,-0.040292702615261,0.5666599273681641
1631204137627,0.8958476781845093,0.254410982131958,-0.040292702615261,0.5775411128997803
1631204137721,0.8958476781845093,0.2608402371406555,-0.0330564454197883,0.5991579294204712
1631204137830,0.9788734316825868,0.2609131336212158,-0.0130832679569721,0.6088709831237793
1631204137908,0.9820817708969116,0.2609131336212158,-0.000406889768783,0.60904461145401
1631204138033,0.986565351486206,0.2457553148269653,0.0121714863926172,0.60904461145401
1631204138127,0.987976610660553,0.2095447182655334,-0.0153760630637407,0.60904461145401
1631204138299,0.9979916214942932,0.1765598058700561,-0.1053207516670227,0.6199116706848145
1631204138361,1.00885808467865,0.1689643561840057,-0.1971981972455978,0.59224534034729
1631204138439,1.0155959129333496,0.1582747101783752,-0.2188722789287567,0.5143734216690063
1631204138533,1.0254197120666504,0.1496821790933609,-0.221531331539154,0.5058251023292542
1631204138611,1.027234435081482,0.1415181159973144,-0.221531331539154,0.5058251023292542
1631204138736,1.0285258293151855,0.1311675161123275,-0.221531331539154,0.5082733035087585
1631204138848,1.0285258293151855,0.1211827173829078,-0.2247072458267212,0.5082733035087585
1631204138957,1.0422886610031128,0.1137453839182853,-0.1787500381469726,0.5081709623336792
1631204139067,1.011458396911621,0.1061424687504768,-0.0555975288152694,0.521865963935852
1631204139160,0.9504238963127136,0.1007101908326149,0.0381670892238616,0.5941975116729736
1631204139254,0.9650166630744934,0.0930216014385223,0.0859030112624168,0.6691495180130005
1631204139332,0.9938699007034302,0.0525984242558479,0.09351397305727,0.7110027074813843
1631204139473,0.9881719946861268,-0.0166872404515743,0.0891299098730087,0.7229347825050354
1631204139583,0.9868156909942628,-0.0541178546845912,0.0716468468308448,0.7421922087669373
1631204139676,0.9868156909942628,-0.0839729458093643,0.0531731992959976,0.7613575458526611
1631204139738,0.9868156909942628,-0.1102203056216239,0.0501510687172412,0.7749818563461304
1631204139832,0.9868156909942628,-0.1271117478609085,0.0556574277579784,0.7969689965248108
1631204139957,0.9868156909942628,-0.140667974948883,0.0556574277579784,0.8051464557647705
1631204140082,0.9841260313987732,-0.1420247852802276,0.0556574277579784,0.8069468140602112
1631204140160,0.982408046722412,-0.1404700130224228,0.0556574277579784,0.8069468140602112
1631204140270,0.9745932817459106,-0.1221241578459739,0.0556574277579784,0.8069468140602112
1631204140363,0.9614322185516356,-0.1125612333416938,0.0556574277579784,0.8069468140602112
1631204140457,0.9439926743507384,-0.0824202448129654,0.056563850492239,0.8069468140602112
1631204140551,0.930690050125122,-0.0439604260027408,0.0638224706053733,0.8069468140602112
1631204140676,0.9640737175941468,-0.034684345126152,0.0524345934391021,0.8069468140602112
1631204140785,0.9921910762786864,-0.0329285450279712,0.0257723275572061,0.8012209534645081
1631204140879,0.992364227771759,-0.0343413800001144,-0.0329112373292446,0.8036214709281921
1631204140972,0.9486228227615356,-0.0347747094929218,-0.1138138398528099,0.803769052028656
1631204141082,0.9174866676330566,-0.0253365729004144,-0.2185185998678207,0.8070333003997803
1631204141160,0.9145361185073853,0.0060641490854322,-0.2933403849601745,0.7944250702857971
1631204141316,0.9100568890571594,0.0193341448903083,-0.292074978351593,0.7667803764343262
1631204141410,0.9063604474067688,0.0149609912186861,-0.2816236019134521,0.7080250978469849
1631204141488,0.8869055509567261,0.0112578757107257,-0.267867237329483,0.5786585807800293
1631204141597,0.8927897810935974,0.019431946799159,-0.2542198598384857,0.4887993037700653
1631204141660,0.9336279034614564,0.0244415085762739,-0.2384881526231765,0.5268815159797668
1631204141769,0.9556766748428344,0.0292352549731731,-0.2178620249032974,0.598727285861969
1631204141900,0.9935522079467772,0.0373337864875793,-0.2073629796504974,0.635797381401062
1631204141994,1.0049717426300049,0.0676367655396461,-0.211026057600975,0.6479911208152771
1631204142088,1.0195173025131226,0.0752246677875518,-0.2091344892978668,0.6534285545349121
1631204142197,1.024372100830078,0.0521110966801643,-0.2025015503168106,0.6444288492202759
1631204142276,1.0355795621871948,0.0152572663500905,-0.1459055244922638,0.6395606994628906
1631204142400,1.0738922357559204,0.0016140824882313,-0.0650850385427475,0.625216543674469
1631204142525,1.1024773120880127,0.0071864915080368,-0.0189048703759908,0.5934796333312988
1631204142650,1.1033953428268433,0.0078063770197331,-0.0189048703759908,0.5596504807472229
1631204142759,1.1033953428268433,0.006429717876017,-0.0189048703759908,0.5445610880851746
1631204142826,1.1033953428268433,0.006429717876017,-0.0189048703759908,0.5349485278129578
1631204142888,1.1033953428268433,0.0100750587880611,-0.0189048703759908,0.5306417942047119
1631204142982,1.1033953428268433,0.0273922067135572,-0.0189048703759908,0.5273261666297913
1631204143138,1.1033953428268433,0.0404391027987003,-0.0218276642262935,0.5117580890655518
1631204143232,1.1033953428268433,0.0438421294093132,-0.0371579639613628,0.5008822679519653
1631204143341,1.1033953428268433,0.0376831255853176,-0.0554313920438289,0.5008822679519653
1631204143404,1.0936264991760254,0.0295656323432922,-0.0712142884731292,0.5008822679519653
1631204143513,1.076246738433838,0.0439146198332309,0.0195255763828754,0.5008822679519653
1631204143607,1.0698219537734983,0.0243867803364992,0.1188896372914314,0.5008822679519653
1631204143748,1.0681664943695068,0.0345379225909709,0.1267110407352447,0.5008822679519653
1631204143796,1.0673081874847412,0.0499667823314666,0.1293995827436447,0.5008822679519653
1631204143907,1.052308440208435,0.0499753542244434,0.1334040015935897,0.5008822679519653
1631204144017,1.0341989994049072,0.0499753542244434,0.1345027387142181,0.5008822679519653
1631204144126,1.0341989994049072,0.043413009494543,0.1345027387142181,0.5008822679519653
1631204144189,1.0341989994049072,0.023912027478218,0.1345027387142181,0.5008822679519653
1631204144345,1.0341989994049072,-0.0002552046789787,0.1347653865814209,0.5008822679519653
1631204144454,1.0341989994049072,-0.0092069460079073,0.137392908334732,0.5008822679519653
1631204144532,0.8974860310554504,-0.0025814452674239,0.1416453868150711,0.5008822679519653
1631204144642,0.8986476063728333,0.0005907291197218,0.1440040469169616,0.5008822679519653
1631204144735,0.8926953673362732,0.0005907291197218,0.1458387672901153,0.1319094598293304
1631204144813,0.7785443663597107,0.0117279160767793,0.1484452486038208,0.1509734392166137
1631204144986,0.8582627177238464,0.0406102016568183,0.1475571691989898,0.1765266954898834
1631204145032,0.9715120792388916,0.0529470779001712,0.1489875614643097,0.2326200008392334
1631204145157,1.0446282625198364,0.0085542108863592,0.1203570216894149,0.2933543026447296
1631204145235,1.0619274377822876,-0.0206873174756765,0.0168570335954427,0.3135848343372345
1631204145329,1.0619274377822876,-0.0223766379058361,-0.0373643264174461,0.3135848343372345
1631204145423,1.0619274377822876,-0.0223766379058361,-0.0520388893783092,0.3135848343372345
1631204145563,1.0619274377822876,-0.0223766379058361,-0.0292321294546127,0.3135848343372345
1631204145657,1.0619274377822876,-0.0192993320524692,-0.0329943113029003,0.3135848343372345
1631204145735,1.0619274377822876,-0.0106970751658082,-0.0403313636779785,0.3135848343372345
1631204145847,1.0619274377822876,0.0009626821847632,-0.0418175533413887,0.3135848343372345
1631204145925,1.0619274377822876,0.0185696557164192,-0.0418175533413887,0.3135848343372345
1631204146034,1.0619274377822876,0.0145999770611524,-0.0418175533413887,0.3135848343372345
1631204146159,1.0585001707077026,0.0145999770611524,-0.0525893084704875,0.2990392446517944
1631204146268,1.03202223777771,0.0295276883989572,-0.0695040822029113,0.2535291314125061
1631204146362,0.9920987486839294,0.0373547561466693,-0.0703078955411911,0.2139610946178436
1631204146456,0.9920987486839294,0.045639544725418,-0.0703078955411911,0.2139610946178436
1631204146534,0.9920987486839294,0.0429751984775066,0.1419453620910644,0.2139610946178436
1631204146643,0.9920987486839294,0.0259698778390884,0.214069053530693,0.2139610946178436
1631204146784,0.9920987486839294,0.0335835516452789,0.1989377737045288,0.2139610946178436
1631204146878,0.9920987486839294,0.1082183420658111,0.184772327542305,0.2139610946178436
1631204146987,0.9920987486839294,0.2047377377748489,0.184772327542305,0.2139610946178436
1631204147065,0.9920987486839294,0.2047377377748489,0.184772327542305,0.2139610946178436
1631204147159,0.9920987486839294,0.2047377377748489,0.184772327542305,0.2139610946178436
1631204147237,0.9920987486839294,0.2046558260917663,0.184772327542305,0.2139610946178436
1631204147393,0.9920987486839294,0.2035378068685531,0.184772327542305,0.2139610946178436
1631204147487,0.9920987486839294,0.2034870088100433,0.184772327542305,0.2139610946178436
1631204147581,0.9920987486839294,0.2034428864717483,0.184772327542305,0.2139610946178436
1631204147659,0.9920987486839294,0.2025506943464279,0.184772327542305,0.2139610946178436
1631204147753,0.9920987486839294,0.2002830952405929,0.184772327542305,0.2139610946178436
1631204147880,0.9920987486839294,0.188803419470787,0.184772327542305,0.2139610946178436
1631204148005,0.9920987486839294,0.1807356774806976,0.184772327542305,0.2139610946178436
1631204148083,0.9920987486839294,0.1784628033638,0.184772327542305,0.2139610946178436
1631204148192,0.9920987486839294,0.1784628033638,0.184772327542305,0.2139610946178436
1631204148270,0.9920987486839294,0.1784628033638,0.184772327542305,0.2139610946178436
1631204148364,0.9920987486839294,0.1784628033638,0.184772327542305,0.2139610946178436
1631204148473,0.9920987486839294,0.1784628033638,0.184772327542305,0.2139610946178436
1631204148616,0.9920987486839294,0.1784628033638,0.184772327542305,0.2139610946178436
1631204148710,0.9920987486839294,-0.0684871599078178,0.184772327542305,0.2139610946178436
1631204148804,0.9920987486839294,-0.0420690923929214,0.184772327542305,0.2139610946178436
1631204148898,0.9920987486839294,0.054205160588026,0.184772327542305,0.2139610946178436
1631204148976,0.9920987486839294,0.2025431543588638,0.184772327542305,0.2139610946178436
1631204149054,0.9920987486839294,0.2818431258201599,0.184772327542305,0.2139610946178436
1631204149210,0.9920987486839294,0.3115710020065307,0.184772327542305,0.2139610946178436
1631204149304,0.9920987486839294,0.3231657147407532,0.184772327542305,0.2139610946178436
1631204149398,0.9920987486839294,0.3368667662143707,0.184772327542305,0.2139610946178436
1631204149491,0.9920987486839294,0.3391725420951843,0.184772327542305,0.2139610946178436
1631204149601,0.9920987486839294,0.3408002555370331,0.4048745036125183,0.2139610946178436
1631204149694,0.9920987486839294,0.3530517518520355,0.4171063303947449,0.2139610946178436
1631204149821,0.9920987486839294,0.3642515540122986,0.4192062616348266,0.2139610946178436
1631204149915,0.9920987486839294,0.3719826340675354,0.424397349357605,0.2139610946178436
1631204150024,0.9920987486839294,0.3719826340675354,0.4297167956829071,0.2139610946178436
1631204150103,0.9920987486839294,0.3719826340675354,0.4297167956829071,0.2139610946178436
1631204150274,0.8928187489509583,0.3719826340675354,0.4297167956829071,0.6300718188285828
1631204150337,0.896830677986145,0.3719826340675354,0.4297167956829071,0.6310423016548157
1631204150480,0.9034913182258606,0.3719826340675354,0.4297167956829071,0.6310423016548157
1631204150559,0.909371852874756,0.3715983033180237,0.4297167956829071,0.6310423016548157
1631204150637,0.9142708778381348,0.3531020581722259,0.4297167956829071,0.6310423016548157
1631204150730,0.9209129810333252,0.3036297559738159,0.4297167956829071,0.6310423016548157
1631204150809,0.9235213398933412,0.2487371265888214,0.2856846451759338,0.6310423016548157
1631204150918,0.9235213398933412,0.2087302207946777,0.2318035364151001,0.6310423016548157
1631204151043,0.9257525205612184,0.1850744485855102,0.2449250370264053,0.6447734236717224
1631204151151,0.9367650747299194,0.1874627023935318,0.2518540024757385,0.6721463203430176
1631204151215,0.9508059024810792,0.2510496973991394,0.2395328134298324,0.7186944484710693
1631204151367,0.9546695947647096,0.2827246785163879,0.2115801125764846,0.7546836733818054
1631204151554,0.9503825902938844,0.2646425068378448,0.1808972954750061,0.7333422303199768
1631204151728,0.9192704558372498,0.2371157109737396,0.1402419209480285,0.662795901298523
1631204151885,0.8405702710151672,0.2185285985469818,0.1004604920744896,0.6094138026237488
1631204152056,0.8354966640472412,0.2232379168272018,0.0981360673904419,0.583778977394104
1631204152197,0.8570947051048279,0.2390565276145935,0.0981360673904419,0.5731086134910583
1631204152384,0.8666371703147888,0.2779489457607269,0.0912836641073226,0.5734632015228271
1631204152572,0.874628484249115,0.3012179434299469,0.1011291071772575,0.5741692185401917
1631204152759,0.9014761447906494,0.3215056359767914,0.1271287947893142,0.5731337666511536
1631204152947,0.9240676164627076,0.3327960669994354,0.1148621216416359,0.5553058981895447
1631204153103,0.9218274354934692,0.3327960669994354,0.110420823097229,0.5381917953491211
1631204153259,0.9160390496253968,0.3327960669994354,0.110420823097229,0.5351898670196533
1631204153415,0.9286625981330872,0.3327960669994354,0.110420823097229,0.524178147315979
1631204153619,1.0211454629898071,0.3327960669994354,0.1072025671601295,0.5159002542495728
1631204153777,1.1876792907714844,0.3327960669994354,0.072746954858303,0.4835164248943329
1631204153980,1.328626275062561,0.3166243433952331,0.014972005970776,0.3940532505512237
1631204154136,1.3919165134429932,0.2679707407951355,0.0395529046654701,0.2186272591352462
1631204154293,1.3931198120117188,0.2414204329252243,0.0769701674580574,0.0014947584131732
1631204154480,1.3931198120117188,0.2187641859054565,0.0957538411021232,-0.0504425577819347
1631204154683,1.3931198120117188,0.2085634469985962,0.0957538411021232,-0.0504425577819347
1631204154870,1.3931198120117188,0.2138902842998504,0.0957538411021232,-0.0504425577819347
1631204155058,1.3931198120117188,0.2091105133295059,0.1004303693771362,-0.065990962088108
1631204155230,1.3931198120117188,0.159008502960205,0.1238750144839286,-0.1994378119707107
1631204155402,1.3928732872009275,0.1117416247725486,0.1495239585638046,-0.1994378119707107
1631204155636,1.3916250467300415,0.0737352222204208,0.1883632093667984,-0.1994378119707107
1631204155810,1.3815722465515137,0.031953141093254,0.2033771872520446,-0.1994378119707107
1631204156013,1.3792507648468018,0.0263439510017633,0.2037839889526367,-0.1994378119707107
1631204156201,1.3792507648468018,0.0263439510017633,0.2215545922517776,0.3473595082759857
1631204156388,1.3753870725631714,0.0263439510017633,0.2389178276062011,0.3473595082759857
1631204156623,1.3684688806533811,0.0263439510017633,0.2405734211206436,0.3473595082759857
1631204156826,1.365381360054016,0.0248075574636459,0.2405734211206436,0.3473595082759857
1631204157044,1.3135278224945068,0.018057681620121,0.2398150116205215,0.3473595082759857
1631204157232,0.8168150782585144,0.010671317577362,0.2397824674844741,0.3483189046382904
1631204157466,0.8168150782585144,-0.0113475490361452,0.2371729910373687,0.3497883081436157
1631204157700,0.8168150782585144,-0.0571361258625984,0.2273950427770614,0.3587782382965088
1631204157919,0.8168150782585144,-0.1069987639784812,0.2135117650032043,0.3869100213050842
1631204158138,0.8169842958450317,-0.1900759488344192,0.1935443431138992,0.4223224818706512
1631204158310,0.8258984088897705,-0.2903392314910888,0.1849536448717117,0.4310419261455536
1631204158546,0.8327264189720154,-0.3962045907974243,0.1837562620639801,0.4311454594135284
1631204158812,0.8359696269035339,-0.4628260731697082,0.1607185900211334,0.4226242303848266
1631204159046,0.8358694911003113,-0.4725634455680847,0.1072280555963516,0.4213769137859344
1631204159234,0.8026036620140076,-0.3685466945171356,0.0671174749732017,0.4165805578231811
1631204159452,0.7939369082450867,-0.1198553219437599,0.0926706418395042,0.401378720998764
1631204159688,0.7939369082450867,0.0993481129407882,0.2241126149892807,0.3821733295917511
1631204159987,0.7939369082450867,0.2440491318702697,0.2928989827632904,0.3665642738342285
1631204160237,0.7808250784873962,0.2858917713165283,0.3158109486103058,0.3631434142589569
1631204160455,0.7360785603523254,0.2945726215839386,0.323783814907074,0.3597429096698761
1631204160784,0.6931023001670837,0.2953780591487884,0.3252394497394562,0.3432466089725494
1631204161049,0.6781985759735107,0.2957201302051544,0.3252394497394562,0.3242455124855041
1631204161346,0.6745893359184265,0.2957201302051544,0.3252394497394562,0.3126938641071319
1631204161611,0.6745893359184265,0.295880913734436,0.3252394497394562,0.2989272177219391
1631204161924,0.6745893359184265,0.2988913059234619,0.3252394497394562,0.2989272177219391
1631204162111,0.8945439457893372,0.3029051125049591,0.3252394497394562,0.2989272177219391
1631204162189,0.9247569441795348,0.3044414520263672,0.3252394497394562,0.2989272177219391
1631204162736,0.9370511770248412,0.3051630556583404,0.3200210928916931,0.2989272177219391
1631204162892,0.9370511770248412,0.330744057893753,0.3400058448314667,0.2989272177219391
1631204163470,0.9370511770248412,0.39813032746315,0.4433915913105011,0.2989272177219391
1631204163830,0.9370511770248412,0.39813032746315,0.4433468580245971,0.2989272177219391
1631204164095,0.9370511770248412,0.39813032746315,0.4433468580245971,0.2989272177219391
1631204164345,0.9370511770248412,0.4109056890010834,0.4433468580245971,0.2989272177219391
1631204164644,0.9370511770248412,0.4712156951427459,0.4413086175918579,0.2989272177219391
1631204164832,0.9370511770248412,0.5857046842575073,0.4362903535366058,0.2989272177219391
1631204165113,0.9370511770248412,0.5725361704826355,0.2832154631614685,0.2989272177219391
1631204165316,0.9370511770248412,0.5532848238945007,0.0210690330713987,0.2989272177219391
1631204165553,0.9370511770248412,0.5532848238945007,0.0210690330713987,0.2989272177219391
1631204165834,0.9370511770248412,0.5145127773284912,0.0210690330713987,0.2989272177219391
1631204166662,0.9370511770248412,0.4430292248725891,0.0210690330713987,0.2989272177219391
1631204166805,0.9370511770248412,0.4430292248725891,0.0210690330713987,0.2989272177219391
1631204167602,0.9370511770248412,0.4430292248725891,0.0210690330713987,0.2989272177219391
1631204167883,0.9370511770248412,0.4430292248725891,0.651271402835846,0.2989272177219391
1631204168133,0.9370511770248412,0.4430292248725891,0.6557464003562927,0.2989272177219391
1631204168667,0.9370511770248412,0.4430292248725891,0.7112802267074585,0.2989272177219391
1631204169616,0.9370511770248412,0.4430292248725891,0.7112802267074585,0.2989272177219391
1631204170475,0.9370511770248412,0.4430292248725891,0.6444437503814697,0.2989272177219391
1631204170790,0.9370511770248412,0.4594522416591644,0.9131625294685364,0.2989272177219391
1631204172325,0.9429706931114196,0.5017262697219849,0.9131625294685364,0.7436058521270752
1631204172496,0.9429706931114196,0.5017262697219849,0.9131625294685364,0.7436058521270752
1631204172655,0.9429706931114196,0.5025267004966736,0.9131625294685364,0.7436058521270752
1631204172796,0.9429706931114196,0.4895907342433929,0.9131625294685364,0.7436058521270752
1631204173343,0.9429706931114196,0.3283609449863434,0.3088627159595489,0.7436058521270752
1631204174423,0.9429706931114196,0.3402981162071228,0.1188098341226577,0.7436058521270752
1631204175253,1.2930089235305786,0.1725633591413498,0.1180002614855766,0.923792004585266
1631204175378,1.2971266508102417,0.160557672381401,0.1247277036309242,0.958221971988678
1631204175550,1.2971266508102417,0.1482540518045425,0.136144757270813,1.0056278705596924
1631204176112,1.3046773672103882,0.1452009677886963,0.1392044872045517,1.0996054410934448
1631204176347,1.3046773672103882,0.1449146717786789,0.099343754351139,1.109571099281311
1631204176881,1.1656720638275146,-0.0096271084621548,0.0517706386744976,1.0624125003814695
1631204177006,1.1232264041900637,-0.0304781924933195,0.0211000200361013,1.09315824508667
1631204177647,1.0366334915161133,0.1140080466866493,-0.0848150849342346,1.111337423324585
1631204177740,0.9851138591766356,0.1286164373159408,-0.1074607893824577,1.092421293258667
1631204178087,0.904207170009613,0.0771460011601448,-0.1712283343076706,0.9470512866973876
1631204180034,1.0983541011810305,-0.0101608866825699,0.0259368289262056,1.0838332176208496
1631204180534,1.1155844926834106,-0.0844247341156005,0.0550913326442241,1.0687272548675537
1631204181636,1.2670602798461914,-0.0370229594409465,-0.1501787155866623,1.2355858087539673
1631204181854,1.2658538818359375,-0.0416031293570995,-0.1451607346534729,1.2355858087539673
1631204182845,1.1972026824951172,-0.1265353709459304,-0.0426599122583866,1.0340957641601562
1631204183142,1.1740095615386963,-0.205650120973587,-0.0419623404741287,0.9932055473327636
1631204183439,1.1528453826904297,-0.2674211859703064,0.1598947048187255,1.2037652730941772
1631204183548,1.1035313606262207,-0.2396494299173355,0.2253571599721908,1.2160805463790894
1631204184035,1.1521893739700315,-0.2989410758018493,0.2324341833591461,1.2181626558303833
1631204185150,1.2189610004425049,-0.0141333350911736,0.1362342685461044,1.2297053337097168
1631204185837,1.2081691026687622,-0.0265655312687158,0.0565565042197704,1.269359111785889
1631204185915,1.2081691026687622,-0.0392676033079624,0.0580869242548942,1.269359111785889
1631204186502,1.1710261106491089,-0.0587464533746242,-0.1038780361413955,1.2460250854492188
1631204187030,1.0423928499221802,-0.1270775943994522,-0.0576633065938949,1.219768762588501
1631204187144,1.0306248664855957,-0.1243228837847709,-0.0576633065938949,1.219768762588501
1631204187234,1.0146068334579468,-0.114027701318264,-0.0576633065938949,1.2121211290359497
1631204188258,0.7421590685844421,-0.2947754859924316,0.7080894112586975,0.9107102751731871
1631204188661,0.688049852848053,-0.3338665068149566,0.7080894112586975,0.7760644555091858
1631204188794,0.688049852848053,-0.3338665068149566,0.7080894112586975,0.7760644555091858
1631204190150,1.038326382637024,-0.2035035938024521,-0.2073879539966583,0.7741605043411255
1631204190354,1.0614148378372192,-0.195768341422081,-0.0887444093823432,0.7741605043411255
1631204190753,1.0966733694076538,-0.1837333291769027,-0.0565424486994743,0.665972888469696
1631204191305,1.0841190814971924,0.1269150525331497,-0.1136823594570159,0.5283476710319519
1631204192215,0.8106468319892883,0.5029277801513672,0.1078373119235038,0.3308327198028564
1631204193162,0.8004993200302124,0.5013456344604492,0.5836948156356812,0.3085823953151703
1631204193428,0.8004993200302124,0.4533795416355133,0.5836948156356812,0.3085823953151703
1631204193936,1.1373436450958252,0.5454000234603882,0.6709023118019104,0.8491467833518982
1631204194710,1.169134259223938,0.5696268677711487,0.5956221222877502,0.959160566329956
1631204194957,1.1450726985931396,0.557650089263916,0.5956221222877502,0.968753695487976
1631204195367,1.0291626453399658,0.0613573938608169,0.104530282318592,0.8897728323936462
1631204196369,1.039785623550415,0.1266642212867736,0.2011590749025344,0.5676677823066711
1631204196809,0.8414740562438965,0.1879843026399612,0.2027060538530349,0.3191853761672973
1631204196872,0.8401996493339539,0.1879843026399612,0.1856248825788498,0.3499640822410583
1631204197325,0.8330959677696228,0.1473414301872253,0.1584218442440033,0.4680374264717102
1631204197387,0.8330894708633423,0.1473414301872253,0.1584218442440033,0.4698412716388702
1631204198109,0.9122251868247986,0.084907442331314,0.4225684702396393,0.5149851441383362
1631204199767,0.6433892250061035,0.4803833961486816,0.5783990025520325,0.5448578596115112
1631204199861,0.6433892250061035,0.4803833961486816,0.5783990025520325,0.5448578596115112
1631204199939,0.6433892250061035,0.4509117305278778,0.5783990025520325,0.5448578596115112
1631204200693,0.6433892250061035,0.2097187787294387,0.2885923385620117,0.5448578596115112
1631204201192,0.6433892250061035,0.2815790474414825,0.2885923385620117,0.5448578596115112
1631204201602,1.0620981454849243,0.2852840423583984,0.2456738352775573,1.1179929971694946
1631204202086,1.397929310798645,0.0767759010195732,0.0661669448018074,1.246482253074646
1631204202351,1.5010875463485718,0.0753901675343513,0.2053444385528564,1.3230358362197876
1631204202539,1.5010875463485718,0.0753901675343513,0.2231835424900055,1.348360538482666
1631204202617,1.5010875463485718,0.0764425992965698,0.2202876806259155,1.3509668111801147
1631204202679,1.5010875463485718,0.0778476521372795,0.2156148552894592,1.35194730758667
1631204203073,1.472866177558899,0.0226039737462997,0.2210290729999542,1.3511767387390137
1631204203510,1.33846914768219,0.098596304655075,0.0939520001411438,1.2014763355255127
1631204203963,0.8379825353622437,0.2769432067871094,-0.139105811715126,0.841029942035675
1631204204026,0.8379825353622437,0.2781161665916443,-0.139105811715126,0.8620717525482178
1631204204463,0.8998335599899292,0.2838093936443329,-0.2555643618106842,0.975828230381012
1631204204557,0.9110460877418518,0.2838093936443329,-0.2193569093942642,1.022589921951294
1631204204619,0.9223501682281494,0.2799111008644104,-0.1736977398395538,1.0622457265853882
1631204204916,0.933387279510498,0.2046746760606765,0.011761600151658,1.1077680587768557
1631204204994,0.94134783744812,0.1600103676319122,0.0178978517651557,1.1208255290985107
1631204205369,1.0004844665527344,0.0218765586614608,0.0315440706908702,1.1377108097076416
1631204205432,1.0143626928329468,0.013232884928584,0.0315440706908702,1.1557204723358154
1631204205541,1.0295320749282837,-0.0072541590780019,0.0315440706908702,1.1928435564041138
1631204205809,1.0829787254333496,-0.109016329050064,0.0550856105983257,1.2162189483642578
1631204205887,1.0829787254333496,-0.1354382336139679,0.0380779765546321,1.2033412456512451
1631204205934,1.0829787254333496,-0.102112628519535,0.0190621670335531,1.1847529411315918
1631204206169,1.053717017173767,0.0774331465363502,0.0573020093142986,1.107183575630188
1631204206215,1.091907262802124,0.1025421172380447,0.0415051691234111,1.1185673475265503
1631204206653,1.1999410390853882,0.1811618953943252,0.0268587153404951,1.141175389289856
1631204207140,1.1879063844680786,0.1811618953943252,-0.0671779662370681,1.0860316753387451
1631204207234,1.1879063844680786,0.1793901175260543,-0.0250563099980354,1.0896461009979248
1631204207312,1.1891440153121948,0.1251145750284195,-0.0085081635043025,1.072439670562744
1631204207718,1.1947708129882812,-0.1143137216567993,0.0837383717298507,1.161593317985535
1631204207816,1.179424524307251,-0.1886405795812606,0.0837383717298507,1.1569486856460571
1631204207972,1.1738290786743164,-0.2811574935913086,0.0837383717298507,1.1370246410369873
1631204208222,1.1553692817687988,-0.2220087796449661,0.0837383717298507,1.1267253160476685
1631204208316,1.1722705364227295,-0.2215945124626159,0.0837383717298507,1.1267253160476685
1631204208363,1.1909329891204834,-0.2219711691141128,0.0837383717298507,1.1267253160476685
1631204208613,1.191881775856018,-0.2313647270202636,0.0426078662276268,1.0162888765335083
1631204208757,1.0741664171218872,-0.2424850612878799,0.0072104930877685,0.9907907247543336
1631204208836,1.0503852367401123,-0.2424850612878799,0.0142194218933582,1.1859186887741089
1631204209117,1.081173539161682,-0.2485346645116806,-0.0166043937206268,1.2516766786575315
1631204209164,1.092887043952942,-0.2391006052494049,-0.0173574183136224,1.2578872442245483
1631204209445,1.1279752254486084,-0.1604183465242386,0.060431957244873,1.269852638244629
1631204209554,1.1711413860321045,-0.1505144983530044,0.091378778219223,1.2888847589492798
1631204209617,1.1702702045440674,-0.1370576918125152,0.1116579324007034,1.299343228340149
1631204209710,1.1726199388504028,-0.1091586202383041,0.1219026744365692,1.3012003898620603
1631204209916,1.1777174472808838,-0.058630496263504,0.1362434178590774,1.2891950607299805
1631204210057,1.1835224628448486,-0.058630496263504,0.0906088426709175,1.2657694816589355
1631204210119,1.2014495134353638,-0.0330053381621837,0.0906088426709175,1.2657694816589355
1631204210338,1.1919175386428833,0.1288052797317505,0.0919790938496589,1.2411718368530271
1631204210400,1.1888883113861084,0.1387384086847305,0.0932745337486267,1.2351963520050049
1631204210603,1.2173070907592771,0.1340950727462768,0.0932745337486267,1.2334009408950806
1631204210748,1.2173070907592771,0.1340950727462768,0.0906133130192756,1.231892704963684
1631204210873,1.2734709978103638,0.1131921857595443,0.0370059795677661,1.2612131834030151
1631204210966,1.2743282318115234,0.0928637906908989,-0.0646512359380722,1.2631460428237915
1631204211029,1.2743282318115234,0.0903246626257896,-0.1526344120502472,1.263830065727234
1631204211279,1.2728132009506226,0.1417669057846069,-0.3391947746276855,1.2581133842468262
1631204211357,1.2728132009506226,0.1417669057846069,-0.3498614430427551,1.2563048601150513
1631204211498,1.2728132009506226,0.0809450447559356,-0.3311478197574615,1.2601826190948486
1631204211623,1.2196321487426758,6.735962961101905e-05,-0.0079052951186895,1.2693933248519895
1631204211701,1.204120635986328,0.0035521476529538,0.0901844799518585,1.2693933248519895
1631204211766,1.2618178129196167,-0.0023960459511727,0.157705932855606,1.2732033729553225
1631204211812,1.3013520240783691,-0.0183717459440231,0.2012123763561248,1.2728502750396729
1631204211984,1.2311078310012815,-0.0218505393713712,0.2094551175832748,1.1308491230010986
1631204212047,1.2267080545425415,-0.0202813856303691,0.2094551175832748,1.113825440406799
1631204212094,1.2233761548995972,-0.0115946205332875,0.2094551175832748,1.1125319004058838
1631204212140,1.22610342502594,-0.028168337419629,0.2106154114007949,1.1146893501281738
1631204212281,1.22610342502594,-0.0076629687100648,0.2147370427846908,1.1221070289611816
1631204212328,1.22610342502594,0.0596693865954875,0.2147370427846908,1.1222028732299805
1631204212375,1.22610342502594,0.1351564228534698,0.2147370427846908,1.1222249269485474
1631204212437,1.22610342502594,0.1305557042360305,0.2147370427846908,1.1201269626617432
1631204212504,1.22610342502594,0.1182575151324272,0.2051668465137481,1.10394287109375
1631204212582,1.22610342502594,0.105876624584198,0.1798606663942337,1.0632548332214355
1631204212691,1.1819312572479248,0.0906565859913826,0.0790266618132591,1.0100616216659546
1631204212738,1.1311529874801636,0.0851401016116142,-0.0096701569855213,0.9875461459159852
1631204212785,1.1253267526626587,0.1088879108428955,-0.0575912855565547,0.9673022031784058
1631204212832,1.172088861465454,0.1307235956192016,-0.0418869964778423,0.989224910736084
1631204212894,1.2177966833114624,0.140079453587532,-0.0192495435476303,1.0037611722946167
1631204212988,1.219576716423035,0.1369720846414566,0.0520117580890655,1.0195633172988892
1631204213050,1.1974592208862305,0.1366260647773742,0.0844127982854843,1.0316840410232544
1631204213097,1.1760635375976562,0.1366260647773742,0.0844127982854843,1.0347915887832642
1631204213144,1.2410730123519895,0.1530366092920303,0.0844127982854843,1.0466965436935425
1631204213175,1.271085500717163,0.1746363192796707,0.0844127982854843,1.0582458972930908
1631204213238,1.271085500717163,0.1106421425938606,0.0844127982854843,1.0660046339035034
1631204213285,1.271085500717163,0.0607372857630252,0.0875607281923294,1.0648200511932373
1631204213316,1.271085500717163,0.0372260995209217,0.0978290885686874,1.06553053855896
1631204213363,1.271085500717163,0.080011062324047,0.1132245510816574,1.067110538482666
1631204213472,1.276828646659851,0.1230475381016731,0.1416400223970413,1.0683448314666748
1631204213503,1.26044762134552,0.0899097397923469,0.1633850038051605,1.045049071311951
1631204213550,1.2145047187805176,0.0016456937883049,0.1515467911958694,0.9989107251167296
1631204213582,1.1873356103897097,-0.0203062761574983,0.1502371579408645,0.987993061542511
1631204213613,1.174709677696228,-0.016429690644145,0.1502371579408645,0.9841551184654236
1631204213644,1.1692503690719604,0.0034699803218245,0.1502371579408645,0.989742875099182
1631204213675,1.162129282951355,0.0454766266047954,0.1502371579408645,1.0090768337249756
1631204213722,1.1736209392547607,0.0790631175041198,0.1502371579408645,1.0864967107772827
1631204213769,1.151104211807251,0.1036304607987403,0.1502371579408645,1.2290633916854858
1631204213816,1.1077128648757937,0.127356544137001,0.1495598703622818,1.310320258140564
1631204213847,1.0979176759719849,0.1116607561707496,0.1425861865282058,1.3262779712677002
1631204213910,1.103642463684082,0.1060585081577301,0.1376421600580215,1.3261219263076782
1631204213941,1.1276038885116575,0.1125026792287826,0.1468731164932251,1.3283098936080933
1631204213988,1.136125087738037,0.1150169372558593,0.1439027339220047,1.329800724983215
1631204214035,1.1321862936019895,0.0977493673563003,0.1404192298650741,1.3287968635559082
1631204214066,1.1319550275802612,0.0568489842116832,0.1404192298650741,1.327375888824463
1631204214113,1.1319550275802612,0.0151617377996444,0.1380378007888794,1.3275842666625977
1631204214144,1.1319550275802612,-0.0029355098959058,0.1131360009312629,1.3287936449050903
1631204214191,1.1319550275802612,-0.0037462790496647,0.0743262991309166,1.3324384689331057
1631204214253,1.1319550275802612,-0.0037462790496647,0.0125834522768855,1.338112473487854
1631204214331,1.1319550275802612,-0.0037462790496647,-0.0638045817613601,1.3398945331573486
1631204214394,1.1319550275802612,-0.0081781577318906,-0.0668659284710884,1.3407981395721436
1631204214456,1.1319550275802612,-0.0253322049975395,-0.0664503499865531,1.3452991247177124
1631204214519,1.134210228919983,-0.0639498233795166,-0.0664503499865531,1.35671865940094
1631204214566,1.1358169317245483,-0.1085019782185554,-0.0664503499865531,1.361975908279419
1631204214613,1.1169670820236206,-0.1945686936378479,-0.0664503499865531,1.3158992528915403
1631204214644,1.0421680212020874,-0.2719290554523468,-0.0671344473958015,1.2392548322677612
1631204214691,0.9777103066444396,-0.2691360414028168,-0.0707697421312332,1.1931909322738647
1631204214800,0.9313266277313232,-0.2754541933536529,-0.1205178499221801,1.1765635013580322
1631204214894,0.9055376052856444,-0.2629261016845703,-0.1730929911136627,1.171829342842102
1631204215034,0.9037787318229676,-0.2062994837760925,-0.1766017973423004,1.1888062953948977
1631204215128,1.1314641237258911,-0.0749051794409751,-0.1713354438543319,1.1951318979263306
1631204215222,1.1923537254333496,0.0344982855021953,-0.1441624611616134,1.1951318979263306
1631204215300,1.2231727838516235,0.1113452911376953,-0.1193344295024871,1.1951318979263306
1631204215394,1.2231727838516235,0.1590703725814819,-0.1463515311479568,1.1951318979263306
1631204215503,1.22192645072937,0.1850544661283493,-0.1891524940729141,1.1939128637313845
1631204215644,1.2202236652374268,0.2029152065515518,-0.222795695066452,1.1898813247680664
1631204215737,1.227166771888733,0.2039969861507415,-0.2424666732549667,1.166601538658142
1631204215818,1.2392877340316772,0.2039969861507415,-0.1597257256507873,1.1410515308380127
1631204215912,1.2460978031158447,0.2039969861507415,-0.07090625166893,1.1074137687683103
1631204216006,1.2507508993148804,0.2039969861507415,-0.0420790612697601,0.9961732625961304
1631204216131,1.2570552825927734,0.2039969861507415,-0.0420790612697601,1.0265692472457886
1631204216240,1.2678970098495483,0.2039969861507415,-0.0383052639663219,1.1244735717773438
1631204216334,1.2678970098495483,0.2039969861507415,-0.0209697168320417,1.2061700820922852
1631204216444,1.2678970098495483,0.2060931622982025,0.0361083894968032,1.280199646949768
1631204216524,1.2678970098495483,0.2037004977464676,0.0976186618208885,1.3430397510528564
1631204216649,1.2640266418457031,0.1974421590566635,0.1411359459161758,1.3722116947174072
1631204216711,1.2300775051116943,0.1920481026172638,0.1548110544681549,1.3794326782226562
1631204216836,1.2185050249099731,0.1839386224746704,0.1526977717876434,1.3901222944259644
1631204216993,1.2228076457977295,0.1485889554023742,0.1597461998462677,1.415463924407959
1631204217055,1.21711003780365,0.0862676352262497,0.1723348051309585,1.4317725896835327
1631204217133,1.2090599536895752,0.006995559670031,0.1778026819229126,1.4433733224868774
1631204217227,1.198812484741211,-0.0670347735285759,0.1778026819229126,1.4438780546188354
1631204217321,1.1917632818222046,-0.1317000836133957,0.1778026819229126,1.4441955089569092
1631204217461,1.1730366945266724,-0.1673287153244018,0.1751527190208435,1.4354420900344849
1631204217570,1.1450237035751345,-0.169668897986412,0.1443804055452346,1.435360074043274
1631204217648,1.134272217750549,-0.169668897986412,0.1223601549863815,1.4354223012924194
1631204217742,1.1174418926239014,-0.1636476516723632,0.1185448095202446,1.4363199472427368
1631204217856,1.2243502140045166,-0.1255180537700653,0.1185448095202446,1.437846302986145
1631204217950,1.3417727947235107,-0.0794188752770423,0.1236407905817031,1.437846302986145
1631204218075,1.390750765800476,-0.0727261081337928,0.1450801193714141,1.437846302986145
1631204218169,1.4088767766952517,-0.0646499693393707,0.1578101813793182,1.4308385848999023
1631204218262,1.4398057460784912,-0.0646499693393707,0.1297405958175659,1.4033457040786743
1631204218356,1.4501054286956787,-0.0646499693393707,0.0690128579735755,1.356514811515808
1631204218465,1.4501054286956787,-0.0646499693393707,0.0095204664394259,1.3332747220993042
1631204218548,1.4501054286956787,-0.0504567138850688,-0.0252512358129024,1.3197814226150513
1631204218688,1.4501054286956787,-0.0517995953559875,-0.0495476275682449,1.3022582530975342
1631204218813,1.4511789083480835,-0.0644355863332748,-0.0819644629955291,1.2739965915679932
1631204218891,1.4527177810668943,-0.1014465764164924,-0.0920648500323295,1.2730668783187866
1631204218970,1.4527177810668943,-0.1446277797222137,-0.0920648500323295,1.2730668783187866
1631204219063,1.4527177810668943,-0.1503281742334365,-0.0920648500323295,1.2730668783187866
1631204219141,1.4527177810668943,-0.1470902413129806,-0.0746264457702636,1.2729421854019165
1631204219298,1.4527177810668943,-0.1470902413129806,-0.0389675311744213,1.272587537765503
1631204219392,1.4527177810668943,-0.1507282555103302,-0.002330677350983,1.2664343118667605
1631204219485,1.4527177810668943,-0.1617025434970855,-0.002330677350983,1.243608832359314
1631204219579,1.4061061143875122,-0.1837732344865799,-0.002330677350983,1.2076549530029297
1631204219657,1.307723879814148,-0.1438369750976562,-0.002330677350983,1.144771695137024
1631204219751,1.2336065769195557,-0.1106166541576385,-0.0042834053747355,1.074065089225769
1631204219944,1.12935471534729,-0.1055774390697479,-0.0155196394771337,1.0713969469070437
1631204220007,1.128839373588562,-0.1028312742710113,-0.0161300841718912,1.0594892501831057
1631204220085,1.1578367948532104,-0.1016095727682113,-0.0161300841718912,1.0401827096939087
1631204220195,1.1537461280822754,-0.1115533113479614,-0.0094888396561145,1.029588222503662
1631204220304,1.1426125764846802,-0.1184533312916755,-0.0093624647706747,1.03590190410614
1631204220398,1.1374425888061523,-0.0980892330408096,-0.0224482435733079,1.0261578559875488
1631204220511,1.1411257982254028,-0.0979048833250999,-0.0219162106513977,1.0058515071868896
1631204220604,1.1435208320617676,-0.0998967811465263,-0.01706438139081,0.9871388673782348
1631204220698,1.1464414596557615,-0.1139143258333206,-0.0167992804199457,0.9768072962760924
1631204220791,1.148289442062378,-0.1218852251768112,-0.0405626185238361,0.9710593223571776
1631204220869,1.148289442062378,-0.1162408664822578,-0.050367210060358,0.9534972310066224
1631204220979,1.1346614360809326,-0.1162408664822578,-0.1387238651514053,0.9402512311935424
1631204221135,1.1291582584381104,-0.1162408664822578,-0.1835030168294906,0.9266539216041564
1631204221213,1.1291582584381104,-0.1187094748020172,-0.1835030168294906,0.9226866960525512
1631204221291,1.1291582584381104,-0.1321727633476257,-0.1835030168294906,0.9196865558624268
1631204221385,1.128881812095642,-0.1717378050088882,-0.1835030168294906,0.9135710597038268
1631204221494,1.1134648323059082,-0.2243353575468063,-0.1835030168294906,0.9124482870101928
1631204221588,1.1079474687576294,-0.2412227243185043,-0.1906892657279968,0.8905900716781616
1631204221729,1.0970011949539185,-0.2434953451156616,-0.2137569189071655,0.8634214401245117
1631204221825,1.0722270011901855,-0.2437121570110321,-0.2271506339311599,0.8471189737319946
1631204221919,1.0744632482528689,-0.2758225500583648,-0.2379108071327209,0.8471189737319946
1631204221997,1.0541670322418213,-0.3695701062679291,-0.2546519935131073,0.8471189737319946
1631204222122,1.0286412239074707,-0.3695701062679291,-0.2546519935131073,0.8471189737319946
1631204222200,1.0209131240844729,-0.3695701062679291,-0.2546519935131073,0.8471189737319946
1631204222325,1.0183463096618652,-0.3695701062679291,-0.2546519935131073,0.8471189737319946
1631204222434,1.0183463096618652,-0.3695701062679291,-0.2546519935131073,0.8471189737319946
1631204222531,1.0183463096618652,0.5568606853485107,-0.2546519935131073,0.8471189737319946
1631204222609,1.0183463096618652,0.6559531092643738,-0.2546519935131073,0.8471189737319946
1631204222702,1.0183463096618652,0.6754965782165527,0.3077615797519684,0.8471189737319946
1631204222796,1.0183463096618652,0.6772443056106567,0.3077615797519684,0.8471189737319946
1631204222952,1.0183463096618652,0.6772443056106567,0.3077615797519684,0.8471189737319946
1631204223030,1.0183463096618652,0.6772443056106567,0.3077615797519684,0.8471189737319946
1631204223140,1.0183463096618652,0.6772443056106567,0.3642052412033081,0.8471189737319946
1631204223218,1.0183463096618652,0.6772443056106567,0.366077184677124,0.8471189737319946
1631204223343,1.0183463096618652,0.6772443056106567,0.366077184677124,0.8471189737319946
1631204223421,1.0183463096618652,0.6772443056106567,0.366077184677124,0.8471189737319946
1631204223562,1.0183463096618652,0.6772443056106567,0.366077184677124,0.8471189737319946
1631204223687,1.0183463096618652,0.6772443056106567,0.366077184677124,0.6389043927192688
1631204223748,0.9178193807601928,0.6716998219490051,0.3680353462696075,0.6389775276184082
1631204223830,0.9531577229499816,0.673452615737915,0.3713279366493225,0.6389775276184082
1631204223955,0.9881800413131714,0.717424213886261,0.362735778093338,0.6389775276184082
1631204224049,1.0096639394760132,0.7147179245948792,0.33896404504776,0.6389775276184082
1631204224206,1.0096639394760132,0.6946925520896912,0.2810666561126709,0.6389775276184082
1631204224268,1.0096639394760132,0.6266613006591797,0.1187411546707153,0.6389775276184082
1631204224331,1.0096639394760132,0.522055983543396,0.1187411546707153,0.6407238245010376
1631204224471,1.0096639394760132,0.4267365634441376,0.533584475517273,0.6450851559638977
1631204224533,1.0096639394760132,0.382884681224823,0.5825598835945129,0.652715802192688
1631204224658,1.014967441558838,0.3543762564659118,0.579796314239502,0.6612036824226379
1631204224814,1.030470371246338,0.3435403406620025,0.5741565823554993,0.6731256246566772
1631204224893,1.030470371246338,0.3966048657894134,0.5727666020393372,0.6292954087257385
1631204224955,1.030470371246338,0.3966048657894134,0.5778831839561462,0.5890772342681885
1631204225064,1.030470371246338,0.3966048657894134,0.6112310290336609,0.5862749814987183
1631204225142,1.030470371246338,0.4247138500213623,0.648679792881012,0.5862749814987183
1631204225236,1.021891474723816,0.4571375548839569,0.6670508980751038,0.5862749814987183
1631204225393,1.0036710500717163,0.4668009281158447,0.6834858059883118,0.5919519662857056
1631204225471,0.9863982796669006,0.4442581832408905,0.6834858059883118,0.5932803750038147
1631204225580,0.9726020097732544,0.4719910025596618,0.6834858059883118,0.596641480922699
1631204225658,0.954140305519104,0.4719910025596618,0.6834858059883118,0.6317999958992004
1631204225751,0.9712430238723756,0.4719910025596618,0.6834858059883118,0.6775550246238708
1631204225838,0.98155277967453,0.4719910025596618,0.6834858059883118,0.7035908102989197
1631204226010,0.9902129173278807,0.4719910025596618,0.6830596327781677,0.7177280187606812
1631204226072,0.9854707717895508,0.4719910025596618,0.6476597189903259,0.714087963104248
1631204226166,0.9740827083587646,0.4719910025596618,0.5733404755592346,0.7139580845832825
1631204226291,0.9344542026519777,0.4719910025596618,0.5674675107002258,0.7093026041984558
1631204226369,0.8836442232131958,0.460596352815628,0.5674675107002258,0.685306191444397
1631204226463,0.8697304725646973,0.460596352815628,0.5674675107002258,0.670501708984375
1631204226606,0.8697304725646973,0.4586835503578186,0.565376877784729,0.6681686043739319
1631204226716,0.8704577684402466,0.4535840153694153,0.5561275482177734,0.6776121258735657
1631204226794,0.871982991695404,0.4535840153694153,0.5092730522155762,0.6793640851974487
1631204226887,0.8790276646614075,0.4535840153694153,0.4485080540180206,0.676944375038147
1631204226981,0.898565948009491,0.4535840153694153,0.3378913104534149,0.6779850721359253
1631204227091,0.944004237651825,0.4535840153694153,0.1726569831371307,0.6796884536743164
1631204227200,1.0040274858474731,0.4535840153694153,0.1676269173622131,0.6983063817024231
1631204227294,1.039478778839111,0.1639861166477203,0.4115126132965088,0.7301144599914551
1631204227403,1.039478778839111,0.3183497190475464,0.579459011554718,0.7286863327026367
1631204227498,1.0398834943771362,0.3939704596996307,0.6084281802177429,0.7199004292488098
1631204227613,1.0284392833709717,0.4178252220153808,0.6084281802177429,0.7132890820503235
1631204227691,1.0284392833709717,0.4178252220153808,0.6084281802177429,0.7073829174041748
1631204227848,1.0284392833709717,0.4178252220153808,0.6084281802177429,0.7073829174041748
1631204227910,1.0284392833709717,0.4178252220153808,0.6084281802177429,0.7073829174041748
1631204228035,1.0284392833709717,0.4187654554843902,0.6084281802177429,0.7049638628959656
1631204228097,1.0284392833709717,0.4187654554843902,0.6084281802177429,0.7049638628959656
1631204228207,1.0284392833709717,0.4187654554843902,0.6084281802177429,0.7038334608078003
1631204228285,1.0284392833709717,0.4187654554843902,0.6084281802177429,0.6981847286224365
1631204228441,1.022834300994873,0.4187654554843902,0.6084281802177429,0.6953164935112
1631204228535,1.0160655975341797,0.4187654554843902,0.6084281802177429,0.6807129383087158
1631204228613,1.0083017349243164,0.4187654554843902,0.6084281802177429,0.6562358140945435
1631204228722,1.0083017349243164,0.4187654554843902,0.6084281802177429,0.6562358140945435
1631204228801,1.0083017349243164,0.4187654554843902,0.6084281802177429,0.6562358140945435
1631204228894,1.0083017349243164,0.4142735004425049,0.6038933396339417,0.6562358140945435
1631204229035,1.0083017349243164,0.346025139093399,0.6038933396339417,0.6562358140945435
1631204229128,1.0083017349243164,0.2580638229846954,0.6038933396339417,0.6562358140945435
1631204229238,1.0083017349243164,0.2580638229846954,0.6038933396339417,0.6562358140945435
1631204229331,1.0083017349243164,0.2580638229846954,0.6038933396339417,0.6562358140945435
1631204229441,1.0083017349243164,0.2580638229846954,0.6038933396339417,0.6562358140945435
1631204229503,1.0083017349243164,0.2580638229846954,0.6038933396339417,0.6562358140945435
1631204229628,1.0083017349243164,0.2580638229846954,0.6038933396339417,0.6562358140945435
1631204229769,1.0083017349243164,0.2580638229846954,0.6038933396339417,0.6562358140945435
1631204229863,1.0083017349243164,0.2580638229846954,0.6038933396339417,0.6562358140945435
1631204229925,1.0083017349243164,0.3990687429904938,0.6038933396339417,0.6562358140945435
1631204230019,1.0083017349243164,0.4163255393505096,0.6038933396339417,0.6562358140945435
1631204230128,1.0083017349243164,0.4557783901691437,0.6038933396339417,0.6562358140945435
1631204230253,1.0083017349243164,0.537491500377655,0.6038933396339417,0.6562358140945435
1631204230331,1.0083017349243164,0.617295503616333,0.6038933396339417,0.6562358140945435
1631204230456,1.0083017349243164,0.6670462489128113,0.6038933396339417,0.6562358140945435
1631204230538,1.0083017349243164,0.6838851571083069,0.6038933396339417,0.6562358140945435
1631204230632,1.0083017349243164,0.6838851571083069,0.6038933396339417,0.6562358140945435
1631204230710,1.0083017349243164,0.6838851571083069,0.6038933396339417,0.6562358140945435
1631204230866,1.0083017349243164,0.6838851571083069,0.6038933396339417,0.6562358140945435
1631204230960,1.0083017349243164,0.6838851571083069,0.6038933396339417,0.6562358140945435
1631204231053,1.0083017349243164,0.6838851571083069,0.6038933396339417,0.6562358140945435
1631204231163,1.0083017349243164,0.6838851571083069,0.6038933396339417,0.6562358140945435
1631204231256,1.0083017349243164,0.6838851571083069,0.6038933396339417,0.6562358140945435
1631204231335,1.0083017349243164,0.6838851571083069,0.6038933396339417,0.6562358140945435
1631204231491,1.0083017349243164,0.6838851571083069,0.6038933396339417,0.6562358140945435
1631204231553,1.0083017349243164,0.6838851571083069,0.6038933396339417,0.6562358140945435
1631204231647,1.0083017349243164,0.6838851571083069,0.6038933396339417,0.6562358140945435
1631204231741,1.0083017349243164,0.6821874380111694,0.6038933396339417,0.6562358140945435
1631204231854,1.0083017349243164,0.6491351127624512,0.6038933396339417,0.6562358140945435
1631204231947,1.0083017349243164,0.5546819567680359,0.6038933396339417,0.6562358140945435
1631204232088,1.0083017349243164,0.3813932538032532,0.2941600382328033,0.6562358140945435
1631204232182,1.0083017349243164,0.1856273412704467,0.3094639182090759,0.6562358140945435
1631204232291,1.0083017349243164,0.0760934799909591,0.3115081489086151,0.6562358140945435
1631204232385,1.0083017349243164,0.0810961499810218,0.3120872676372528,0.6562358140945435
1631204232463,1.0343151092529297,0.0714887902140617,0.3134899139404297,0.9834747910499572
1631204232557,1.0343151092529297,0.1903452724218368,0.3377111554145813,0.9834747910499572
1631204232682,1.0395357608795166,0.3997529149055481,0.4259155690670013,0.9834747910499572
1631204232791,1.0676392316818235,0.5542833805084229,0.4971196949481964,0.9834747910499572
1631204232916,1.0717406272888184,0.6176047325134277,0.503010630607605,0.9834747910499572
1631204232994,1.0717406272888184,0.6304283738136292,0.503010630607605,0.9834747910499572
1631204233072,1.0717406272888184,0.6304283738136292,0.503010630607605,0.9834747910499572
1631204233181,1.0717406272888184,0.6304283738136292,0.503010630607605,0.9834747910499572
1631204233291,1.074166178703308,0.6304283738136292,0.4819864630699157,0.9834747910499572
1631204233416,1.0746192932128906,0.6304283738136292,0.461839884519577,0.9834747910499572
1631204233509,1.0746192932128906,0.6304283738136292,0.4440849125385284,0.9834747910499572
1631204233603,1.0746192932128906,0.6304283738136292,0.4146969020366668,0.9841204881668092
1631204233681,1.0709185600280762,0.6304283738136292,0.3851582407951355,0.9437586069107056
1631204233775,1.0676006078720093,0.6304283738136292,0.3702190220355987,0.8728672862052917
1631204233900,1.0424460172653198,0.6304283738136292,0.3650384247303009,0.8397020101547241
1631204234025,1.0036873817443848,0.6304283738136292,0.3620153963565826,0.8397020101547241
1631204234119,0.9595431089401244,0.6254492998123169,0.3620153963565826,0.8397020101547241
1631204234213,0.9063451290130616,0.6132028102874756,0.3620153963565826,0.8397020101547241
1631204234275,0.8469976186752319,0.5804283022880554,0.3552560806274414,0.8397020101547241
1631204234400,0.7947890162467957,0.5045782923698425,0.2424663454294204,0.8397020101547241
1631204234540,0.7514083385467529,0.3835434317588806,0.0845342576503753,0.8397020101547241
1631204234619,0.7203233242034912,0.3562557101249695,0.0550539940595626,0.8397020101547241
1631204234713,0.7166913151741028,0.3562557101249695,0.0509897843003273,0.8397020101547241
1631204234806,0.7065531611442566,0.35221928358078,0.0509897843003273,0.8397020101547241
1631204234900,0.6728069186210632,0.35221928358078,0.0491709783673286,0.8328285217285156
1631204234994,0.6728069186210632,0.35221928358078,0.0326092690229415,0.8328285217285156
1631204235150,0.6728069186210632,0.35221928358078,-0.0101912906393408,0.8328285217285156
1631204235213,0.6728069186210632,0.2810199856758117,-0.0601929314434528,0.8328285217285156
1631204235322,0.6728069186210632,0.2002139389514923,-0.1253405809402465,0.8328285217285156
1631204235400,0.6728069186210632,0.1624274402856826,-0.1574983745813369,0.8328285217285156
1631204235525,0.6384854316711426,0.1624274402856826,-0.191900685429573,-0.1185881868004798
1631204235587,0.6533976793289185,0.1624274402856826,-0.1832566708326339,-0.0928842052817344
1631204235763,0.6628032326698303,0.1624274402856826,-0.1637365520000457,-0.028163744136691
1631204235840,0.6631461977958679,0.1444399654865265,-0.1506016552448272,0.0551491193473339
1631204235950,0.6648261547088623,0.1060844138264656,-0.1506016552448272,0.1576109528541565
1631204236012,0.6830881834030151,0.077414646744728,-0.1506016552448272,0.2774875462055206
1631204236122,0.692274272441864,0.0212646462023258,-0.1431878209114074,0.3294858038425445
1631204236231,0.692274272441864,0.004354631062597,-0.1212308853864669,0.3352662622928619
1631204236356,0.7040568590164185,0.004354631062597,-0.1081993728876113,0.3429181575775146
1631204236481,0.7330153584480286,0.004354631062597,-0.0823657661676406,0.3735719621181488
1631204236528,0.7670864462852478,0.0038892235606908,-0.0534925945103168,0.47168830037117
1631204236622,0.793738603591919,-0.010789624415338,-0.0267290454357862,0.5641053915023804
1631204236731,0.793738603591919,0.0119859222322702,0.0013257652753964,0.5884736180305481
1631204236812,0.7876872420310974,0.0435138121247291,0.0164940543472766,0.6011661291122437
1631204236968,0.784013569355011,0.0653819292783737,0.0119729544967412,0.6079619526863098
1631204237062,0.784013569355011,0.0612164549529552,-0.0092863542959094,0.6079619526863098
1631204237156,0.8005340099334717,0.0588076747953891,-0.0259976219385862,0.6079619526863098
1631204237265,0.9272693395614624,0.0784686356782913,-0.0280346032232046,0.6137574315071106
1631204237343,1.1180191040039062,0.1531862914562225,0.0578793250024318,0.6242556571960449
1631204237453,1.2400479316711426,0.2512466609477997,0.159882366657257,0.6263031363487244
1631204237562,1.2758504152297974,0.3050670623779297,0.1951840072870254,0.6263031363487244
1631204237671,1.2766869068145752,0.3415068686008453,0.2083857804536819,0.6240482330322266
1631204237750,1.2766869068145752,0.3652698397636413,0.2190794646739959,0.6845914125442505
1631204237847,1.2766869068145752,0.3705022633075714,0.2291514873504638,0.7648109197616577
1631204237957,1.2766869068145752,0.3757581114768982,0.2389962673187255,0.8304197192192078
1631204238035,1.2766869068145752,0.3770617246627807,0.2417177259922027,0.8832102417945862
1631204238191,1.2766869068145752,0.3770617246627807,0.2407393604516983,0.914798617362976
1631204238285,1.2766869068145752,0.3770617246627807,0.2407393604516983,0.9126394987106324
1631204238394,1.2766869068145752,0.3770617246627807,0.2367574274539947,0.9126394987106324
1631204238457,1.2766869068145752,0.3707385659217834,0.235351949930191,0.9126394987106324
1631204238550,1.2766869068145752,0.3560771048069,0.235351949930191,0.9126394987106324
1631204238644,1.2766869068145752,0.3589079082012176,0.235351949930191,0.9126394987106324
1631204238804,1.2766869068145752,0.3732527494430542,0.235351949930191,0.9126394987106324
1631204238898,1.2766869068145752,0.3718758523464203,0.235351949930191,0.9126394987106324
1631204238992,1.2490789890289309,0.3718758523464203,0.2326266914606094,0.9126394987106324
1631204239070,1.166849136352539,0.3378371298313141,0.1879531145095825,0.9126394987106324
1631204239179,1.021475911140442,0.2684114277362823,0.1290245652198791,0.9126394987106324
1631204239257,0.8693652749061584,0.2329699248075485,0.0654635205864906,0.9126394987106324
1631204239413,0.8693652749061584,0.2125483304262161,0.0060430062003433,0.9126394987106324
1631204239507,0.8693652749061584,0.1713288277387619,-0.0316700227558612,0.9126394987106324
1631204239585,0.8693652749061584,0.0860229507088661,-0.0427786856889724,0.9126394987106324
1631204239663,0.8693652749061584,-0.0156690720468759,-0.0563079081475734,0.9126394987106324
1631204239775,0.8693652749061584,-0.0503210760653018,-0.0785329118371009,1.014663577079773
1631204239869,0.8978087306022644,-0.0709882229566574,-0.1951120644807815,1.014663577079773
1631204240009,0.9433727264404296,-0.0953781828284263,-0.174652099609375,1.014663577079773
1631204240088,0.9984926581382751,-0.0961445644497871,-0.1007813364267349,1.014663577079773
1631204240213,0.9984926581382751,-0.0958172157406807,-0.0430463477969169,1.014663577079773
1631204240306,0.9984926581382751,-0.1156047955155372,-0.0119032487273216,1.014663577079773
1631204240385,0.9984926581382751,-0.1466196924448013,-0.0071125281974673,1.014663577079773
1631204240494,0.9984926581382751,-0.226981446146965,0.0292856842279434,1.014663577079773
1631204240634,0.9984926581382751,-0.2857943475246429,0.1446167975664138,1.014663577079773
1631204240712,0.9984926581382751,-0.2962921559810638,0.3408380448818207,1.014663577079773
1631204240806,0.9984926581382751,-0.3166033923625946,0.4805327951908111,1.014663577079773
1631204240931,0.9984926581382751,-0.3268301486968994,0.5274980664253235,1.014663577079773
1631204241056,0.9984926581382751,-0.3309833705425262,0.5562518239021301,0.9187367558479308
1631204241087,0.9707716703414916,-0.0033501277212053,0.5669816136360168,0.8518754839897156
1631204241228,0.9270375967025756,-0.002161658834666,0.5703917145729065,0.8518754839897156
1631204241306,0.9270375967025756,0.0009224019013345,0.5703917145729065,0.8518754839897156
1631204241400,0.9270375967025756,0.0098578128963708,0.5703917145729065,0.8518754839897156
1631204241509,0.9270375967025756,0.0415060743689537,0.5703917145729065,0.8518754839897156
1631204241618,0.9270375967025756,0.0844019576907157,0.5703917145729065,0.8518754839897156
1631204241743,0.9270375967025756,0.1082150563597679,0.5703917145729065,0.8518754839897156
1631204241853,0.9270375967025756,0.1117955818772316,0.5703917145729065,0.8518754839897156
1631204241915,0.6149450540542603,0.1141752451658248,0.5703917145729065,0.8518754839897156
1631204242040,0.6474229693412781,0.1234654039144516,0.5703917145729065,-0.0367752574384212
1631204242118,0.6752249002456665,0.128419280052185,0.5691565871238708,0.2096535116434097
1631204242212,0.6831663250923157,0.1530631333589553,0.5654196739196777,0.4390041530132293
1631204242321,0.7137712240219116,0.2587976157665252,0.5517173409461975,0.5735136270523071
1631204242446,0.7291200160980225,0.3589710891246795,0.4672310054302215,0.6156196594238281
1631204242544,0.7659599781036377,0.4249997735023498,0.4082405865192413,0.6183675527572632
1631204242637,0.8197313547134399,0.4469139873981476,0.3782990276813507,0.6183675527572632
1631204242731,0.8464078903198242,0.4469139873981476,0.3671348392963409,0.6183675527572632
1631204242841,0.8464078903198242,0.4469139873981476,0.3652796149253845,0.6183675527572632
1631204242934,0.8464078903198242,0.4469139873981476,0.4512392282485962,0.6183675527572632
1631204243059,1.180539846420288,0.4469139873981476,0.5799686312675476,0.6183675527572632
1631204243169,1.180539846420288,0.4469139873981476,0.6695315837860107,0.6183675527572632
1631204243294,1.180539846420288,0.4433609843254089,0.7229475378990173,0.6154725551605225
1631204243356,1.180539846420288,0.4427286982536316,0.7379778623580933,0.6154725551605225
1631204243450,1.180539846420288,0.4427286982536316,0.7531704902648926,0.6154725551605225
1631204243543,1.180539846420288,0.4427286982536316,0.7561800479888916,0.6154725551605225
1631204243668,1.180539846420288,0.4427286982536316,0.7561800479888916,0.6154725551605225
1631204243747,1.180539846420288,0.4427286982536316,0.7561800479888916,0.6154725551605225
1631204243845,1.180539846420288,0.4427286982536316,0.7561800479888916,0.6154725551605225
1631204243954,1.180539846420288,0.4436798393726349,0.7561800479888916,0.6154725551605225
1631204244063,1.180539846420288,0.4214683771133423,0.7563466429710388,0.6154725551605225
1631204244142,1.180539846420288,0.3720960915088653,0.7575125098228455,0.6154725551605225
1631204244282,1.180539846420288,0.3148673176765442,0.7575125098228455,0.6154725551605225
1631204244360,1.180539846420288,0.2953153550624847,0.7575125098228455,0.6154725551605225
1631204244470,1.1794513463974,0.3056811094284057,0.7575125098228455,0.6154725551605225
1631204244551,0.7757556438446045,0.3212924003601074,0.7495071291923523,0.2390810698270797
1631204244629,0.8035818934440613,0.3165927827358246,0.7423011064529419,0.3277297616004944
1631204244739,0.8178750276565552,0.3148345947265625,0.7335366606712341,0.4236768782138824
1631204244926,0.8200928568840027,0.3148345947265625,0.6895203590393066,0.4628353714942932
1631204244989,0.8216775059700012,0.3148345947265625,0.608067512512207,0.4762763679027557
1631204245083,0.8240479230880737,0.3148345947265625,0.4769229292869568,0.4796865582466125
1631204245176,0.8280196189880371,0.3148345947265625,0.3876574039459228,0.4980288743972778
1631204245302,0.8434537053108215,0.3148345947265625,0.3876319527626037,0.5553646087646484
1631204245364,0.8604268431663513,0.3148345947265625,0.3909383714199066,0.5961586236953735
1631204245489,0.9009491801261902,0.3115994930267334,0.3909383714199066,0.5961586236953735
1631204245598,0.9795529842376708,0.3008402585983276,0.3894128799438476,0.5961586236953735
1631204245676,1.1305720806121826,0.2894556820392608,0.303132027387619,0.5961586236953735
1631204245770,1.289909601211548,0.2404811978340149,0.1390695571899414,0.5961586236953735
1631204245864,1.3859089612960815,0.1721501350402832,0.0885329321026802,0.5961586236953735
1631204245957,1.3859089612960815,0.1143989786505699,0.066742718219757,0.5919306874275208
1631204246114,1.3859089612960815,0.0512182004749774,0.0535082481801509,0.5855509042739868
1631204246192,1.3859089612960815,0.0066243121400475,0.0535082481801509,0.583634078502655
1631204246285,1.3859089612960815,-0.0339488163590431,0.0512606687843799,0.5679866671562195
1631204246380,1.3859089612960815,-0.0341743566095829,0.0619865134358406,0.520384669303894
1631204246488,1.3859089612960815,-0.0292824581265449,0.0874006524682045,0.4833183884620666
1631204246582,1.3859089612960815,-0.0020753645803779,0.1246641278266906,0.4833183884620666
1631204246723,1.3859089612960815,0.0316766388714313,0.1653333753347396,0.4833183884620666
1631204246816,1.3859089612960815,0.0540740191936492,0.2110429257154464,0.4833183884620666
1631204246910,1.3859089612960815,0.0497992895543575,0.2117134630680084,0.4833183884620666
1631204247004,1.3859089612960815,0.0497992895543575,0.2093514502048492,0.4049479365348816
1631204247098,1.3859089612960815,0.0537686087191104,0.2720968425273895,0.4324223101139068
1631204247176,1.3859089612960815,0.066719077527523,0.2782279253005981,0.4366350471973419
1631204247332,1.383061170578003,0.066719077527523,0.2905987799167633,0.4501919746398926
1631204247426,0.6821961998939514,0.066719077527523,0.2776091992855072,0.4731978178024292
1631204247504,0.6821961998939514,0.0558548234403133,0.261193186044693,0.5002322793006897
1631204247613,0.6821961998939514,0.0202284976840019,0.261193186044693,0.5277745723724365
1631204247691,0.6821961998939514,-0.0096308579668402,0.261193186044693,0.5596123337745667
1631204247816,0.80020672082901,-0.0248526129871606,0.261193186044693,0.5932053327560425
1631204247910,0.8069524765014648,-0.0272324495017528,0.261193186044693,0.6021040678024292
1631204248004,0.8434227108955383,-0.0272324495017528,0.261193186044693,0.6021040678024292
1631204248113,0.8634934425354004,-0.0289540998637676,0.261193186044693,0.6078169345855713
1631204248207,0.8612944483757019,-0.0474406033754348,0.261193186044693,0.6420440673828125
1631204248301,0.85746830701828,0.0338564552366733,0.2472997456789016,0.6843979954719543
1631204248379,0.8516811728477478,-0.0121635496616363,0.1998668313026428,0.7162104249000549
1631204248568,0.8342434763908386,0.0029075911734253,0.1444640159606933,0.7358641028404236
1631204248646,0.8351625800132751,0.164769560098648,0.2182977199554443,0.7501489520072937
1631204248740,0.9109867215156556,0.350861132144928,0.357916921377182,0.7613888382911682
1631204248818,0.9728350639343262,0.4999541044235229,0.3364386856555938,0.8083555102348328
1631204248974,1.021581530570984,0.5461418032646179,0.3210073709487915,0.85760098695755
1631204249006,1.0671659708023071,0.5461418032646179,0.3150252103805542,0.8645104169845581
1631204249178,1.08022940158844,0.5461418032646179,0.3150252103805542,0.8654198050498962
1631204249271,1.08022940158844,0.5461418032646179,0.3150252103805542,0.8654198050498962
1631204249334,1.066846489906311,0.5705130696296692,0.3150252103805542,0.8654198050498962
1631204249428,1.0541231632232666,0.5725547075271606,0.3267763257026672,0.8571376204490662
1631204249521,1.0489463806152344,0.5725547075271606,0.3294971287250519,0.8571376204490662
1631204249615,1.0466763973236084,0.5725547075271606,0.3347617983818054,0.8571376204490662
1631204249740,1.0466763973236084,0.5725547075271606,0.3376877009868622,0.8571376204490662
1631204249868,1.0466763973236084,0.5715891122817993,0.3460197746753692,0.8571376204490662
1631204249946,1.0466763973236084,0.570380449295044,0.3583682775497436,0.8571376204490662
1631204250040,1.0466763973236084,0.5714839696884155,0.3619038462638855,0.8557713031768799
1631204250133,1.0466763973236084,0.5714839696884155,0.3619038462638855,0.825665295124054
1631204250227,1.0466763973236084,0.5714618563652039,0.0301373954862356,0.775664210319519
1631204250399,1.0466763973236084,0.561471164226532,0.0301373954862356,0.775664210319519
1631204250477,1.0466763973236084,0.244180753827095,0.0325280763208866,0.775664210319519
1631204250555,1.0466763973236084,0.244180753827095,0.0385426245629787,0.775664210319519
1631204250633,1.0466763973236084,0.244180753827095,0.0391645357012748,0.775664210319519
1631204250727,1.0466763973236084,0.244180753827095,0.0391645357012748,0.775664210319519
1631204250821,1.0466763973236084,0.2401757091283798,0.0334948636591434,0.775664210319519
1631204250977,1.0466763973236084,0.2072078287601471,0.0308026708662509,0.775664210319519
1631204251102,1.0466763973236084,0.1861020773649215,0.0306326001882553,0.775664210319519
1631204251149,1.0466763973236084,0.1339118927717209,-0.0041829459369182,0.775664210319519
1631204251258,1.0466763973236084,0.046085886657238,-0.023794911801815,0.775664210319519
1631204251336,1.0466763973236084,0.0237634014338254,-0.0079597234725952,0.775664210319519
1631204251446,1.0466763973236084,0.0138828875496983,-0.0099701415747404,0.775664210319519
1631204251602,1.0466763973236084,-0.0086476188153028,-0.0163579992949962,0.775664210319519
1631204251696,1.0466763973236084,-0.0331683829426765,-0.0096759423613548,0.775664210319519
1631204251758,1.0466763973236084,-0.0388969257473945,-0.0025826047640293,0.775664210319519
1631204251883,1.0466763973236084,-0.0619267597794532,0.0115404464304447,0.775664210319519
1631204251977,1.0466763973236084,-0.0783434733748436,0.0033875189255923,0.775664210319519
1631204252055,1.0466763973236084,-0.0739380121231079,-0.0146030243486166,0.775664210319519
1631204252195,1.0466763973236084,0.0290094092488288,-0.0803223103284835,0.775664210319519
1631204252274,1.0466763973236084,0.1085758358240127,-0.0743015483021736,0.775664210319519
1631204252367,1.0466763973236084,0.1550276726484298,-0.049742754548788,0.775664210319519
1631204252477,1.0466763973236084,0.1652937680482864,-0.0314479060471057,0.775664210319519
1631204252570,1.0466763973236084,0.1666853576898574,-0.0295624174177646,0.775664210319519
1631204252664,1.0466763973236084,0.1666853576898574,-0.0290491394698619,0.775664210319519
1631204252836,1.0466763973236084,0.1635793298482895,-0.0245947334915399,0.775664210319519
1631204252898,1.0466763973236084,0.1637120544910431,-0.017675856128335,0.775664210319519
1631204252992,1.0466763973236084,0.1637120544910431,-0.0138560300692915,0.775664210319519
1631204253086,1.0466763973236084,0.1637120544910431,-0.0118552446365356,0.775664210319519
1631204253164,1.0466763973236084,0.1637120544910431,-0.0045078117400407,0.775664210319519
1631204253305,1.0466763973236084,0.1637120544910431,-0.0007288066553883,0.775664210319519
1631204253414,1.0466763973236084,0.1637120544910431,-0.0269279740750789,0.775664210319519
1631204253508,1.0466763973236084,0.1676007956266403,-0.0269279740750789,0.775664210319519
1631204253617,1.0466763973236084,0.1778383702039718,-0.0269279740750789,0.775664210319519
1631204253711,1.0466763973236084,0.1817859411239624,-0.0269279740750789,0.775664210319519
1631204253789,1.0466763973236084,0.1440548300743103,-0.1029702723026275,0.775664210319519
1631204253883,1.0466763973236084,0.0875747799873352,-0.158756211400032,0.775664210319519
1631204254008,1.0466763973236084,0.0733365789055824,-0.1733452230691909,0.775664210319519
1631204254101,1.0466763973236084,0.0646237060427665,-0.098116286098957,0.775664210319519
1631204254211,0.9553150534629822,0.0816661417484283,0.0108089987188577,0.775664210319519
1631204254289,0.9972853064537048,0.0816661417484283,0.1045456379652023,0.775664210319519
1631204254383,1.0764610767364502,0.0802982375025749,0.1558009535074234,1.0086034536361694
1631204254492,1.1033228635787964,0.0785902440547943,0.1631479412317276,1.0362005233764648
1631204254617,1.1033228635787964,0.0800169110298156,0.1705745309591293,0.9780005216598512
1631204254726,1.1033228635787964,0.0960345938801765,0.1646817475557327,0.9843162894248962
1631204254804,1.1033228635787964,0.1064255312085151,0.1646739393472671,0.9984228610992432
1631204254914,1.1033228635787964,0.1079107671976089,0.1646739393472671,1.0192475318908691
1631204255007,1.1033228635787964,0.1096327453851699,0.1646739393472671,1.0393025875091553
1631204255117,1.1075670719146729,0.1047207787632942,0.1628465205430984,1.0585029125213623
1631204255257,1.1332969665527344,0.0639868155121803,0.163968876004219,1.067821383476257
1631204255335,1.1361474990844729,0.017030794173479,0.1638615280389785,1.067821383476257
1631204255429,1.1361474990844729,0.004430768545717,0.1636689305305481,1.067821383476257
1631204255523,1.1361474990844729,-0.0069140158593654,0.1636689305305481,1.067821383476257
1631204255617,1.119478702545166,-0.0069140158593654,0.1640097647905349,1.069703459739685
1631204255726,1.1064839363098145,-0.0184276420623064,0.1703231781721115,1.077725172042847
1631204255838,1.0997092723846436,-0.0074100801721215,0.1871282160282135,1.0822080373764038
1631204255963,1.0956404209136963,-0.0056363036856055,0.1807445585727691,1.0768557786941528
1631204256073,1.0897712707519531,-0.0060039535164833,0.0981570929288864,1.0765990018844604
1631204256135,1.086976170539856,-0.0116126202046871,-0.0448222421109676,1.0765990018844604
1631204256229,1.083475112915039,-0.0185770317912101,-0.1108022406697273,1.0765990018844604
1631204256338,1.0966585874557495,-0.0192801672965288,-0.1257555186748504,1.0765990018844604
1631204256463,1.0937100648880005,-0.026026427745819,-0.1155517846345901,1.0765990018844604
1631204256542,1.0982600450515747,-0.0327924266457557,-0.0975787043571472,1.0763462781906128
1631204256667,1.1063737869262695,-0.0403740629553794,-0.0925429165363311,1.067124843597412
1631204256760,1.1305217742919922,-0.0493866875767707,-0.0925429165363311,1.0329270362854004
1631204256854,1.174347162246704,-0.0727109909057617,-0.0925429165363311,0.9970036149024964
1631204256932,1.2294632196426392,-0.0842892602086067,-0.0921695455908775,1.0433776378631592
1631204257072,1.232016682624817,-0.0878227204084396,-0.0830688774585723,1.1397510766983032
1631204257166,1.232016682624817,-0.0778993591666221,-0.0664190202951431,1.1575469970703125
1631204257260,1.232016682624817,-0.0608017072081565,-0.0654121413826942,1.153461456298828
1631204257369,1.232016682624817,-0.0664855241775512,-0.0823473557829856,1.1398619413375854
1631204257432,1.232016682624817,-0.1386391967535019,-0.0874651968479156,1.1398619413375854
1631204257557,1.232016682624817,-0.161111831665039,-0.082396276295185,1.1419214010238647
1631204257682,1.232016682624817,-0.1249148994684219,-0.0834653824567794,1.150861144065857
1631204257760,1.2327089309692385,-0.1017592698335647,-0.0558656491339206,1.1616337299346924
1631204257856,1.2145148515701294,-0.0962019935250282,-0.0028100297786295,1.170286774635315
1631204257934,1.1982508897781372,-0.0962019935250282,0.0463578216731548,1.179473042488098
1631204258075,1.190596103668213,-0.0952514037489891,0.0833626389503479,1.2095415592193604
1631204258153,1.2015197277069092,-0.0838027223944664,0.1101670712232589,1.2278386354446411
1631204258294,1.2254153490066528,-0.0544489249587059,0.1142931655049324,1.2402738332748413
1631204258387,1.26279616355896,-0.0106736309826374,0.1207401528954505,1.251522183418274
1631204258481,1.3175971508026123,0.0061766724102199,0.1216905415058136,1.251522183418274
1631204258575,1.370128512382507,0.0061766724102199,0.1205876767635345,1.2505395412445068
1631204258653,1.3761993646621704,0.0061766724102199,0.1113802716135978,1.205701470375061
1631204258747,1.3761993646621704,0.004625529050827,0.0891128852963447,1.1344314813613892
1631204258919,1.3761993646621704,-0.0119249857962131,0.0723084658384323,1.123509168624878
1631204258997,1.3761993646621704,-0.032459195703268,0.0815727189183235,1.123509168624878
1631204259106,1.3761993646621704,-0.0289842337369918,0.1298237591981887,1.123509168624878
1631204259184,1.3761993646621704,-0.0235913880169391,0.2093063294887542,1.123509168624878
1631204259278,1.379328727722168,-0.0408523380756378,0.2444747239351272,1.1437344551086426
1631204259372,1.38996160030365,-0.0436159074306488,0.2535921037197113,1.1661748886108398
1631204259512,1.3941049575805664,-0.0436159074306488,0.2728055417537689,1.1894383430480957
1631204259609,1.3960391283035278,-0.0436159074306488,0.2868286967277527,1.1948540210723877
1631204259687,1.3959338665008545,-0.0436159074306488,0.285214751958847,1.1948540210723877
1631204259812,1.3936734199523926,-0.0436159074306488,0.2670275270938873,1.1934527158737185
1631204259890,1.3936734199523926,-0.0436159074306488,0.2334808260202407,1.190184473991394
1631204259968,1.3936734199523926,-0.060451041907072,0.2168274968862533,1.183846116065979
1631204260109,1.3640458583831787,-0.0729377567768096,0.2206811159849167,1.1894447803497314
1631204260217,1.275981068611145,-0.075503222644329,0.2453740090131759,1.2098745107650757
1631204260310,1.2160831689834597,-0.0616791509091854,0.2521790564060211,1.2233575582504272
1631204260388,1.2066950798034668,-0.0476444847881794,0.2530458569526672,1.2301273345947266
1631204260514,1.2150999307632446,-0.0124085498973727,0.2530458569526672,1.2338781356811523
1631204260577,1.2324988842010498,-0.001843042904511,0.2530458569526672,1.2338781356811523
1631204260765,1.2543545961380005,-0.0098227141425013,0.2530458569526672,1.2308964729309082
1631204260828,1.2519558668136597,-0.0212289970368146,0.2506393790245056,1.227982759475708
1631204260968,1.233525276184082,-0.0552331432700157,0.2112911641597747,1.219865322113037
1631204261015,1.200591206550598,-0.0898130983114242,0.1741610914468765,1.204137682914734
1631204261078,1.1573039293289185,-0.0646992176771164,0.1558388620615005,1.18475604057312
1631204261181,1.135477900505066,-0.0146029731258749,0.1096936985850334,1.1637060642242432
1631204261365,1.1280854940414429,0.0511292181909084,0.1593516767024994,1.1536757946014404
1631204261427,1.1280854940414429,0.0865033939480781,0.2502903342247009,1.1525225639343262
1631204261520,1.1280854940414429,0.0911257266998291,0.2835876047611236,1.1483440399169922
1631204261629,1.1280854940414429,0.0911257266998291,0.2888309359550476,1.1338154077529907
1631204261707,1.1280854940414429,0.0911257266998291,0.2781514227390289,1.1215828657150269
1631204261803,1.1280854940414429,0.0911257266998291,0.2363812774419784,1.1072168350219729
1631204261952,1.1280854940414429,0.0911257266998291,0.2431135922670364,1.1072168350219729
1631204262046,1.1280854940414429,0.0907791033387184,0.2863408625125885,1.1072168350219729
1631204262108,1.1280854940414429,0.0751161053776741,0.2918700575828552,1.1072168350219729
1631204262218,1.1280854940414429,0.0637038499116897,0.2918700575828552,1.1072168350219729
1631204262327,1.1280854940414429,0.0623234622180461,0.2918700575828552,1.1072168350219729
1631204262408,1.1280854940414429,0.0623234622180461,0.2918700575828552,1.1072168350219729
1631204262566,1.1280854940414429,0.0524560026824474,0.2944974303245544,1.1072168350219729
1631204262627,1.1280854940414429,0.0461695678532123,0.2944974303245544,1.1072168350219729
1631204262737,1.1280854940414429,0.0352840051054954,0.2976956963539123,1.1072168350219729
1631204262832,1.1280854940414429,0.0097822993993759,0.3058892786502838,1.1072168350219729
1631204262911,1.1280854940414429,-0.0456596277654171,0.3146996796131134,1.1072168350219729
1631204263005,1.1280854940414429,-0.0450960360467433,0.3009708523750305,1.1072168350219729
1631204263178,0.834835946559906,-0.0096947327256202,0.3009708523750305,0.7421836853027344
1631204263256,0.8403959274291992,-0.0049125826917588,0.3009708523750305,0.7452994585037231
1631204263333,0.8529806137084961,-0.003465746063739,0.3009708523750305,0.7592816948890686
1631204263428,0.8529806137084961,-0.003465746063739,0.2930033802986145,0.7592816948890686
1631204263535,0.8529806137084961,0.0026108431629836,0.2398294061422348,0.7592816948890686
1631204263615,0.8529806137084961,0.0914959609508514,0.1120528876781463,0.7592816948890686
1631204263771,0.8529806137084961,0.1884602159261703,0.0133526725694537,0.7592816948890686
1631204263865,0.8529806137084961,0.2779211699962616,0.0158593412488698,0.7592816948890686
1631204263945,0.8529806137084961,0.3012632727622986,0.0158593412488698,0.7592816948890686
1631204264034,0.8529806137084961,0.3015901148319244,0.0082509526982903,0.7592816948890686
1631204264143,0.8529806137084961,0.3015901148319244,-0.0108206151053309,0.7592816948890686
1631204264221,0.8529806137084961,0.304741233587265,-0.0376478768885135,0.7592816948890686
1631204264366,0.8383492231369019,0.3194677233695984,-0.0627654194831848,0.7274013161659241
1631204264476,0.769774317741394,0.328688234090805,-0.0856097415089607,0.6820401549339294
1631204264569,0.769774317741394,0.328688234090805,-0.1178556829690933,0.6820401549339294
1631204264694,0.769774317741394,0.328688234090805,-0.1343853026628494,0.6820401549339294
1631204264754,0.769774317741394,0.328688234090805,-0.136704534292221,0.6820401549339294
1631204264849,0.769774317741394,0.328688234090805,-0.1523806899785995,0.6820401549339294
1631204264983,0.6840507388114929,0.328688234090805,-0.1507032960653305,0.1462648063898086
1631204265076,0.7222055196762085,0.328688234090805,-0.1507032960653305,0.184138536453247
1631204265216,0.761019229888916,0.328688234090805,-0.1479420363903045,0.2227759212255478
1631204265295,0.8080825805664062,0.328688234090805,-0.1402137577533722,0.2592991590499878
1631204265357,0.8846135139465332,0.32257080078125,-0.1269061118364334,0.3060063421726227
1631204265451,0.9481654167175292,0.2693322598934173,-0.1113473623991012,0.3226764500141144
1631204265591,0.963371515274048,0.1844149231910705,-0.1123281493782997,0.3268842101097107
1631204265672,0.96390300989151,0.0848199352622032,-0.1217671334743499,0.341767281293869
1631204265781,0.96390300989151,0.0351349003612995,-0.1248102039098739,0.3491033017635345
1631204265906,0.96390300989151,0.0175673719495534,-0.1296518594026565,0.3491033017635345
1631204265985,0.96390300989151,-0.0143459783867001,-0.1058554872870445,0.3491033017635345
1631204266078,0.96390300989151,-0.0694700628519058,-0.0484290830790996,0.3550207018852234
1631204266219,0.96390300989151,-0.1515031456947326,0.0199261624366045,0.373291403055191
1631204266281,0.96390300989151,-0.1987524926662445,0.0682584717869758,0.373291403055191
1631204266406,0.96390300989151,-0.2029943913221359,0.1337814480066299,0.373291403055191
1631204266484,0.9604130387306212,-0.1669199168682098,0.1826097816228866,0.373291403055191
1631204266585,0.945830762386322,-0.0873511582612991,0.1857496201992035,0.373291403055191
1631204266694,1.1748387813568115,0.1929898262023925,0.2175399959087371,0.3716611564159393
1631204266819,1.227689504623413,0.4512075781822204,0.2936663031578064,0.3536635637283325
1631204266913,1.227689504623413,0.6253030300140381,0.3687623143196106,0.3216725885868072
1631204267006,1.225874423980713,0.6869081258773804,0.4207760989665985,0.2775295972824096
1631204267100,1.2115060091018677,0.6960002779960632,0.4207760989665985,0.2363771945238113
1631204267194,1.1971514225006104,0.6960002779960632,0.4207760989665985,0.2009852081537246
1631204267319,1.1866179704666138,0.6960002779960632,0.4207444489002228,0.1407728791236877
1631204267428,1.1773557662963867,0.6960002779960632,0.4166111946105957,0.1407728791236877
1631204267521,1.1773557662963867,0.6960002779960632,0.4134745895862579,0.1407728791236877
1631204267614,1.1773557662963867,0.6960002779960632,0.4134745895862579,0.1407728791236877
1631204267695,1.1773557662963867,0.6960002779960632,0.4134745895862579,0.1407728791236877
1631204267789,1.1773557662963867,0.6960002779960632,0.4134745895862579,0.1407728791236877
1631204267883,1.188338279724121,0.6960002779960632,0.4114047288894653,0.1407728791236877
1631204268039,1.1982613801956177,0.6960002779960632,0.4097693264484405,0.8293169140815735
1631204268133,1.2148032188415527,0.6960002779960632,0.4097693264484405,0.8782685399055481
1631204268211,1.2242435216903689,0.6975525617599487,0.4097693264484405,0.9239986538887024
1631204268302,0.974418044090271,0.6980534791946411,0.4097693264484405,0.924004852771759
1631204268427,1.012423396110535,0.6896282434463501,0.4003884196281433,0.924004852771759
1631204268505,1.0131746530532837,0.6073023676872253,0.2916588187217712,0.924004852771759
1631204268662,1.0131746530532837,0.4189737141132355,0.0302473157644271,0.924004852771759
1631204268742,1.0131746530532837,0.1543227136135101,-0.2284214496612548,0.924004852771759
1631204268836,1.0131746530532837,-0.0721559301018714,-0.1853984296321869,0.924004852771759
1631204268930,1.0132266283035278,-0.1674873828887939,-0.1394305527210235,0.924004852771759
1631204269039,1.0132266283035278,-0.2128243595361709,-0.0959372445940971,0.924004852771759
1631204269117,1.0132266283035278,-0.2206482142210006,-0.0602476522326469,0.924004852771759
1631204269273,1.0132266283035278,-0.2241279482841491,-0.0502982884645462,0.8655368685722351
1631204269367,1.0073699951171875,-0.198449432849884,-0.0501326695084571,0.8232876658439636
1631204269414,1.010313868522644,-0.0682955905795097,-0.0501326695084571,0.8017601370811462
1631204269523,1.0150758028030396,0.0487035661935806,-0.0501326695084571,0.8017601370811462
1631204269648,1.0158898830413818,0.1006058454513549,-0.0501326695084571,0.8077641129493713
1631204269742,1.0041342973709106,0.1254495531320572,-0.0501326695084571,0.8271650075912476
1631204269867,0.9470426440238952,0.1317244470119476,-0.0501326695084571,0.7856805920600891
1631204269961,0.9204914569854736,0.1314856559038162,-0.0434772670269012,0.7124251127243042
1631204270054,0.905692219734192,0.119771122932434,-0.0399150587618351,0.6993686556816101
1631204270132,0.8899563550949097,0.0973747670650482,-0.0254860538989305,0.7551442980766296
1631204270242,0.8949904441833496,0.0646450743079185,-0.0166712123900651,0.8042008280754089
1631204270367,0.8806848526000977,0.0419714637100696,-0.02390968054533,0.8133091926574707
1631204270476,0.8751603960990906,0.0257169846445322,-0.0278249438852071,0.8183901906013489
1631204270554,0.8740420937538147,0.0263044517487287,-0.0353087373077869,0.8266492486000061
1631204270668,0.8740420937538147,0.0373789146542549,-0.0409130379557609,0.833642303943634
1631204270746,0.8740420937538147,0.0393523536622524,-0.0692509859800338,0.8394040465354919
1631204270839,0.8786240816116333,0.0402751751244068,-0.1186886802315712,0.8394040465354919
1631204270933,0.8798432350158691,0.0558050386607646,-0.133472055196762,0.8394040465354919
1631204271089,0.8784071803092957,0.058484811335802,-0.0862071514129638,0.8394040465354919
1631204271168,0.8590632677078247,0.0439894050359725,-0.0464813783764839,0.8394040465354919
1631204271292,0.8320758938789368,0.0178418830037117,-0.023325327783823,0.8394040465354919
1631204271371,0.827921986579895,-0.0082593113183975,-0.0160420350730419,0.8394040465354919
1631204271464,0.8330217599868774,-0.0143319405615329,-0.0117723364382982,0.8394040465354919
1631204271542,0.8476822972297668,0.0088738705962896,-0.0066999522969126,0.8393363952636719
1631204271699,0.8506406545639038,0.013686834834516,-0.0066999522969126,0.8218914270401001
1631204271795,0.8415120244026184,0.0269892122596502,-0.018848069012165,0.7626523375511169
1631204271889,0.8483011722564697,0.0313891060650348,-0.0422586910426616,0.7101551294326782
1631204271982,0.8761845827102661,0.0313891060650348,-0.0619673430919647,0.6608166098594666
1631204272061,0.8879361152648926,0.0313891060650348,-0.0628860592842102,0.6279258131980896
1631204272186,0.8976573944091797,0.024176936596632,-0.0622919239103794,0.5942131280899048
1631204272295,0.9091015458106996,0.019673328846693,-0.0608736984431743,0.5807065963745117
1631204272388,0.9115790128707886,0.0252134948968887,-0.0608736984431743,0.5917747616767883
1631204272482,0.9105912446975708,0.0252134948968887,-0.0624890848994255,0.6174941658973694
1631204272591,0.9103889465332032,0.0207349695265293,-0.0671851634979248,0.6192946434020996
1631204272685,0.9001418948173523,0.0170440580695867,-0.0738878324627876,0.6192946434020996
1631204272795,0.8779796957969666,0.0150632141157984,-0.0890564396977424,0.6189542412757874
1631204272904,0.8736320734024048,0.0059305019676685,-0.1193544864654541,0.6189542412757874
1631204273014,0.8736320734024048,-0.0311098005622625,-0.1447152197360992,0.6189542412757874
1631204273092,0.8705801963806152,-0.1244035139679908,-0.159399151802063,0.6189542412757874
1631204273232,0.8489526510238647,-0.156785175204277,-0.1734679639339447,0.6115962862968445
1631204273294,0.8299890756607056,-0.0590816847980022,-0.1203962713479995,0.6067098379135132
1631204273388,0.7992761731147766,-0.0442512035369873,-0.0431939586997032,0.6214872598648071
1631204273513,0.7886782884597778,-0.0409667342901229,-0.0033184308558702,0.6372317671775818
1631204273607,0.8355228304862976,-0.0409667342901229,-0.0051733059808611,0.6375032663345337
1631204273701,0.8771985173225403,-0.0218188948929309,-0.0175070669502019,0.6375032663345337
1631204273810,0.9123041033744812,0.0387440659105777,-0.0250646043568849,0.6331018209457397
1631204273904,0.9352413415908812,0.159669741988182,-0.0250646043568849,0.6167082786560059
1631204273997,0.9976790547370912,0.2884047329425812,-0.0250646043568849,0.5696163773536682
1631204274138,1.0119134187698364,0.3276040852069855,-0.0250646043568849,0.5044692158699036
1631204274232,1.0119134187698364,0.3309671282768249,-0.0250646043568849,0.4783645570278168
1631204274325,1.0119134187698364,0.3391163647174835,-0.0240870043635368,0.4879719614982605
1631204274404,1.0119134187698364,0.3407515287399292,-0.0176562946289777,0.4917543530464172
1631204274513,1.0119134187698364,0.3407515287399292,-0.0068155503831803,0.5125924348831177
1631204274607,1.0119134187698364,0.3407515287399292,0.004170224070549,0.5243803858757019
1631204274732,1.0119134187698364,0.3407515287399292,0.0059347469359636,0.5322881937026978
1631204274841,1.0133616924285889,0.3403308987617492,0.0059347469359636,0.5422765016555786
1631204274935,1.0133616924285889,0.3315833508968353,0.0074992552399635,0.5572823286056519
1631204275028,1.0133616924285889,0.3315833508968353,-0.0230323392897844,0.545133113861084
1631204275122,1.0133616924285889,0.3315833508968353,-0.0787790343165397,0.4999942183494568
1631204275200,1.0201250314712524,0.3315833508968353,-0.152821809053421,0.4824006855487823
1631204275341,1.0283620357513428,0.3271299302577972,-0.137404590845108,0.4776491224765777
1631204275435,1.0101114511489868,0.3271299302577972,-0.0877154916524887,0.4798678755760193
1631204275544,0.9895530343055724,0.3256491124629974,-0.0185853671282529,0.4805826544761657
1631204275653,0.962148368358612,0.2418109774589538,0.0285848006606102,0.4752596914768219
1631204275731,0.9399037957191468,0.1148414686322212,0.0456268079578876,0.4723956882953644
1631204275809,0.9231905937194824,0.0629801228642463,0.0456268079578876,0.4309390783309936
1631204275966,0.9196380972862244,0.0217502489686012,0.0456268079578876,0.4059410095214844
1631204276075,0.9196380972862244,-0.0072706206701695,0.0456268079578876,0.4059410095214844
1631204276137,0.9261916875839232,-0.038804292678833,0.05801897123456,0.4059410095214844
1631204276247,0.9434462785720824,-0.0452662631869316,0.0530254580080509,0.4059410095214844
1631204276341,0.9769095182418824,-0.0452662631869316,0.0341486521065235,0.4090255200862884
1631204276419,1.0042319297790527,-0.0528142414987087,0.0267416816204786,0.4316212832927704
1631204276544,1.0048093795776367,-0.0528142414987087,0.0268907360732555,0.4568106234073639
1631204276684,1.0048093795776367,-0.0581478923559188,0.0288219302892684,0.4587647020816803
1631204276780,1.0048093795776367,-0.0898858979344368,0.0121828792616724,0.4587647020816803
1631204276843,1.0048093795776367,-0.1187610402703285,-0.0088669704273343,0.4572229981422424
1631204276921,0.9898326992988586,-0.128898948431015,-0.0250411368906497,0.4432646930217743
1631204277046,0.945366382598877,-0.1262429654598236,-0.0298534482717514,0.4234688282012939
1631204277218,0.8997886180877686,-0.1337689906358719,-0.0298210363835096,0.4291040897369385
1631204277296,0.8590442538261414,-0.1906019151210785,-0.027494354173541,0.4303218126296997
1631204277374,0.8113793730735779,-0.2074251919984817,-0.0462912954390049,0.4026069641113281
1631204277483,0.7804637551307678,-0.2074251919984817,-0.0908553227782249,0.386807918548584
1631204277546,0.7850394248962402,-0.207294151186943,-0.1464810222387313,0.438021183013916
1631204277655,0.7935743927955627,-0.1897603124380111,-0.1590704917907714,0.465048998594284
1631204277780,0.7961626052856445,-0.1750994175672531,-0.180286020040512,0.4697570502758026
1631204277889,0.803811252117157,-0.1701546609401703,-0.1958214193582534,0.4753443002700805
1631204277983,0.8508496880531311,-0.1051802933216095,-0.2220660001039505,0.5125492215156555
1631204278062,0.8904291987419128,-0.0159167777746915,-0.205228790640831,0.54371577501297
1631204278171,0.9463274478912354,0.0202579535543918,-0.1758700013160705,0.5871102809906006
1631204278249,0.9655065536499025,0.0202579535543918,-0.1745585948228836,0.6318325400352478
1631204278389,0.9810817837715148,0.0196276027709245,-0.1745585948228836,0.648811399936676
1631204278467,0.9941526055336,0.0196276027709245,-0.1745585948228836,0.6490321755409241
1631204278592,1.0101090669631958,0.0196276027709245,-0.1752533465623855,0.6593245267868042
1631204278686,1.0317307710647583,0.0401685833930969,-0.1678888797760009,0.6695501804351807
1631204278780,1.0358563661575315,0.0652520880103111,-0.1271944344043731,0.6745443344116211
1631204278874,1.0358563661575315,0.0738347843289375,-0.1183851137757301,0.6809263229370117
1631204279014,1.0358563661575315,0.0811429694294929,-0.1164707988500595,0.6818774938583374
1631204279124,1.0358563661575315,0.0854384303092956,-0.1029497385025024,0.6818774938583374
1631204279186,1.0358563661575315,0.0901388823986053,-0.0884672403335571,0.6630250811576843
1631204279295,1.0358563661575315,0.086434356868267,-0.0788525268435478,0.657268762588501
1631204279389,1.0358563661575315,0.0821022689342498,-0.0839838236570358,0.6629862189292908
1631204279483,1.0358563661575315,0.0826742723584175,-0.0859056115150451,0.6669338941574097
1631204279608,1.0358563661575315,0.0757832750678062,-0.0859056115150451,0.6705389022827148
1631204279720,1.026478886604309,0.0551718771457672,-0.0859504044055938,0.7013724446296692
1631204279798,0.9935460686683656,-0.0058223861269652,-0.0904225707054138,0.7000588178634644
1631204279876,0.9851833581924438,-0.0928758382797241,-0.0882538855075836,0.672427773475647
1631204279985,0.9897146224975586,-0.1264350265264511,-0.0847682133316993,0.6253201961517334
1631204280110,0.9897146224975586,-0.124218001961708,-0.07102020829916,0.5922695398330688
1631204280236,0.9691533446311952,-0.1235876828432083,-0.0635243877768516,0.5931534171104431
1631204280314,0.9373982548713684,-0.1337400525808334,-0.0640508159995079,0.6365005373954773
1631204280407,0.9072939157485962,-0.1545967161655426,-0.1118878573179245,0.6500743627548218
1631204280532,0.9069355726242064,-0.180473119020462,-0.1753498613834381,0.6485017538070679
1631204280610,0.9055787920951844,-0.180473119020462,-0.1753853410482406,0.6485017538070679
1631204280688,0.9055787920951844,-0.180473119020462,-0.1451155245304107,0.6485017538070679
1631204280845,0.9055787920951844,-0.180473119020462,-0.1284401416778564,0.6485017538070679
1631204280938,0.9071654081344604,-0.1857676059007644,-0.1294949799776077,0.6485017538070679
1631204281016,0.9071654081344604,-0.2112367451190948,-0.1484884768724441,0.6475006341934204
1631204281126,0.9171743988990784,-0.2421763092279434,-0.1941817104816436,0.6469970941543579
1631204281204,0.9546570777893066,-0.2258539795875549,-0.228124737739563,0.6460069417953491
1631204281282,1.0001980066299438,-0.1469724476337433,-0.2439110577106475,0.7329973578453064
1631204281423,1.027644395828247,-0.1000524014234542,-0.2445886880159378,0.8284310698509216
1631204281548,1.054019570350647,-0.0756735280156135,-0.2042831480503082,0.881302535533905
1631204281626,1.0764291286468506,-0.0609074868261814,-0.145585685968399,0.9000350832939148
1631204281724,1.094489812850952,-0.0260221567004919,-0.0930631682276725,0.9008057713508606
1631204281833,1.128146052360535,0.0307341609150171,-0.0768110603094101,0.899152398109436
1631204281958,1.1738364696502686,0.0494344644248485,-0.0760405287146568,0.899152398109436
1631204282036,1.1818006038665771,0.0526114553213119,-0.0760405287146568,0.9007649421691896
1631204282176,1.1864511966705322,0.0548312067985534,-0.0760405287146568,0.9002939462661743
1631204282239,1.1894190311431885,0.0546188876032829,-0.0760405287146568,0.9002939462661743
1631204282317,1.184990644454956,0.0664694979786872,-0.0774331539869308,0.8999287486076355
1631204282473,1.1764308214187622,0.0872907042503357,-0.0774331539869308,0.8999287486076355
1631204282504,1.173690676689148,0.1011649072170257,-0.0774331539869308,0.9071115255355836
1631204282670,1.173690676689148,0.1011649072170257,-0.0836331248283386,0.9689491987228394
1631204282779,1.1858519315719604,0.0971862524747848,-0.0933976098895073,1.0584224462509155
1631204282842,1.2478820085525513,0.0913374051451683,-0.1077430918812751,1.1258821487426758
1631204282920,1.245007872581482,0.0778216049075126,-0.1401407569646835,1.1286137104034424
1631204283029,1.245007872581482,0.0865477547049522,-0.1256775856018066,1.106997847557068
1631204283138,1.2366992235183716,0.0968991443514823,-0.0869215279817581,1.0531659126281738
1631204283264,1.2263537645339966,0.1083571910858154,-0.0692778825759887,1.002779245376587
1631204283357,1.2290968894958496,0.0964879915118217,-0.0597677305340766,1.0017104148864746
1631204283451,1.2290968894958496,0.0535325109958648,-0.044372122734785,1.0017104148864746
1631204283560,1.2290968894958496,-0.0222695712000131,-0.0167958680540323,1.0017104148864746
1631204283623,1.2290968894958496,-0.0454769283533096,0.0001469472772441,1.007490634918213
1631204283732,1.22559654712677,-0.0454769283533096,-0.0004111074958927,1.0207624435424805
1631204283873,1.216612696647644,-0.0454769283533096,-0.0072447364218533,1.030124306678772
1631204283966,1.209153413772583,-0.0454769283533096,-0.013443530537188,1.0404434204101562
1631204284060,1.2037909030914309,-0.0555228181183338,-0.013443530537188,1.0519342422485352
1631204284154,1.1989481449127195,-0.0603408776223659,-0.013443530537188,1.060561180114746
1631204284263,1.185861110687256,-0.0603408776223659,-0.013443530537188,1.0637826919555664
1631204284341,1.1423940658569336,-0.0639279782772064,-0.013443530537188,1.063550591468811
1631204284482,1.0136337280273438,-0.0702280700206756,-0.013443530537188,0.9766824841499328
1631204284580,0.8427297472953796,-0.0894995257258415,-0.013443530537188,0.8326653242111206
1631204284689,0.7627190351486206,-0.0799081474542617,-0.0105401063337922,0.8326653242111206
1631204284767,0.7627190351486206,-0.058163646608591,-0.0105401063337922,0.8326653242111206
1631204284861,0.7547581195831299,-0.1045285612344741,-0.0138727780431509,0.8326653242111206
1631204284955,0.7092087268829346,-0.1727576702833175,-0.0382356345653533,0.8326653242111206
1631204285126,0.6698785424232483,-0.1526304185390472,-0.0991601943969726,0.8326653242111206
1631204285205,0.6683708429336548,-0.1252236664295196,-0.1630304306745529,0.8265240788459778
1631204285283,0.6683708429336548,-0.0985859408974647,-0.1919184029102325,0.7964800596237183
1631204285376,0.6654972434043884,-0.0843509286642074,-0.168898344039917,0.7507933974266052
1631204285517,0.6562623977661133,-0.0746848061680793,-0.1426787078380584,0.8206722140312195
1631204285564,0.607978880405426,-0.0559969581663608,-0.1181649044156074,0.821722686290741
1631204285736,0.5112650394439697,-0.0301015023142099,-0.1109572798013687,0.7966127991676331
1631204285783,0.5112650394439697,0.0152704948559403,-0.0592480413615703,0.7471770644187927
1631204285876,0.5112650394439697,0.0474138297140598,0.0318275094032287,0.7360443472862244
1631204285970,0.5112650394439697,0.0474138297140598,0.0526409111917018,0.7360443472862244
1631204286095,0.5112650394439697,0.0474138297140598,0.0548363141715526,0.7360443472862244
1631204286204,0.5112650394439697,0.0474138297140598,0.0569470413029193,0.7360443472862244
1631204286298,0.5112650394439697,0.0466273874044418,0.0569470413029193,0.7360443472862244
1631204286423,0.5112650394439697,0.0467284098267555,0.0569470413029193,0.7360443472862244
1631204286501,0.5112650394439697,0.051241211593151,0.0569470413029193,0.7360443472862244
1631204286598,0.5112650394439697,0.0522026717662811,0.0569470413029193,0.7360443472862244
1631204286676,0.5112650394439697,0.0505892038345336,0.0569470413029193,0.6315388679504395
1631204286786,0.5112650394439697,0.0505892038345336,0.0552778504788875,0.6408768892288208
1631204286926,0.8181267380714417,0.0505892038345336,0.0418620631098747,0.6626700162887573
1631204287004,0.8356649279594421,0.0505892038345336,0.0318627618253231,0.6706284284591675
1631204287114,0.8435174226760864,0.0505892038345336,0.0148318409919738,0.4917518198490143
1631204287208,0.8521021008491516,0.0505892038345336,-0.0051313508301973,0.4917518198490143
1631204287317,0.8630388975143433,0.0385185331106185,-0.0136579070240259,0.5166882276535034
1631204287380,0.8662031292915344,-0.0232197344303131,-0.0146053424105048,0.5842180848121643
1631204287551,0.8703939318656921,-0.1115535497665405,-0.0773293524980545,0.6857876181602478
1631204287629,0.8966788053512573,-0.0894685164093971,-0.2041530162096023,0.7356126308441162
1631204287754,0.902493417263031,-0.0715022459626197,-0.2680139541625976,0.7375423908233643
1631204287804,0.902493417263031,-0.0715022459626197,-0.2727521359920501,0.7375423908233643
1631204287913,0.902493417263031,-0.0715022459626197,-0.2752044796943664,0.7375423908233643
1631204288038,0.902493417263031,-0.0876866951584816,-0.2500579953193664,0.7375423908233643
1631204288147,0.9046605825424194,-0.1279190778732299,-0.2341534197330474,0.7375423908233643
1631204288272,0.9075347185134888,-0.1725125908851623,-0.2223923653364181,0.7375423908233643
1631204288350,0.9299716949462892,-0.1623061150312423,-0.219728872179985,0.7298284769058228
1631204288444,0.9460881948471068,-0.1470623910427093,-0.1892284154891967,0.7069540023803711
1631204288522,0.9513803124427797,-0.146170362830162,-0.1355355381965637,0.6711969971656799
1631204288616,0.951011061668396,-0.146170362830162,-0.0732833445072174,0.6442295908927917
1631204288772,0.9508037567138672,-0.146170362830162,-0.0096303345635533,0.632139265537262
1631204288866,0.9754972457885742,-0.146170362830162,0.0068992213346064,0.624452531337738
1631204288960,1.0000649690628052,-0.1423192024230957,0.009440385736525,0.6202740669250488
1631204289038,1.0000649690628052,-0.1422995328903198,0.009440385736525,0.6192319393157959
1631204289147,1.0000649690628052,-0.1422995328903198,0.009440385736525,0.6208047270774841
1631204289210,0.9984555840492249,-0.1858245432376861,0.009440385736525,0.6175307035446167
1631204289397,1.0193861722946167,-0.2542658150196075,0.009440385736525,0.6170539259910583
1631204289459,1.0342917442321775,-0.2806215584278106,-0.0008587588090449,0.6138509511947632
1631204289587,1.0467250347137451,-0.2554386854171753,-0.0121316891163587,0.6135200262069702
1631204289665,1.061403512954712,-0.2026406824588775,-0.0132669489830732,0.6122714877128601
1631204289728,1.0673224925994873,-0.1128326654434204,-0.0112280864268541,0.640072762966156
1631204289853,1.0516698360443115,-0.0367210060358047,-0.0127403512597084,0.6647005677223206
1631204289993,1.018782615661621,-0.000694980029948,-0.0040135001763701,0.6993206143379211
1631204290071,0.983559787273407,0.0031367363408207,0.0168694537132978,0.708961546421051
1631204290181,0.9651880264282228,0.0189681686460971,0.0153788812458515,0.708961546421051
1631204290259,0.961799681186676,0.0481910146772861,-0.0006424838793464,0.709988534450531
1631204290337,0.957616925239563,0.0842763781547546,-0.0329026356339454,0.7125079035758972
1631204290431,0.8933823704719543,0.1149093061685562,-0.006658389698714,0.714489758014679
1631204290592,0.8968390226364136,0.12229835242033,0.0404405295848846,0.714489758014679
1631204290670,0.8968390226364136,0.1230377033352851,0.0651666224002838,0.5397162437438965
1631204290795,0.8968390226364136,0.1238808333873748,0.0737237855792045,0.5516543388366699
1631204290857,0.874763548374176,0.1272440254688263,0.0763300433754921,0.5769846439361572
1631204290967,0.8187441825866699,0.130319744348526,0.0763300433754921,0.6154754161834717
1631204291077,0.7903449535369873,0.1330060064792633,0.0763300433754921,0.6907329559326172
1631204291186,0.7918173670768738,0.1340588629245758,0.0790957435965538,0.7564010620117188
1631204291326,0.7904068231582642,0.1340588629245758,0.0790957435965538,0.7730180621147156
1631204291389,0.8028820157051086,0.1340588629245758,0.0790957435965538,0.7795285582542419
1631204291467,0.8508222103118896,0.115763746201992,0.0790957435965538,0.7755663394927979
1631204291579,0.8481690883636475,0.0593121796846389,0.0790957435965538,0.7712931036949158
1631204291657,0.8366236090660095,0.0094522731378674,0.0627466663718223,0.7707618474960327
1631204291798,0.8305751085281372,-0.0001837414456531,0.0419974289834499,0.7707618474960327
1631204291891,0.8305751085281372,-0.0001837414456531,0.1052449494600296,0.7707618474960327
1631204292001,0.8305751085281372,-0.0040224860422313,0.1882516592741012,0.7707618474960327
1631204292079,0.8285547494888306,0.0322299189865589,0.3221714198589325,0.7618206143379211
1631204292173,0.8285547494888306,0.0862963423132896,0.3899752497673034,0.7509351372718811
1631204292298,0.8285547494888306,0.0849362537264823,0.3819970786571502,0.7509351372718811
1631204292407,0.8285547494888306,0.0797894895076751,0.370905339717865,0.7509351372718811
1631204292501,0.8285547494888306,0.0785047486424446,0.3603387773036957,0.7509351372718811
1631204292579,0.8285547494888306,0.0785047486424446,0.3580841422080993,0.7367574572563171
1631204292688,0.8285547494888306,0.0767307877540588,0.3580841422080993,0.7367574572563171
1631204292785,0.8285547494888306,0.0737270787358284,0.3580841422080993,0.7367574572563171
1631204292878,0.8285547494888306,0.0736216455698013,0.361901044845581,0.7367574572563171
1631204293019,0.8285547494888306,0.0766337588429451,0.3639660179615021,0.7367574572563171
1631204293097,0.8285547494888306,0.0766027644276619,0.3639660179615021,0.7367574572563171
1631204293207,0.8285547494888306,0.0770262032747268,0.3639660179615021,0.7367574572563171
1631204293300,0.818722128868103,0.0773750692605972,0.3639660179615021,0.5790926218032837
1631204293378,0.8923414349555969,0.0793408975005149,0.3599713444709778,0.6120238900184631
1631204293496,0.9605563282966614,0.0833322405815124,0.3554443418979645,0.6369298100471497
1631204293633,0.977904200553894,0.0846296772360801,0.3534584939479828,0.6582880020141602
1631204293727,0.977904200553894,0.0504267141222953,0.3169050216674804,0.6625662446022034
1631204293805,0.977904200553894,-0.0106180710718035,0.1553967297077179,0.6625662446022034
1631204293930,0.977904200553894,-0.072633258998394,-0.1001747846603393,0.6638346314430237
1631204294024,0.977904200553894,-0.0976223945617675,-0.3149411380290985,0.6638346314430237
1631204294118,0.9789696335792542,-0.0914641693234443,-0.4146854877471924,0.6638346314430237
1631204294258,0.9837679862976074,-0.0907189473509788,-0.4168373346328735,0.6638346314430237
1631204294336,0.9840297698974608,-0.0854303166270256,-0.3710694313049316,0.6638346314430237
1631204294414,0.9840297698974608,-0.0854303166270256,-0.3017104566097259,0.6638346314430237
1631204294508,0.9840297698974608,-0.0857354402542114,-0.2709323167800903,0.6638346314430237
1631204294586,0.9838133454322816,-0.0829043164849281,-0.27122962474823,0.6508844494819641
1631204294742,0.9783435463905334,-0.0829043164849281,-0.2440531849861145,0.5869203805923462
1631204294840,0.9651030898094176,-0.0876285135746002,-0.2345604747533798,0.5305936336517334
1631204294934,0.959040343761444,-0.0642291381955146,-0.2345604747533798,0.479922741651535
1631204295043,0.938391923904419,-0.0258286818861961,-0.2345604747533798,0.4570260047912597
1631204295136,0.9017717242240906,-0.0027482321020215,-0.2336429357528686,0.4431039988994598
1631204295215,0.8993643522262573,-0.0181885696947574,-0.2257397621870041,0.4155409038066864
1631204295308,0.907346248626709,-0.0401627272367477,-0.2059374749660492,0.3819027245044708
1631204295464,0.907346248626709,-0.0421691015362739,-0.1602891832590103,0.3402262330055237
1631204295558,0.907346248626709,-0.0413635857403278,-0.0979741513729095,0.2801747620105743
1631204295636,0.9073500037193298,-0.0528777949512004,-0.0367780588567256,0.2467329651117324
1631204295746,0.906181275844574,-0.0646094307303428,-0.0038782253395766,0.2463268041610717
1631204295839,0.897322952747345,-0.0598119758069515,0.0215258039534091,0.2560041546821594
1631204295918,0.8464882969856262,-0.0586284957826137,0.044812873005867,0.2560041546821594
1631204296043,0.7645214796066284,-0.0510652773082256,0.0587885007262229,0.2545071542263031
1631204296152,0.7461652159690857,-0.0390755347907543,0.0635377988219261,0.2545071542263031
1631204296261,0.7419813871383667,-0.0322008803486824,0.0538845211267471,0.2545071542263031
1631204296339,0.740225076675415,-0.0351234078407287,0.0379818119108676,0.2545071542263031
1631204296449,0.7390407919883728,-0.0244242064654827,0.0281057618558406,0.2513943910598755
1631204296542,0.7390407919883728,-0.0045279725454747,0.0245746057480573,0.2261679619550705
1631204296683,0.7389102578163147,0.0068984739482402,0.0231163520365953,0.1892741024494171
1631204296808,0.7319555878639221,0.0107434019446372,0.0231163520365953,0.1562966853380203
1631204296855,0.7090327739715576,-0.0122694028541445,0.0231163520365953,0.1401122063398361
1631204296964,0.6553037166595459,-0.0234732553362846,0.0231163520365953,0.1299944221973419
1631204297058,0.6553037166595459,0.0245958101004362,0.0231163520365953,0.1299944221973419
1631204297152,0.6553037166595459,0.0860901847481727,0.0065673445351421,0.1299944221973419
1631204297277,0.6553037166595459,0.1658526510000229,-0.0223898030817508,0.1299944221973419
1631204297370,0.6553037166595459,0.2408458143472671,-0.0223898030817508,0.1299944221973419
1631204297464,0.6553037166595459,0.2519241869449615,-0.0223898030817508,0.1299944221973419
1631204297558,0.6553037166595459,0.2506599724292755,-0.0223898030817508,0.1299944221973419
1631204297683,0.6553037166595459,0.2506599724292755,-0.0223898030817508,0.1299944221973419
1631204297795,0.6553037166595459,0.2506599724292755,-0.0223898030817508,0.1299944221973419
1631204297888,0.6553037166595459,0.2506599724292755,-0.0223898030817508,0.1299944221973419
1631204297982,0.6553037166595459,0.2506599724292755,-0.0223898030817508,0.1299944221973419
1631204298076,0.6553037166595459,0.2552629709243774,-0.0223898030817508,0.1299944221973419
1631204298216,0.6553037166595459,0.2694316804409027,-0.0223898030817508,0.1299944221973419
1631204298263,0.6553037166595459,0.2703281044960022,-0.0223898030817508,0.1299944221973419
1631204298388,0.6553037166595459,0.2703281044960022,-0.0223898030817508,0.1299944221973419
1631204298513,0.6553037166595459,0.2703281044960022,-0.0223898030817508,0.1299944221973419
1631204298607,0.6553037166595459,0.2782807350158691,-0.0223898030817508,0.1299944221973419
1631204298685,0.6553037166595459,0.2840819954872131,-0.0223898030817508,0.1299944221973419
1631204298780,0.6553037166595459,0.2803289592266083,-0.0223898030817508,0.1299944221973419
1631204298867,0.6553037166595459,0.2735134363174438,-0.0223898030817508,0.1299944221973419
1631204298976,0.6553037166595459,0.2525523602962494,-0.0223898030817508,0.1299944221973419
1631204299102,0.6553037166595459,0.2588194608688354,-0.0223898030817508,0.1299944221973419
1631204299227,0.6553037166595459,0.2899151146411896,-0.0223898030817508,0.1299944221973419
1631204299304,0.6553037166595459,0.2921653687953949,-0.0223898030817508,0.1299944221973419
1631204299382,0.6553037166595459,0.3079826235771179,0.5007108449935913,0.1299944221973419
1631204299476,0.6553037166595459,0.3255549967288971,0.5071375370025635,0.1299944221973419
1631204299570,0.6553037166595459,0.3433613777160644,0.507837176322937,0.1299944221973419
1631204299726,0.762896716594696,0.3551600575447082,0.507837176322937,0.7677620649337769
1631204299807,0.762896716594696,0.3550481498241424,0.507837176322937,0.7679508328437805
1631204299901,0.762896716594696,0.3550481498241424,0.507837176322937,0.7679508328437805
1631204300010,0.762896716594696,0.3550481498241424,0.507837176322937,0.7679508328437805
1631204300104,0.762896716594696,0.3550481498241424,0.1589290350675583,0.7679508328437805
1631204300198,0.762896716594696,0.3550481498241424,0.1589290350675583,0.7679508328437805
1631204300323,0.762896716594696,0.3550481498241424,0.1589290350675583,0.7679508328437805
1631204300417,0.762896716594696,0.3550481498241424,0.1589290350675583,0.7679508328437805
1631204300510,0.762896716594696,0.3535278141498565,0.1589290350675583,0.7679508328437805
1631204300588,0.762896716594696,0.3431305289268493,0.1589290350675583,0.7679508328437805
1631204300713,0.762896716594696,0.3188732862472534,0.1589290350675583,0.7679508328437805
1631204300810,0.762896716594696,0.2781085669994354,0.1589290350675583,0.7679508328437805
1631204300935,0.762896716594696,0.2425170540809631,0.1587930172681808,0.7672405242919922
1631204301044,0.762896716594696,0.2051891982555389,0.1284862160682678,0.7672405242919922
1631204301138,0.762896716594696,0.1708946228027343,0.0750858038663864,0.7672405242919922
1631204301232,0.762896716594696,0.1298779100179672,0.0259711667895317,0.7672405242919922
1631204301325,0.762896716594696,0.1197330132126808,0.0446016751229763,0.7672405242919922
1631204301403,0.5211899876594543,0.1569462418556213,0.0863406062126159,0.7672405242919922
1631204301544,0.5211899876594543,0.2086219489574432,0.11094781011343,0.7672405242919922
1631204301625,0.5211899876594543,0.2413929849863052,0.1425035744905471,0.7672405242919922
1631204301719,0.5211899876594543,0.2413929849863052,0.1469972729682922,0.7672405242919922
1631204301828,0.5211899876594543,0.2357966303825378,0.2050259560346603,0.7672405242919922
1631204301922,0.5211899876594543,0.236962005496025,0.2985122799873352,0.7672405242919922
1631204302016,0.5211899876594543,0.2439788728952407,0.3316335678100586,0.7672405242919922
1631204302141,0.5211899876594543,0.2452013343572616,0.3316335678100586,0.7672405242919922
1631204302266,0.5211899876594543,0.2515128552913666,0.3316335678100586,0.7672405242919922
1631204302344,0.5211899876594543,0.2950470745563507,0.3330737054347992,0.7672405242919922
1631204302438,0.5211899876594543,0.3993240296840668,0.3748506009578705,0.7672405242919922
1631204302547,0.5211899876594543,0.4873136579990387,0.5116286277770996,0.7672405242919922
1631204302628,0.5211899876594543,0.5006861090660095,0.535873293876648,0.7672405242919922
1631204302769,0.5211899876594543,0.5006861090660095,0.535873293876648,0.7672405242919922
1631204302862,0.5211899876594543,0.5006861090660095,0.535873293876648,0.7672405242919922
1631204302972,0.5211899876594543,0.5006861090660095,0.5336961150169373,0.7672405242919922
1631204303034,0.5211899876594543,0.4956212639808655,0.5303777456283569,0.7672405242919922
1631204303159,0.9457809925079346,0.4820416271686554,0.525444507598877,-0.1835000962018966
1631204303222,0.9505316615104676,0.4698885977268219,0.5156053304672241,-0.1011150404810905
1631204303362,0.9625654816627502,0.4698885977268219,0.5156053304672241,0.141803354024887
1631204303456,0.9625654816627502,0.4698885977268219,0.5158957242965698,0.3999588787555694
1631204303565,0.9625654816627502,0.4698885977268219,0.5205060243606567,0.3999588787555694
1631204303677,0.9625654816627502,0.4666139483451843,0.5411041378974915,0.3999588787555694
1631204303755,0.9625654816627502,0.4793196320533752,0.5411041378974915,0.3999588787555694
1631204303849,0.9625654816627502,0.4884727299213409,0.5411041378974915,0.3999588787555694
1631204303990,0.9625654816627502,0.4924594759941101,0.5411041378974915,0.3999588787555694
1631204304083,0.9625654816627502,0.4703635573387146,0.529009222984314,0.3999588787555694
1631204304178,0.9625654816627502,0.4229909181594848,0.4146591126918793,0.3999588787555694
1631204304271,0.9625654816627502,0.418997198343277,0.1980418711900711,0.3999588787555694
1631204304365,0.8512780666351318,0.4166139662265777,0.0916077718138694,0.3999588787555694
1631204304458,0.7581470608711243,0.4165695309638977,0.0916077718138694,0.3999588787555694
1631204304599,0.7581470608711243,0.4165695309638977,0.0916077718138694,0.3999588787555694
1631204304677,0.7581470608711243,0.4165695309638977,0.0916077718138694,0.3999588787555694
1631204304786,0.7581470608711243,0.4165695309638977,0.0916077718138694,0.3999588787555694
1631204304896,0.7581470608711243,0.4492307007312774,0.0916077718138694,0.3999588787555694
1631204304974,0.7581470608711243,0.4860959947109222,0.0916077718138694,0.3999588787555694
1631204305068,0.7581470608711243,0.5029310584068298,0.0875527933239936,0.3999588787555694
1631204305208,0.8878406286239624,0.5029310584068298,-0.3053435087203979,0.3999588787555694
1631204305318,0.9382585287094116,0.4963081479072571,-0.2133117020130157,1.0452828407287598
1631204305380,0.9668975472450256,0.4599969089031219,-0.1510412096977234,1.1772592067718506
1631204305489,0.9709112048149108,0.3770440816879272,-0.1288868933916092,1.261760115623474
1631204305599,0.9709112048149108,0.2608737647533417,-0.087066113948822,1.3148831129074097
1631204305666,0.9858846664428712,0.2106532156467437,-0.0508345402777195,1.3533451557159424
1631204305807,1.132479548454285,0.2083034962415695,0.0085710892453789,1.3779525756835938
1631204305901,1.2583928108215332,0.2083034962415695,0.0727152898907661,1.3863223791122437
1631204306010,1.3005614280700684,0.2083034962415695,0.1259122788906097,1.3929768800735474
1631204306135,1.3010987043380735,0.2083034962415695,0.1430961340665817,1.3987089395523071
1631204306198,1.3010987043380735,0.2112320810556411,0.1591135859489441,1.3987089395523071
1631204306307,1.3010987043380735,0.220908060669899,0.1994596272706985,1.3987089395523071
1631204306447,1.3010987043380735,0.2181855291128158,0.2212128192186355,1.3987089395523071
1631204306495,1.3010987043380735,0.1979109793901443,0.2338292002677917,1.3987089395523071
1631204306638,1.3010987043380735,0.1448383927345276,0.2368267774581909,1.3983814716339111
1631204306732,1.2976726293563845,0.0602536499500274,0.2383883446455001,1.397507667541504
1631204306810,1.2857874631881714,0.0201745368540287,0.24541737139225,1.397830367088318
1631204306903,1.2948335409164429,0.0252051930874586,0.2447629868984222,1.4011415243148804
1631204307044,1.3267822265625,0.0725279375910759,0.2604443430900574,1.3763550519943235
1631204307138,1.367321252822876,0.1001732051372528,0.2689453363418579,1.3648592233657837
1631204307216,1.3774433135986328,0.1256269365549087,0.2757395207881927,1.3650286197662354
1631204307326,1.3774433135986328,0.1539225876331329,0.2786182761192322,1.3650286197662354
1631204307419,1.3758585453033447,0.1855298578739166,0.2786182761192322,1.3554449081420898
1631204307513,1.3528562784194946,0.2045193165540695,0.2786182761192322,1.3331788778305054
1631204307653,1.3090144395828247,0.2044819146394729,0.2603291571140289,1.2719430923461914
1631204307747,1.2792919874191284,0.2044819146394729,0.2222163677215576,1.2502063512802124
1631204307825,1.2725820541381836,0.2044819146394729,0.1644335836172104,1.2552763223648071
1631204307919,1.2725820541381836,0.1939312666654586,0.1484415084123611,1.2578699588775637
1631204307997,1.275365710258484,0.1759996712207794,0.1428012400865554,1.2578699588775637
1631204308106,1.2797057628631592,0.1686050593852996,0.1428012400865554,1.2602509260177612
1631204308278,1.2870949506759644,0.1677647978067398,0.1428012400865554,1.2720259428024292
1631204308356,1.2886947393417358,0.1677647978067398,0.1428012400865554,1.2797361612319946
1631204308435,1.2884782552719116,0.166274145245552,0.1315845102071762,1.2804193496704102
1631204308512,1.2622841596603394,0.1560250222682953,0.1029236912727356,1.2830747365951538
1631204308622,1.225350022315979,0.1175951361656189,0.052190251648426,1.2802305221557615
1631204308735,1.2033740282058716,0.0753579139709472,0.0248929485678672,1.2425038814544678
1631204308845,1.188515305519104,0.0396392717957496,-0.0061213313601911,1.1931062936782837
1631204308970,1.1843379735946655,0.0170526560395956,-0.0994466692209243,1.1764936447143557
1631204309048,1.1843379735946655,0.0449381433427333,-0.1563334465026855,1.1900355815887451
1631204309141,1.1843379735946655,0.0896347612142562,-0.1479796767234802,1.2236250638961792
1631204309235,1.181626796722412,0.1017977893352508,-0.1238446980714798,1.2506382465362549
