timestamp,TP9,AF7,AF8,TP10
1631204135312,0.8601816296577454,0.4941240549087524,0.0194442626088857,0.6623287796974182
1631204135406,0.850947916507721,0.5037751793861389,0.0344628170132637,0.6714248657226562
1631204135484,0.838791012763977,0.5212592482566833,0.0447657816112041,0.687046229839325
1631204135578,0.8275043368339539,0.5442989468574524,0.0488246455788612,0.7073404788970947
1631204135687,0.8233460783958435,0.5677472352981567,0.0455954074859619,0.7277433276176453
1631204135828,0.8259481191635132,0.5851805806159973,0.0354914143681526,0.7445744276046753
1631204135922,0.8313656449317932,0.5926727056503296,0.0215213000774383,0.7565670609474182
1631204136015,0.8365530371665955,0.5909134149551392,0.0104160802438855,0.7416571378707886
1631204136109,0.839271605014801,0.5848708152770996,0.0078111137263476,0.718428373336792
1631204136219,0.8382741808891296,0.5791767239570618,0.015945641323924,0.6838675737380981
1631204136281,0.8303560018539429,0.5753124952316284,0.0317740142345428,0.6377385258674622
1631204136406,0.8136808276176453,0.5741214752197266,0.0503099635243415,0.5894492864608765
1631204136533,0.7950493097305298,0.5779880881309509,0.0671487376093864,0.5547547936439514
1631204136612,0.7831625938415527,0.587499737739563,0.0813248679041862,0.5406672954559326
1631204136721,0.7827350497245789,0.5998117923736572,0.0921568870544433,0.5436338186264038
1631204136783,0.7851803302764893,0.6095300316810608,0.0977348014712333,0.5530776381492615
1631204136908,0.7808040976524353,0.6128267645835876,0.0963562503457069,0.5550627112388611
1631204137033,0.7681463956832886,0.6099199056625366,0.0889692902565002,0.556659460067749
1631204137127,0.7508960366249084,0.6029942035675049,0.0788355022668838,0.5605374574661255
1631204137221,0.7311583757400513,0.5951807498931885,0.0687346160411834,0.5640544891357422
1631204137299,0.7213296890258789,0.5904266238212585,0.0603160448372364,0.5633917450904846
1631204137393,0.7213296890258789,0.5921227931976318,0.0554840713739395,0.5582693815231323
1631204137502,0.7213296890258789,0.601064145565033,0.0540511161088943,0.5524107217788696
1631204137627,0.7213296890258789,0.613528847694397,0.0534426569938659,0.546306848526001
1631204137736,0.7213296890258789,0.6237612366676331,0.0501646511256694,0.5402024388313293
1631204137814,0.9888505935668944,0.6281805634498596,0.042598757892847,0.534132719039917
1631204137908,0.974642813205719,0.6264613270759583,0.0319906584918499,0.525111973285675
1631204138033,0.964586079120636,0.6203742027282715,0.0205667074769735,0.5098115801811218
1631204138127,0.9594465494155884,0.6135810613632202,0.0091081345453858,0.4893900454044342
1631204138299,0.9610100388526917,0.6078534722328186,-0.0010033849393948,0.4699564278125763
1631204138361,0.9697617888450624,0.6019488573074341,-0.0067187300883233,0.4561554789543152
1631204138439,0.9797627329826356,0.5944843292236328,-0.0062899929471313,0.4479968249797821
1631204138533,0.98345547914505,0.5864255428314209,-0.0019760355353355,0.4413293898105621
1631204138611,0.9781712293624878,0.5798361301422119,0.002308749128133,0.4342230260372162
1631204138736,0.9661011099815368,0.5746384859085083,0.0070014242082834,0.4289432466030121
1631204138848,0.950317084789276,0.5678988099098206,0.0169045999646186,0.4288983345031738
1631204138957,0.9334330558776855,0.5572810173034668,0.0336969681084156,0.4350863397121429
1631204139067,0.9129278659820556,0.5422402024269104,0.0536702089011669,0.4468562304973602
1631204139160,0.8901724219322205,0.5242249965667725,0.0714190006256103,0.4608800113201141
1631204139254,0.8697711825370789,0.5062709450721741,0.0823485553264617,0.4727998971939087
1631204139332,0.8532304167747498,0.4911450445652008,0.0848945751786232,0.4792066216468811
1631204139473,0.8376378417015076,0.4795763194561004,0.0802315175533294,0.4806714057922363
1631204139583,0.8197199106216431,0.4700174629688263,0.0718195810914039,0.4818362295627594
1631204139676,0.7988622784614563,0.4589331746101379,0.0619966685771942,0.4874675571918487
1631204139738,0.7752975821495056,0.4453255534172058,0.0494346432387828,0.4986286759376526
1631204139832,0.7507896423339844,0.4327122867107391,0.0313989035785198,0.512786328792572
1631204139957,0.7299519777297974,0.425508439540863,0.0097098518162965,0.5247869491577148
1631204140082,0.7167403101921082,0.4220039546489715,-0.0086454292759299,0.5298733115196228
1631204140160,0.7096214890480042,0.4149396419525146,-0.016807809472084,0.5263850688934326
1631204140285,0.7052897810935974,0.4001331627368927,-0.0145714273676276,0.5157382488250732
1631204140363,0.7053081393241882,0.3809192180633545,-0.0095383785665035,0.5008683204650879
1631204140457,0.7118417024612427,0.3627268970012665,-0.0095130391418933,0.4823090136051178
1631204140551,0.7232488989830017,0.3472453951835632,-0.0175690110772848,0.459353357553482
1631204140676,0.7378965616226196,0.3326033651828766,-0.0329832583665847,0.4335816204547882
1631204140785,0.7554448843002319,0.3176575303077698,-0.0532596856355667,0.4105594456195831
1631204140894,0.7738428115844727,0.3042405247688293,-0.0740792676806449,0.3960091173648834
1631204140972,0.7877810001373291,0.295468658208847,-0.0899848714470863,0.3894011676311493
1631204141082,0.7938138246536255,0.2928075492382049,-0.0994235426187515,0.3839641213417053
1631204141176,0.7925119400024414,0.2942823767662048,-0.1048828810453414,0.372986376285553
1631204141301,0.7871182560920715,0.2959731817245483,-0.1089737117290496,0.353660374879837
1631204141426,0.7819382548332214,0.2956776320934295,-0.1105818301439285,0.3264444768428802
1631204141488,0.7838627696037292,0.2932319045066833,-0.1094446256756782,0.2941513359546661
1631204141597,0.7972783446311951,0.2896900177001953,-0.1094536483287811,0.260750263929367
1631204141660,0.8192369937896729,0.2865824699401855,-0.1138707399368286,0.2321358025074005
1631204141769,0.83971107006073,0.2841940820217132,-0.121008463203907,0.2160803526639938
1631204141916,0.849974513053894,0.2812106907367706,-0.1260335594415664,0.216635912656784
1631204141994,0.849083662033081,0.2763998508453369,-0.1257675439119339,0.230997234582901
1631204142088,0.8416098356246948,0.2703177630901336,-0.1199637129902839,0.2511644959449768
1631204142197,0.8324249982833862,0.2649722993373871,-0.1096586510539054,0.2618690729141235
1631204142276,0.8251696825027466,0.2615105211734772,-0.0947262123227119,0.2727367877960205
1631204142400,0.8213071227073669,0.2586326897144317,-0.0761993005871772,0.2807024121284485
1631204142509,0.820728063583374,0.2538035213947296,-0.0574271827936172,0.2860037386417389
1631204142650,0.8216580152511597,0.2455866932868957,-0.0410234294831752,0.2898092567920685
1631204142759,0.8222374320030212,0.2352475821971893,-0.0277433563023805,0.2896722555160522
1631204142826,0.8378508687019348,0.2248499691486358,-0.0158134400844573,0.2818085551261902
1631204142888,0.8477497696876526,0.2128193974494934,-0.0026905839331448,0.2686365842819214
1631204142982,0.8430911302566528,0.1956765055656433,0.0122041339054703,0.2618712484836578
1631204143138,0.8202847242355347,0.1726409047842025,0.0269702915102243,0.2771750092506408
1631204143232,0.7910956144332886,0.1481956094503402,0.038302905857563,0.3168762624263763
1631204143341,0.7734030485153198,0.1269977688789367,0.043111115694046,0.3168762624263763
1631204143404,0.7647109627723694,0.109342060983181,0.0407024919986724,0.3168762624263763
1631204143498,0.7734449505805969,0.0931568443775177,0.0326975621283054,0.3168762624263763
1631204143607,0.7910100817680359,0.0772794857621193,0.0209314469248056,0.3168762624263763
1631204143748,0.8054590225219727,0.0610527619719505,0.0072003067471086,0.3168762624263763
1631204143812,0.805948793888092,0.0422841794788837,-0.007627660408616,0.3168762624263763
1631204143907,0.7901569604873657,0.0195895824581384,-0.0236936248838901,0.3168762624263763
1631204144017,0.7719897031784058,-0.0058003449812531,-0.040292739868164,0.3168762624263763
1631204144126,0.7719897031784058,-0.0306091122329235,-0.0551549531519413,0.3168762624263763
1631204144189,0.7719897031784058,-0.0518954694271087,-0.0662190020084381,0.3168762624263763
1631204144361,0.7719897031784058,-0.0673051327466964,-0.0733544155955314,0.3168762624263763
1631204144454,0.7719897031784058,-0.0745871439576149,-0.0793118476867675,0.3168762624263763
1631204144532,0.8053001165390015,-0.0735462829470634,-0.0851735547184944,0.3168762624263763
1631204144626,0.8150196671485901,-0.0658532902598381,-0.0892486497759819,0.3168762624263763
1631204144735,0.8335698843002319,-0.0532126277685165,-0.0907819718122482,0.3709618747234344
1631204144813,0.8457465767860413,-0.0365070514380931,-0.0920791402459144,0.3899322748184204
1631204144986,0.8474031686782837,-0.0170818231999874,-0.096341997385025,0.4061409831047058
1631204145032,0.8438833951950073,0.0030101337470114,-0.1033418104052543,0.4210332930088043
1631204145157,0.8493925929069519,0.0224321503192186,-0.1087390184402465,0.4322854876518249
1631204145235,0.8660274744033813,0.0418019071221351,-0.1085892915725708,0.4385840892791748
1631204145329,0.8660274744033813,0.0609124153852462,-0.1022465452551841,0.4385840892791748
1631204145423,0.8660274744033813,0.0765624791383743,-0.095054343342781,0.4385840892791748
1631204145563,0.8660274744033813,0.0863637030124664,-0.0900579541921615,0.4385840892791748
1631204145641,0.8660274744033813,0.0918111801147461,-0.0901123732328414,0.4385840892791748
1631204145735,0.8660274744033813,0.0980270653963089,-0.0916410759091377,0.4385840892791748
1631204145847,0.8660274744033813,0.1076560840010643,-0.0939547717571258,0.4385840892791748
1631204145940,0.8802388310432434,0.1194155365228653,-0.0973055586218833,0.4507887661457062
1631204146034,0.8959842920303345,0.131168320775032,-0.1038629710674285,0.4653915166854858
1631204146159,0.9029216170310974,0.1427806466817855,-0.11541248857975,0.4776005744934082
1631204146268,0.8970414400100708,0.1578344404697418,-0.1305190622806549,0.4859957695007324
1631204146362,0.8901152014732361,0.18303282558918,-0.1436146348714828,0.4926117956638336
1631204146456,0.8901152014732361,0.220104306936264,-0.1461911350488662,0.4926117956638336
1631204146534,0.8901152014732361,0.2643848657608032,-0.1227418556809425,0.4926117956638336
1631204146643,0.8901152014732361,0.3094521760940552,-0.0710809826850891,0.4926117956638336
1631204146784,0.8901152014732361,0.3520413935184479,-0.0478046238422393,0.4926117956638336
1631204146878,0.8901152014732361,0.3911502659320831,-0.0344624929130077,0.4926117956638336
1631204146971,0.8901152014732361,0.4274204671382904,-0.0344624929130077,0.4926117956638336
1631204147065,0.8901152014732361,0.4438410103321075,-0.0344624929130077,0.4926117956638336
1631204147159,0.8901152014732361,0.463606059551239,-0.0344624929130077,0.4926117956638336
1631204147237,0.8901152014732361,0.4846065938472748,-0.0344624929130077,0.4926117956638336
1631204147393,0.8901152014732361,0.5057349801063538,-0.0344624929130077,0.4926117956638336
1631204147487,0.8901152014732361,0.5279280543327332,-0.0344624929130077,0.4926117956638336
1631204147565,0.8901152014732361,0.5529079437255859,-0.0344624929130077,0.4926117956638336
1631204147659,0.8901152014732361,0.581123948097229,-0.0344624929130077,0.4926117956638336
1631204147772,0.8901152014732361,0.610075831413269,-0.0344624929130077,0.4926117956638336
1631204147880,0.8901152014732361,0.6344541907310486,-0.0344624929130077,0.4926117956638336
1631204148005,0.8901152014732361,0.651138186454773,-0.0344624929130077,0.4926117956638336
1631204148083,0.8901152014732361,0.6607348322868347,-0.0344624929130077,0.4926117956638336
1631204148192,0.8901152014732361,0.6607348322868347,-0.0344624929130077,0.4926117956638336
1631204148270,0.8901152014732361,0.6607348322868347,-0.0344624929130077,0.4926117956638336
1631204148364,0.8901152014732361,0.6607348322868347,-0.0344624929130077,0.4926117956638336
1631204148458,0.8901152014732361,0.6607348322868347,-0.0344624929130077,0.4926117956638336
1631204148616,0.8901152014732361,0.6607348322868347,-0.0344624929130077,0.4926117956638336
1631204148710,0.8901152014732361,0.4285113513469696,-0.0344624929130077,0.4926117956638336
1631204148804,0.8901152014732361,0.4038290977478027,-0.0344624929130077,0.4926117956638336
1631204148898,0.8901152014732361,0.3974268436431885,-0.0344624929130077,0.4926117956638336
1631204148991,0.8901152014732361,0.409913033246994,-0.0344624929130077,0.4926117956638336
1631204149069,0.8901152014732361,0.434250146150589,-0.0344624929130077,0.4926117956638336
1631204149210,0.8901152014732361,0.4567764401435852,-0.0344624929130077,0.4926117956638336
1631204149319,0.8901152014732361,0.46624955534935,-0.0344624929130077,0.4926117956638336
1631204149398,0.8901152014732361,0.4605951309204101,-0.0344624929130077,0.4926117956638336
1631204149491,0.8901152014732361,0.4450682997703552,-0.0344624929130077,0.4926117956638336
1631204149601,0.8901152014732361,0.4267502129077911,-0.3662917613983154,0.4926117956638336
1631204149694,0.8901152014732361,0.4101131856441498,-0.3486617505550384,0.4926117956638336
1631204149837,0.8901152014732361,0.3958128988742828,-0.3012474179267883,0.4926117956638336
1631204149915,0.8901152014732361,0.3700540363788605,-0.2348771393299102,0.4926117956638336
1631204150040,0.8901152014732361,0.3466216921806335,-0.1730209439992904,0.4926117956638336
1631204150103,0.8901152014732361,0.3278824687004089,-0.1328413784503936,0.4926117956638336
1631204150258,0.565504252910614,0.3109818994998932,-0.1161050945520401,0.6333587765693665
1631204150336,0.5425397753715515,0.2916083931922912,-0.1138594225049018,0.6044740676879883
1631204150496,0.5239582061767578,0.2662108838558197,-0.1164440959692001,0.5657283663749695
1631204150559,0.5192398428916931,0.2304617613554,-0.1206593886017799,0.5237298011779785
1631204150637,0.5333146452903748,0.1802664250135421,-0.1259693354368209,0.4861949384212494
1631204150730,0.5611410737037659,0.1180136650800705,-0.1291452348232269,0.458200454711914
1631204150824,0.591648519039154,0.0568931698799133,-0.116748034954071,0.4409579336643219
1631204150918,0.6184945702552795,0.0123570058494806,-0.0980135351419448,0.4327521324157715
1631204151043,0.6414023041725159,-0.0131945861503481,-0.078105017542839,0.4302122294902801
1631204151152,0.6615700125694275,-0.0309197939932346,-0.064198300242424,0.4296261966228485
1631204151230,0.6781809329986572,-0.0514247454702854,-0.0592363476753234,0.4282758235931396
1631204151382,0.6900172829627991,-0.075857438147068,-0.0650271028280258,0.4259008169174194
1631204151554,0.7027125954627991,-0.0983594506978988,-0.0814613848924636,0.4031407535076141
1631204151728,0.7122461199760437,-0.1115231439471244,-0.103978157043457,0.3830494582653045
1631204151900,0.7203384041786194,-0.1106102392077446,-0.1233946830034256,0.371128648519516
1631204152056,0.73260098695755,-0.0978524014353752,-0.1323855966329574,0.3716570138931274
1631204152197,0.7577144503593445,-0.0807562097907066,-0.1300883293151855,0.3854800462722778
1631204152384,0.7973510026931763,-0.0670714974403381,-0.1187093779444694,0.407296359539032
1631204152572,0.8422582745552063,-0.0616604872047901,-0.0997686460614204,0.4285763800144195
1631204152759,0.8794494271278381,-0.0636152699589729,-0.0778998583555221,0.4422753453254699
1631204152947,0.9031527042388916,-0.0663989260792732,-0.062368918210268,0.4460586309432983
1631204153103,0.9150044918060304,-0.0626304000616073,-0.0604007579386234,0.4411630928516388
1631204153259,0.9190069437026978,-0.0501810386776924,-0.0717628449201583,0.4309784471988678
1631204153431,0.9189525842666626,-0.0317348092794418,-0.0898339003324508,0.4330262541770935
1631204153634,0.9209837317466736,-0.0116589376702904,-0.1067136973142623,0.4338231682777405
1631204153777,0.9306374192237854,0.006529092323035,-0.1166291683912277,0.4357249140739441
1631204153980,0.9467249512672424,0.0211899075657129,-0.1177803352475166,0.4395542740821838
1631204154136,0.9623445868492126,0.03133250400424,-0.1113035753369331,0.4433500468730926
1631204154293,0.9727944135665894,0.0364995934069156,-0.0995472520589828,0.4426060318946838
1631204154480,0.9867761135101318,0.0368286930024623,-0.0841847732663154,0.4313101768493652
1631204154699,1.001030445098877,0.0352829545736312,-0.0668206214904785,0.4044836461544037
1631204154886,1.0098556280136108,0.0387229807674884,-0.0516136325895786,0.3588321506977081
1631204155058,1.0075846910476685,0.0526758395135402,-0.0445655137300491,0.2952854335308075
1631204155230,0.9938835501670836,0.0764357522130012,-0.048771534115076,0.2200546860694885
1631204155402,0.9756774306297302,0.1041341572999954,-0.0601468123495578,0.2200546860694885
1631204155636,0.9477299451828004,0.1298511177301406,-0.0692359954118728,0.2200546860694885
1631204155810,0.9357984662055968,0.1495320051908493,-0.0682628229260444,0.2200546860694885
1631204156013,0.9327406883239746,0.1609850525856018,-0.058020818978548,0.2200546860694885
1631204156201,0.9294727444648744,0.1637506335973739,-0.0452359691262245,0.64119553565979
1631204156404,0.9177191257476808,0.1608131229877472,-0.0352831669151783,0.6317471265792847
1631204156638,0.8968895077705383,0.1571560353040695,-0.0301112700253725,0.6073881387710571
1631204156841,0.8741937279701233,0.1555895060300827,-0.0304816868156194,0.5757995843887329
1631204157076,0.8579927682876587,0.1551489979028701,-0.0368793718516826,0.543319821357727
1631204157232,0.847668468952179,0.1546623259782791,-0.0486989468336105,0.5136266350746155
1631204157482,0.8362213969230652,0.1540958434343338,-0.0646301135420799,0.4897377490997314
1631204157700,0.8177037835121155,0.152303397655487,-0.0837185159325599,0.472299724817276
1631204157919,0.8008418083190918,0.1445466876029968,-0.1046146154403686,0.4601645171642303
1631204158138,0.790873110294342,0.1255315095186233,-0.1236945465207099,0.4522880911827087
1631204158325,0.7901012301445007,0.0941030904650688,-0.1361427009105682,0.4487410485744476
1631204158562,0.7957208156585693,0.0534663051366806,-0.1399354934692382,0.4490819275379181
1631204158812,0.8002995848655701,0.0068918471224606,-0.1384297907352447,0.4414904713630676
1631204159046,0.7953364849090576,-0.0443774163722991,-0.1383933871984481,0.4239237308502197
1631204159234,0.7903404235839844,-0.0968532040715217,-0.1436940878629684,0.3960735201835632
1631204159452,0.7898523211479187,-0.1400243192911148,-0.1528172940015792,0.3630958497524261
1631204159688,0.7929992079734802,-0.160419762134552,-0.1610053032636642,0.3348354399204254
1631204159987,0.7916855812072754,-0.1539621502161026,-0.1647868454456329,0.3201376497745514
1631204160237,0.7791388034820557,-0.1296903043985366,-0.1644012033939361,0.32080939412117
1631204160471,0.7579959630966187,-0.1006312146782875,-0.163567304611206,0.3335490524768829
1631204160799,0.7425791025161743,-0.0777756571769714,-0.1672894656658172,0.3543334305286407
1631204161049,0.7461372017860413,-0.0660123229026794,-0.1788637042045593,0.3775352537631988
1631204161346,0.7696980834007263,-0.063665747642517,-0.1971544772386551,0.4000259637832641
1631204161611,0.8026002645492554,-0.0655050352215766,-0.2176812589168548,0.4221937954425812
1631204161939,0.8337914943695068,-0.068053551018238,-0.236558586359024,0.4221937954425812
1631204162111,0.8374963998794556,-0.0706637427210807,-0.2526467740535736,0.4221937954425812
1631204162189,0.8156597018241882,-0.0733429491519928,-0.2668563425540924,0.4221937954425812
1631204162752,0.7803356647491455,-0.0547898523509502,-0.2471423596143722,0.4221937954425812
1631204163486,0.7803356647491455,-0.3164854049682617,-0.0865326449275016,0.4221937954425812
1631204163830,0.7803356647491455,-0.3099788129329681,-0.0808709114789962,0.4221937954425812
1631204164095,0.7803356647491455,-0.3004461228847503,-0.0828975141048431,0.4221937954425812
1631204164361,0.7803356647491455,-0.2758014500141144,-0.0912700518965721,0.4221937954425812
1631204164644,0.7803356647491455,-0.2149905562400818,-0.1039369478821754,0.4221937954425812
1631204164832,0.7803356647491455,-0.0934503376483917,-0.1207577884197235,0.4221937954425812
1631204165113,0.7803356647491455,-0.082105353474617,-0.1661514788866043,0.4221937954425812
1631204165332,0.7803356647491455,-0.0404389947652816,-0.1867774575948715,0.4221937954425812
1631204165553,0.7803356647491455,0.0159672815352678,-0.1867774575948715,0.4221937954425812
1631204165834,0.7803356647491455,0.0763075351715087,-0.1867774575948715,0.4221937954425812
1631204166662,0.7803356647491455,0.2393630594015121,-0.1867774575948715,0.4221937954425812
1631204166805,0.7803356647491455,0.2393630594015121,-0.1867774575948715,0.4221937954425812
1631204167617,0.7803356647491455,0.2393630594015121,-0.1867774575948715,0.4221937954425812
1631204167899,0.7803356647491455,0.2393630594015121,-0.0813468769192695,0.4221937954425812
1631204168148,0.7803356647491455,0.2393630594015121,-0.1210119724273681,0.4221937954425812
1631204168682,0.7803356647491455,0.2393630594015121,-0.1527224332094192,0.4221937954425812
1631204170491,0.7803356647491455,0.2393630594015121,-0.2708209156990051,0.4221937954425812
1631204172325,0.6963825225830078,0.1780382394790649,-0.1473192721605301,0.4204345345497131
1631204172496,0.6963825225830078,0.1788755655288696,-0.1676796972751617,0.4204345345497131
1631204172671,0.6963825225830078,0.1745866984128952,-0.1876481771469116,0.4204345345497131
1631204172796,0.6963825225830078,0.1341620683670044,-0.2201366424560547,0.4204345345497131
1631204173343,0.6963825225830078,0.0857584327459335,-0.2482720613479614,0.4204345345497131
1631204174438,0.6963825225830078,0.0629617795348167,-0.2247315496206283,0.4204345345497131
1631204175269,0.6222704648971558,-0.0148268472403287,-0.1188772618770599,0.4417925477027893
1631204175394,0.623674750328064,-0.0190283209085464,-0.1179847866296768,0.4361705482006073
1631204175956,0.6677171587944031,-0.0943017899990081,-0.184769332408905,0.4550221860408783
1631204176112,0.6705188155174255,-0.1079635173082351,-0.1947173625230789,0.4753606915473938
1631204176362,0.6957615613937378,-0.1148905232548713,-0.1942278891801834,0.4935577511787414
1631204177022,0.7866830229759216,-0.036944780498743,-0.1853485703468322,0.5238596200942993
1631204177662,0.883492112159729,-0.030101703479886,-0.119279570877552,0.5663468837738037
1631204177762,0.8970072269439697,-0.0326856337487697,-0.1072247251868248,0.5629451274871826
1631204178683,0.9612942934036256,-0.0834985077381134,-0.1002867519855499,0.5623186826705933
1631204182461,0.7406850457191467,-0.0600454248487949,-0.2479994893074035,0.4032484591007232
1631204183439,0.6932172179222107,-0.1703335046768188,-0.2115271538496017,0.4284154772758484
1631204185165,0.8897786140441895,-0.1016433238983154,-0.1953437477350235,0.4315873086452484
1631204187030,0.7707772254943848,-0.1964807212352752,-0.2726615369319916,0.4344432651996612
1631204187259,0.7825087904930115,-0.1465474665164947,-0.3057918846607208,0.4201980233192444
1631204188805,0.6926869750022888,0.0582275912165641,0.0147346016019582,0.4589030742645263
1631204190769,0.7371407747268677,-0.2624676823616028,-0.0965149998664856,0.5740470886230469
1631204191720,0.8704937696456909,-0.0255518890917301,-0.2559464275836944,0.3326230049133301
1631204192234,0.9525156617164612,0.2113455533981323,-0.2608170211315155,0.3282705545425415
1631204193436,0.9960678219795228,0.3243184983730316,0.1002165526151657,0.3166306614875793
1631204193946,0.8756033182144165,0.0984960943460464,-0.0021303561516106,0.4836504757404327
1631204194973,0.8617369532585144,-0.1383545994758606,-0.1696777790784835,0.6712265014648438
1631204195367,0.7221204042434692,-0.2319632470607757,-0.1702384352684021,0.594563901424408
1631204196809,0.734165370464325,-0.0649605318903923,-0.1525007486343383,0.580368161201477
1631204197387,0.7418036460876465,-0.0833418220281601,-0.2013309746980667,0.4499506950378418
1631204197450,0.7490235567092896,-0.0849062129855156,-0.215285450220108,0.4486892223358154
1631204199767,0.6311595439910889,0.110721156001091,0.1648885309696197,0.5093330144882202
1631204199861,0.6311595439910889,0.1211151406168937,0.1637919843196869,0.5093330144882202
1631204199939,0.6311595439910889,0.1309269964694976,0.1637919843196869,0.5093330144882202
1631204200693,0.6311595439910889,-0.1182912066578865,0.1335791051387787,0.5093330144882202
1631204201364,0.6311595439910889,-0.1192303076386451,0.0639856681227684,0.5093330144882202
1631204202351,0.8028802275657654,-0.0859003514051437,-0.1491352766752243,0.5419079065322876
1631204202539,0.7849579453468323,-0.0835729613900184,-0.1386207193136215,0.5650613903999329
1631204202617,0.7854771614074707,-0.0789910405874252,-0.1450447738170623,0.5636758208274841
1631204202679,0.7871232032775879,-0.0725162401795387,-0.1506132036447525,0.5560460090637207
1631204203963,0.8081101179122925,-0.2311377972364425,-0.3263498544692993,0.3885157108306885
1631204204041,0.8031530380249023,-0.2605822384357452,-0.3590742647647857,0.3826078772544861
1631204204104,0.7993695735931396,-0.2908860445022583,-0.3862334489822387,0.3753653466701507
1631204204479,0.719409167766571,-0.3677452504634857,-0.357648104429245,0.3822247982025146
1631204204916,0.6952012777328491,-0.2511230707168579,-0.283819168806076,0.373996376991272
1631204204994,0.700065016746521,-0.203469380736351,-0.2706751525402069,0.3871358335018158
1631204205432,0.691190242767334,-0.0133112240582704,-0.2463458478450775,0.4503262042999267
1631204205809,0.6524658203125,0.042040329426527,-0.1696282923221588,0.4683021605014801
1631204206091,0.6103442907333374,-0.0693376287817955,-0.1362573057413101,0.4569783806800842
1631204206215,0.5903273820877075,-0.1136725172400474,-0.1126186028122901,0.4573462605476379
1631204207156,0.6683468222618103,-0.1753385514020919,-0.300395518541336,0.4968172609806061
1631204207234,0.6708357930183411,-0.1598405390977859,-0.3161171972751617,0.5064023733139038
1631204207740,0.7225641012191772,-0.1674924790859222,-0.3955791890621185,0.4870456457138061
1631204207816,0.7217860221862793,-0.1643520295619964,-0.4009886682033539,0.4780746102333069
1631204207972,0.7043195366859436,-0.1483030021190643,-0.3713452816009521,0.4709884822368622
1631204208222,0.6635181307792664,-0.1371767818927765,-0.2506712973117828,0.5065618753433228
1631204208363,0.6770002245903015,-0.1501094400882721,-0.2150958329439163,0.5112850666046143
1631204208628,0.7155024409294128,-0.1547800600528717,-0.255151629447937,0.4576687812805176
1631204208757,0.6939873695373535,-0.0879173576831817,-0.240741953253746,0.4807493984699249
1631204209117,0.7219142913818359,-0.0880036279559135,-0.227060928940773,0.3888851404190063
1631204209445,0.699126660823822,-0.1214068904519081,-0.3051052689552307,0.477391630411148
1631204209570,0.6869019269943237,-0.1298413276672363,-0.2922123074531555,0.5140738487243652
1631204209632,0.6778662204742432,-0.1448428481817245,-0.2772218883037567,0.5244462490081787
1631204209916,0.7134941816329956,-0.2566472887992859,-0.3064521253108978,0.5604284405708313
1631204210057,0.7376247644424438,-0.2675224840641022,-0.3454042971134186,0.5875994563102722
1631204210119,0.7505500912666321,-0.2764973938465118,-0.3538642227649688,0.5972740650177002
1631204210338,0.7795437574386597,-0.3168763518333435,-0.3495405614376068,0.5811418890953064
1631204210400,0.7813567519187927,-0.3161170482635498,-0.345045655965805,0.5607321262359619
1631204210603,0.7772524952888489,-0.3019486665725708,-0.3373863995075226,0.523551344871521
1631204210873,0.7719805240631104,-0.3102810084819793,-0.325999766588211,0.489208459854126
1631204211029,0.7623134851455688,-0.3406259417533874,-0.3283746540546417,0.4596220850944519
1631204211279,0.7398189902305603,-0.334221214056015,-0.2751837968826294,0.401121973991394
1631204211357,0.7314491868019104,-0.2955395579338074,-0.2577745318412781,0.3981843292713165
1631204211498,0.715104877948761,-0.2313261479139328,-0.2132034003734588,0.4214337468147278
1631204211638,0.7009510397911072,-0.1708269119262695,-0.1813756823539734,0.4449789226055145
1631204211701,0.7084206938743591,-0.1305513679981231,-0.1768625080585479,0.434704065322876
1631204211812,0.7309278845787048,-0.0461042374372482,-0.1409229487180709,0.4154270887374878
1631204211984,0.731222927570343,0.0286954063922166,-0.0957197621464729,0.4205283522605896
1631204212047,0.7260756492614746,0.0432602688670158,-0.095846988260746,0.4400007128715515
1631204212094,0.722065269947052,0.0493358299136161,-0.0982282236218452,0.4641979932785034
1631204212140,0.7181803584098816,0.0450025424361228,-0.10137390345335,0.486541599035263
1631204212328,0.7147491574287415,0.0198814999312162,-0.1451386362314224,0.5199968814849854
1631204212390,0.7188100814819336,0.0207172520458698,-0.1722199916839599,0.5134910941123962
1631204212437,0.7192038297653198,0.0199299789965152,-0.1941870301961898,0.4994081258773803
1631204212504,0.7119050025939941,0.0125703113153576,-0.2064635455608368,0.4829109013080597
1631204212582,0.6984379887580872,-0.0040411720983684,-0.2155991345643997,0.468611478805542
1631204212691,0.6780209541320801,-0.0604155734181404,-0.2566446363925934,0.4898118078708648
1631204212738,0.6799532771110535,-0.0899162590503692,-0.2849322557449341,0.499305784702301
1631204212785,0.6893129348754883,-0.11325404047966,-0.3038513958454132,0.4975835680961609
1631204212832,0.7019397020339966,-0.1301948726177215,-0.3048133552074432,0.5021975040435791
1631204213004,0.7245628237724304,-0.1301447004079818,-0.2451573759317398,0.5307602882385254
1631204213066,0.7359417676925659,-0.114898145198822,-0.2361045032739639,0.5308755040168762
1631204213097,0.7526980638504028,-0.1008783280849456,-0.2347447574138641,0.5214734077453613
1631204213144,0.7692966461181641,-0.0892544388771057,-0.2317867428064346,0.5083122253417969
1631204213238,0.8078843355178833,-0.0561490356922149,-0.1981368511915207,0.5376912951469421
1631204213285,0.8174594044685364,-0.0500188022851944,-0.1944712251424789,0.5671517848968506
1631204213316,0.8188355565071106,-0.0411725863814353,-0.1948846876621246,0.5671849846839905
1631204213363,0.8118706345558167,-0.0249366760253906,-0.1949803531169891,0.5650742650032043
1631204213472,0.777374804019928,0.0249273739755153,-0.1878100335597992,0.567806601524353
1631204213503,0.7592509388923645,0.0274351257830858,-0.1951553970575332,0.5584070086479187
1631204213550,0.7370564937591553,0.0225444454699754,-0.2095730304718017,0.5500309467315674
1631204213582,0.7118897438049316,0.0111768851056694,-0.2249641120433807,0.5486887693405151
1631204213613,0.6841707825660706,-0.0048262574709951,-0.2318954914808273,0.5554013848304749
1631204213644,0.6575501561164856,-0.0223345477133989,-0.2250211089849472,0.5662221908569336
1631204213675,0.6376769542694092,-0.0382356382906436,-0.2092517614364624,0.5780231952667236
1631204213722,0.6262910962104797,-0.0517237409949302,-0.194760262966156,0.5880770087242126
1631204213769,0.6175658702850342,-0.0631247758865356,-0.185856819152832,0.5950478911399841
1631204213816,0.6072805523872375,-0.0711492747068405,-0.1773950159549713,0.5998671054840088
1631204213863,0.5973248481750488,-0.0763102397322654,-0.1630176603794098,0.6051754951477051
1631204213910,0.5899503827095032,-0.0835186839103698,-0.1424573510885238,0.6121479272842407
1631204213941,0.5829501748085022,-0.0996716096997261,-0.1212301775813102,0.6192742586135864
1631204213988,0.5733415484428406,-0.1270405203104019,-0.1035058721899986,0.6241909265518188
1631204214035,0.5635588765144348,-0.1600348949432373,-0.0913839265704155,0.6262064576148987
1631204214066,0.5626908540725708,-0.1898746192455291,-0.0868770182132721,0.6250007152557373
1631204214113,0.5788602232933044,-0.211947500705719,-0.0914362147450447,0.6187406182289124
1631204214144,0.5856083631515503,-0.2259837538003921,-0.1022360771894455,0.6054997444152832
1631204214191,0.5964328050613403,-0.2318813055753708,-0.1135827600955963,0.5856131911277771
1631204214253,0.6089133620262146,-0.2308080047369003,-0.1225970238447189,0.5626285672187805
1631204214331,0.6297134160995483,-0.2258069664239883,-0.1306202858686447,0.5416541695594788
1631204214394,0.6349113583564758,-0.2191002964973449,-0.1382202208042144,0.5250592827796936
1631204214456,0.6367914080619812,-0.2075656056404113,-0.1421275287866592,0.5117639303207397
1631204214519,0.6429842710494995,-0.1883475184440612,-0.1410121768712997,0.4972139000892639
1631204214566,0.6526131629943848,-0.1663036942481994,-0.1411298066377639,0.476492315530777
1631204214613,0.6625611186027527,-0.1494384855031967,-0.1489344984292984,0.4488199949264526
1631204214644,0.6723009943962097,-0.1399305462837219,-0.164002314209938,0.4277671575546264
1631204214691,0.6829529404640198,-0.1321769803762436,-0.1806951463222503,0.4049846231937408
1631204214800,0.7027673721313477,-0.121093176305294,-0.1964264512062072,0.3810760378837585
1631204214894,0.7245579957962036,-0.1085705086588859,-0.2121893763542175,0.3565151393413543
1631204215034,0.7400168776512146,-0.0993674173951149,-0.2261438816785812,0.3256271779537201
1631204215128,0.7296306490898132,-0.0939804762601852,-0.2328696846961975,0.3084116280078888
1631204215222,0.7311065793037415,-0.0901791304349899,-0.2291423827409744,0.3074146211147308
1631204215300,0.7391211986541748,-0.0846109613776207,-0.2175192236900329,0.3143955767154693
1631204215394,0.7455353736877441,-0.0757370963692665,-0.2030769437551498,0.3186983466148376
1631204215503,0.7452694773674011,-0.0653592720627784,-0.1919796913862228,0.3183268010616302
1631204215644,0.7434194684028625,-0.0583053156733512,-0.1868504285812378,0.3179743885993957
1631204215737,0.7370097637176514,-0.0594072118401527,-0.1859151273965835,0.3206402659416199
1631204215818,0.7254713177680969,-0.0680049657821655,-0.1841573417186737,0.3247762322425842
1631204215912,0.7113614678382874,-0.0773640871047973,-0.1780713349580764,0.3271233141422272
1631204216006,0.6996524333953857,-0.0822641476988792,-0.1699796766042709,0.326494038105011
1631204216131,0.6967068910598755,-0.0844976305961608,-0.1649289727210998,0.3184156715869903
1631204216240,0.7034096717834473,-0.0883311405777931,-0.1642536222934723,0.312288224697113
1631204216334,0.7044239640235901,-0.0924862623214721,-0.1638515591621399,0.3073257505893707
1631204216444,0.7016565799713135,-0.0914850831031799,-0.1581711024045944,0.3009450733661651
1631204216524,0.6986200213432312,-0.0833366736769676,-0.1463865339756012,0.2986155152320862
1631204216649,0.7037541270256042,-0.0724175050854682,-0.1320641487836837,0.2977123856544494
1631204216711,0.7082738280296326,-0.0632784888148307,-0.1197719871997833,0.3009213507175445
1631204216836,0.7124768495559692,-0.0595322549343109,-0.11196019500494,0.309397429227829
1631204216993,0.7171640396118164,-0.0594136752188205,-0.1079569980502128,0.3195679187774658
1631204217055,0.7221102714538574,-0.0559365935623645,-0.1014699265360832,0.3252061009407043
1631204217133,0.7253654599189758,-0.0439964309334754,-0.086503230035305,0.3226228356361389
1631204217227,0.7244144082069397,-0.0270190760493278,-0.064547374844551,0.3152346014976501
1631204217321,0.7202724814414978,-0.0138541385531425,-0.0440857224166393,0.3113954961299896
1631204217461,0.7155199646949768,-0.0102027337998151,-0.0325094945728778,0.3161575198173523
1631204217570,0.7135201692581177,-0.0139790661633014,-0.0296590384095907,0.3256589472293854
1631204217648,0.7152752876281738,-0.0191542375832796,-0.0293318219482898,0.3318778574466705
1631204217741,0.7194260358810425,-0.0230415612459182,-0.0263283047825098,0.3323120772838592
1631204217856,0.7242237329483032,-0.0275149196386337,-0.0217136237770319,0.3309445381164551
1631204217950,0.7320763468742371,-0.0351967737078666,-0.0198812019079923,0.3331982493400574
1631204218075,0.7454417943954468,-0.0466071739792823,-0.0236030016094446,0.3383602797985077
1631204218169,0.7616561055183411,-0.0602747090160846,-0.0320444479584693,0.3404648005962372
1631204218262,0.7726674675941467,-0.074474312365055,-0.042284358292818,0.3355563879013061
1631204218356,0.7721736431121826,-0.0866344198584556,-0.0502504669129848,0.3256880342960357
1631204218450,0.7619855999946594,-0.0962081849575042,-0.0525775663554668,0.3186616897583008
1631204218532,0.7501970529556274,-0.105912834405899,-0.0508099570870399,0.3229852318763733
1631204218688,0.7428861856460571,-0.1174104735255241,-0.0519398190081119,0.3417972922325134
1631204218813,0.7412582039833069,-0.128323033452034,-0.0613564997911453,0.3687148094177246
1631204218891,0.7437098622322083,-0.1341912597417831,-0.0773568600416183,0.3933374583721161
1631204218970,0.7473810315132141,-0.1328350007534027,-0.0924432873725891,0.4096651375293731
1631204219063,0.7469083070755005,-0.1254289746284485,-0.1022131741046905,0.4190900921821594
1631204219141,0.7388301491737366,-0.1141561418771743,-0.1092771366238594,0.4260784089565277
1631204219298,0.7248786091804504,-0.1012872606515884,-0.1169087365269661,0.4328823983669281
1631204219392,0.7117937803268433,-0.0910445749759674,-0.1223674044013023,0.4401892721652984
1631204219485,0.7019810676574707,-0.0853897929191589,-0.1205049902200698,0.4503650963306427
1631204219579,0.6898958086967468,-0.080951489508152,-0.1110541671514511,0.4662869572639465
1631204219657,0.6709543466567993,-0.0707156807184219,-0.0993805229663848,0.4873444139957428
1631204219757,0.6478820443153381,-0.0504770539700984,-0.0916650742292404,0.5085744261741638
1631204219929,0.6280418634414673,-0.025430891662836,-0.0924001783132553,0.5257403254508972
1631204220007,0.61634361743927,-0.0057460409589111,-0.104200504720211,0.538968563079834
1631204220085,0.6123046875,0.0012427356559783,-0.1282364428043365,0.5486627221107483
1631204220195,0.6143854260444641,-0.00563147617504,-0.1618529856204986,0.550925076007843
1631204220304,0.619775652885437,-0.0229849629104137,-0.19788259267807,0.5415671467781067
1631204220398,0.6264036297798157,-0.0461986139416694,-0.2287861555814743,0.5221711993217468
1631204220511,0.6348397135734558,-0.0715159326791763,-0.2520605623722076,0.5006244778633118
1631204220604,0.6471487879753113,-0.0963125452399253,-0.2676273584365845,0.4864269196987152
1631204220698,0.6607898473739624,-0.1181343123316764,-0.2753309607505798,0.4852544069290161
1631204220791,0.6721665859222412,-0.1326775103807449,-0.2747774124145508,0.4922027587890625
1631204220869,0.6786206364631653,-0.1352180540561676,-0.2707408666610718,0.5006362199783325
1631204220979,0.6816463470458984,-0.1328116208314895,-0.2860763669013977,0.5055741667747498
1631204221135,0.6804559230804443,-0.1279692351818084,-0.3073465824127197,0.5021377205848694
1631204221213,0.6766429543495178,-0.128383070230484,-0.3295837938785553,0.4887312650680542
1631204221307,0.6750015020370483,-0.1425075680017471,-0.345860093832016,0.4686785042285919
1631204221385,0.680854082107544,-0.1720793545246124,-0.3511871993541717,0.4470450580120086
1631204221494,0.6947102546691895,-0.2093580067157745,-0.3452782034873962,0.4230397939682007
1631204221588,0.7124354243278503,-0.2414905428886413,-0.3292894065380096,0.3900409936904907
1631204221713,0.7088495492935181,-0.2606055736541748,-0.3042852878570556,0.3474628329277038
1631204221825,0.699822723865509,-0.2668066620826721,-0.2736673951148987,0.3115897178649902
1631204221919,0.6899356245994568,-0.260725200176239,-0.2412182539701461,0.3115897178649902
1631204222012,0.6763755083084106,-0.2407592386007309,-0.2070177793502807,0.3115897178649902
1631204222122,0.6563287973403931,-0.2407592386007309,-0.2070177793502807,0.3115897178649902
1631204222200,0.6270653009414673,-0.2407592386007309,-0.2070177793502807,0.3115897178649902
1631204222325,0.5958546996116638,-0.2407592386007309,-0.2070177793502807,0.3115897178649902
1631204222434,0.5958546996116638,-0.2407592386007309,-0.2070177793502807,0.3115897178649902
1631204222531,0.5958546996116638,0.0992504134774208,-0.2070177793502807,0.3115897178649902
1631204222609,0.5958546996116638,0.1550947278738021,-0.2070177793502807,0.3115897178649902
1631204222702,0.5958546996116638,0.2136263698339462,0.6380816698074341,0.3115897178649902
1631204222796,0.5958546996116638,0.2659430205821991,0.6380816698074341,0.3115897178649902
1631204222952,0.5958546996116638,0.3047825396060943,0.6380816698074341,0.3115897178649902
1631204223030,0.5958546996116638,0.3274086117744446,0.6380816698074341,0.3115897178649902
1631204223140,0.5958546996116638,0.3348327577114105,0.673980712890625,0.3115897178649902
1631204223218,0.5958546996116638,0.3331747949123382,0.6915619969367981,0.3115897178649902
1631204223343,0.5958546996116638,0.3290494978427887,0.6889458894729614,0.3115897178649902
1631204223421,0.5958546996116638,0.3255559802055359,0.6711472868919373,0.3115897178649902
1631204223562,0.5958546996116638,0.321739912033081,0.6468989849090576,0.3115897178649902
1631204223687,0.5958546996116638,0.3165192902088165,0.6241140365600586,0.6300802826881409
1631204223748,0.6826928853988647,0.3283827304840088,0.6067305207252502,0.6500112414360046
1631204223830,0.6871418952941895,0.3453664481639862,0.5938186049461365,0.6679494380950928
1631204223955,0.6940769553184509,0.3724063336849212,0.5913718938827515,0.6760914921760559
1631204224049,0.7087694406509399,0.3816076219081878,0.571006178855896,0.675596296787262
1631204224206,0.7280229926109314,0.3855952322483063,0.5555830001831055,0.669413149356842
1631204224268,0.7436766028404236,0.3820586502552032,0.5353403091430664,0.6591948866844177
1631204224331,0.7512550950050354,0.3705940246582031,0.5353403091430664,0.6468392610549927
1631204224471,0.752265989780426,0.354038804769516,0.506783127784729,0.6360178589820862
1631204224533,0.750704288482666,0.3381915986537933,0.4844944179058075,0.6296295523643494
1631204224658,0.7484343647956848,0.3303215503692627,0.4242948293685913,0.6265315413475037
1631204224799,0.7463788986206055,0.3322968184947967,0.359711617231369,0.6232661008834839
1631204224893,0.746623694896698,0.3383517861366272,0.3026404082775116,0.6109789609909058
1631204224971,0.7577743530273438,0.3399730026721954,0.2616505026817322,0.6068769097328186
1631204225064,0.7738403081893921,0.3668774664402008,0.2349180579185485,0.6079502701759338
1631204225142,0.797848105430603,0.4391428530216217,0.2116194665431976,0.6088742017745972
1631204225236,0.8290764093399048,0.5355919599533081,0.1838374882936477,0.6074197292327881
1631204225393,0.8604267239570618,0.6159184575080872,0.1518580764532089,0.6041234135627747
1631204225471,0.8829111456871033,0.6593518257141113,0.1246407330036163,0.5997980237007141
1631204225580,0.8953239917755127,0.6666586399078369,0.1112606823444366,0.595940113067627
1631204225658,0.9051875472068788,0.6666586399078369,0.118304930627346,0.5969665050506592
1631204225751,0.9189360737800598,0.6666586399078369,0.1218947544693946,0.6071198582649231
1631204225838,0.9352408647537231,0.6666586399078369,0.1240462362766265,0.6240532398223877
1631204226010,0.9496775269508362,0.6666586399078369,0.131021961569786,0.6403726935386658
1631204226088,0.9604788422584534,0.6666586399078369,0.1327075064182281,0.6489534974098206
1631204226182,0.9690107703208924,0.6666586399078369,0.1294552832841873,0.649070143699646
1631204226291,0.975186824798584,0.6666586399078369,0.1253775060176849,0.6445138454437256
1631204226369,0.97746741771698,0.6991123557090759,0.1256667226552963,0.6393938064575195
1631204226463,0.975571632385254,0.7409324049949646,0.1324346214532852,0.6355397701263428
1631204226622,0.9694978594779968,0.7811468243598938,0.1430054008960724,0.6325696110725403
1631204226716,0.9572410583496094,0.8050995469093323,0.1561217606067657,0.6280732750892639
1631204226794,0.9380356669425964,0.8050995469093323,0.1686244755983352,0.6189476847648621
1631204226887,0.915634274482727,0.8050995469093323,0.1775609850883484,0.6039890050888062
1631204226981,0.8963130712509155,0.8050995469093323,0.1656382977962494,0.5850620865821838
1631204227091,0.8813588619232178,0.8050995469093323,0.1345914453268051,0.5651776194572449
1631204227200,0.8659306168556213,0.8050995469093323,0.0923786461353302,0.5437533855438232
1631204227294,0.8476805686950684,0.4819784164428711,0.0587496533989906,0.5188524127006531
1631204227403,0.8295499682426453,0.5138452649116516,0.0437839813530445,0.4924978017807007
1631204227498,0.8139223456382751,0.5203821063041687,0.0628420040011406,0.4699707329273224
1631204227613,0.8030340671539307,0.5091128945350647,0.0765893012285232,0.4499542713165283
1631204227691,0.7944632768630981,0.4887606203556061,0.0870636850595474,0.4374729096889496
1631204227848,0.788593590259552,0.4660618007183075,0.1047798916697502,0.4332181513309479
1631204227910,0.7871537208557129,0.4444832503795624,0.1047798916697502,0.433773010969162
1631204228035,0.7890609502792358,0.4250660836696625,0.1047798916697502,0.4330723881721496
1631204228097,0.7904529571533203,0.4250660836696625,0.1047798916697502,0.4222787916660309
1631204228207,0.7897206544876099,0.4250660836696625,0.1047798916697502,0.3975854814052582
1631204228285,0.788169264793396,0.4250660836696625,0.1047798916697502,0.3655855059623718
1631204228441,0.7886295914649963,0.4250660836696625,0.1047798916697502,0.3430072963237762
1631204228535,0.7943276166915894,0.438955545425415,0.1044736132025718,0.3468722403049469
1631204228613,0.807554304599762,0.4419369399547577,0.1136677265167236,0.3767189979553222
1631204228722,0.807554304599762,0.4262337386608124,0.1334832161664962,0.3767189979553222
1631204228801,0.807554304599762,0.3888486325740814,0.1555854976177215,0.3767189979553222
1631204228894,0.807554304599762,0.334080159664154,0.170654222369194,0.3767189979553222
1631204229035,0.807554304599762,0.2735601961612701,0.170654222369194,0.3767189979553222
1631204229144,0.807554304599762,0.2218767404556274,0.170654222369194,0.3767189979553222
1631204229238,0.807554304599762,0.2218767404556274,0.170654222369194,0.3767189979553222
1631204229331,0.807554304599762,0.2218767404556274,0.170654222369194,0.3767189979553222
1631204229441,0.807554304599762,0.2218767404556274,0.170654222369194,0.3767189979553222
1631204229503,0.807554304599762,0.2218767404556274,0.170654222369194,0.3767189979553222
1631204229628,0.807554304599762,0.2218767404556274,0.170654222369194,0.3767189979553222
1631204229769,0.807554304599762,0.2218767404556274,0.170654222369194,0.3767189979553222
1631204229863,0.807554304599762,0.2218767404556274,0.170654222369194,0.3767189979553222
1631204229925,0.807554304599762,0.6383050084114075,0.170654222369194,0.3767189979553222
1631204230019,0.807554304599762,0.6915543079376221,0.170654222369194,0.3767189979553222
1631204230128,0.807554304599762,0.7550179958343506,0.170654222369194,0.3767189979553222
1631204230237,0.807554304599762,0.8060315847396851,0.170654222369194,0.3767189979553222
1631204230331,0.807554304599762,0.8370304703712463,0.170654222369194,0.3767189979553222
1631204230456,0.807554304599762,0.8486992120742798,0.170654222369194,0.3767189979553222
1631204230538,0.807554304599762,0.844052791595459,0.170654222369194,0.3767189979553222
1631204230632,0.807554304599762,0.8264775276184082,0.170654222369194,0.3767189979553222
1631204230710,0.807554304599762,0.8007818460464478,0.170654222369194,0.3767189979553222
1631204230866,0.807554304599762,0.7729412913322449,0.170654222369194,0.3767189979553222
1631204230960,0.807554304599762,0.7595486640930176,0.170654222369194,0.3767189979553222
1631204231053,0.807554304599762,0.7595486640930176,0.170654222369194,0.3767189979553222
1631204231163,0.807554304599762,0.7595486640930176,0.170654222369194,0.3767189979553222
1631204231256,0.807554304599762,0.7651842832565308,0.170654222369194,0.3767189979553222
1631204231335,0.807554304599762,0.7759693264961243,0.170654222369194,0.3767189979553222
1631204231491,0.807554304599762,0.7835525274276733,0.170654222369194,0.3767189979553222
1631204231553,0.807554304599762,0.7746528387069702,0.170654222369194,0.3767189979553222
1631204231647,0.807554304599762,0.7404703497886658,0.170654222369194,0.3767189979553222
1631204231741,0.807554304599762,0.6781123876571655,0.170654222369194,0.3767189979553222
1631204231854,0.807554304599762,0.5868527889251709,0.170654222369194,0.3767189979553222
1631204231932,0.807554304599762,0.4775810539722442,0.170654222369194,0.3767189979553222
1631204232088,0.807554304599762,0.4145370125770569,0.1452544778585434,0.3767189979553222
1631204232182,0.807554304599762,0.4326058030128479,0.145675852894783,0.3767189979553222
1631204232291,0.807554304599762,0.5056126713752747,0.1457202732563018,0.3767189979553222
1631204232385,0.807554304599762,0.5866825580596924,0.1511350572109222,0.3767189979553222
1631204232463,0.7520927786827087,0.6549186706542969,0.1665464341640472,0.8519061207771301
1631204232557,0.7747756838798523,0.6567227244377136,0.1954992860555648,0.8176444172859192
1631204232682,0.7951873540878296,0.649223804473877,0.2343965768814087,0.7901681065559387
1631204232791,0.8080328106880188,0.6320933699607849,0.2714004814624786,0.765723466873169
1631204232916,0.8130455613136292,0.6086620688438416,0.2956476807594299,0.7438391447067261
1631204232994,0.8117573261260986,0.5833920836448669,0.3037873208522796,0.7260226011276245
1631204233072,0.8087496757507324,0.559356153011322,0.2997412383556366,0.7134683132171631
1631204233181,0.8102802634239197,0.5381795763969421,0.2899693846702575,0.7056376934051514
1631204233291,0.8186055421829224,0.5217200517654419,0.2875167429447174,0.7003525495529175
1631204233431,0.8294706344604492,0.5217200517654419,0.2809271514415741,0.6959696412086487
1631204233509,0.8368667364120483,0.5209587812423706,0.2738124430179596,0.6924818754196167
1631204233603,0.8384893536567688,0.5148770213127136,0.2712332904338836,0.6912217736244202
1631204233681,0.8406320810317993,0.5036892294883728,0.2753065824508667,0.6636414527893066
1631204233775,0.8411996364593506,0.4856058359146118,0.2822693586349487,0.6497636437416077
1631204233916,0.8477157950401306,0.4641708135604858,0.2864808142185211,0.6392812728881836
1631204234041,0.8516442179679871,0.4411470592021942,0.2842090129852295,0.6355866193771362
1631204234119,0.8513430953025818,0.4161326587200165,0.2768297493457794,0.6348106265068054
1631204234213,0.8481561541557312,0.3934246003627777,0.2560915946960449,0.6362659931182861
1631204234275,0.8450534343719482,0.3819406032562256,0.2229393869638443,0.6414794325828552
1631204234400,0.844880998134613,0.3855004906654358,0.1863657236099243,0.650653600692749
1631204234540,0.8500322699546814,0.3994613885879516,0.1593809425830841,0.6618536114692688
1631204234619,0.8590915203094482,0.4166653454303741,0.1489579975605011,0.672339916229248
1631204234713,0.8644769191741943,0.4317586719989776,0.1520512402057647,0.6807096600532532
1631204234806,0.8567928671836853,0.4408077895641327,0.1654341071844101,0.6888535618782043
1631204234900,0.8325189352035522,0.4339175522327423,0.1889171302318573,0.7003403306007385
1631204234994,0.8325189352035522,0.4259824156761169,0.2190565913915634,0.7003403306007385
1631204235134,0.8325189352035522,0.416587620973587,0.2110269367694854,0.7003403306007385
1631204235213,0.8325189352035522,0.3954353332519531,0.1690124124288559,0.7003403306007385
1631204235322,0.8325189352035522,0.3786199986934662,0.097594529390335,0.7003403306007385
1631204235400,0.8325189352035522,0.3695812225341797,0.0107605094090104,0.7003403306007385
1631204235525,0.5945507884025574,0.3661653101444244,-0.0805346369743347,0.4721272885799408
1631204235587,0.6078015565872192,0.3640614748001098,-0.0826477855443954,0.5058963894844055
1631204235763,0.6279948353767395,0.3599681854248047,-0.0707936137914657,0.5326291918754578
1631204235840,0.6439903974533081,0.3522718846797943,-0.0510183461010456,0.5483073592185974
1631204235950,0.6480727195739746,0.3413378894329071,-0.0322725921869277,0.555594265460968
1631204236012,0.6381500363349915,0.3306592106819153,-0.0198887456208467,0.5583127737045288
1631204236122,0.6182758808135986,0.3260467052459717,-0.0144604090601205,0.5562108755111694
1631204236215,0.5959739685058594,0.3328883051872253,-0.0130963223055005,0.5475887060165405
1631204236356,0.5798808336257935,0.3495371341705322,-0.0125773409381508,0.533075749874115
1631204236465,0.5752979516983032,0.3679036498069763,-0.0120493927970528,0.5156875252723694
1631204236528,0.5800094604492188,0.3811792135238647,-0.0111128073185682,0.4984956979751587
1631204236622,0.5877431035041809,0.3889844119548797,-0.0130875604227185,0.4839752316474914
1631204236731,0.5826535224914551,0.3951528966426849,-0.0032279905863106,0.4782951176166534
1631204236812,0.5855700373649597,0.4005161821842193,0.0206947792321443,0.4782434403896332
1631204236968,0.5870633721351624,0.4022276401519775,0.0528153143823146,0.4786256849765777
1631204237062,0.581748902797699,0.3987757265567779,0.0833395272493362,0.4721528589725494
1631204237156,0.5708932280540466,0.3934270441532135,0.1061683222651481,0.4560615718364715
1631204237265,0.5618078708648682,0.3923024535179138,0.1201788857579231,0.4362159967422485
1631204237328,0.5606649518013,0.3988239467144012,0.1297618150711059,0.4211601614952087
1631204237453,0.5685186386108398,0.41075399518013,0.1407161056995391,0.4143261909484863
1631204237562,0.581413209438324,0.4218723773956299,0.1555016636848449,0.4114852845668793
1631204237671,0.5947763919830322,0.4253648519515991,0.1734177470207214,0.4083594083786011
1631204237750,0.6061053276062012,0.4166110754013061,0.1916385143995285,0.4048250019550323
1631204237847,0.6128639578819275,0.3976027071475982,0.206862986087799,0.4035098254680633
1631204237957,0.6129580140113831,0.377604067325592,0.216757521033287,0.405879408121109
1631204238035,0.607882022857666,0.3663536012172699,0.2206710129976272,0.4109549820423126
1631204238191,0.6008538007736206,0.3645598292350769,0.2203997522592544,0.4172065258026123
1631204238285,0.5957174897193909,0.3629091680049896,0.2198099493980407,0.4238066375255584
1631204238394,0.5952203869819641,0.3533924221992492,0.2236715406179428,0.4236286580562591
1631204238457,0.6007915735244751,0.3375890254974365,0.2199290692806244,0.4186598658561706
1631204238550,0.6108887195587158,0.3242247700691223,0.2143255323171615,0.4144559204578399
1631204238644,0.6209340691566467,0.3192334771156311,0.2110135555267334,0.4152975380420685
1631204238804,0.6223535537719727,0.3196826577186584,0.211274966597557,0.4169683456420898
1631204238898,0.608854353427887,0.3173007071018219,0.211782157421112,0.4111353158950805
1631204238992,0.5825650691986084,0.3072581887245178,0.2079053819179535,0.3909823298454284
1631204239070,0.5553799271583557,0.290818989276886,0.1976558417081833,0.3578881621360779
1631204239179,0.5406794548034668,0.2727755904197693,0.1810166984796524,0.3227939903736114
1631204239257,0.5421618819236755,0.2574113607406616,0.1193416714668273,0.3012614250183105
1631204239413,0.5421618819236755,0.2445792853832245,0.0626898556947708,0.3012614250183105
1631204239507,0.5421618819236755,0.2299214899539947,0.0243420004844665,0.3012614250183105
1631204239585,0.5421618819236755,0.2092829346656799,0.0072208018973469,0.3012614250183105
1631204239663,0.5421618819236755,0.1825772821903228,-0.0020649738144129,0.3012614250183105
1631204239775,0.5421618819236755,0.1546637117862701,-0.0297667849808931,0.4380315840244293
1631204239869,0.7020873427391052,0.1299511343240738,-0.1105719730257988,0.4332827627658844
1631204240009,0.6903553605079651,0.1073258370161056,-0.1207921504974365,0.4264419674873352
1631204240088,0.7032005190849304,0.0815094783902168,-0.1317630410194397,0.4264419674873352
1631204240213,0.7032005190849304,0.0481425262987613,-0.1411895304918289,0.4264419674873352
1631204240306,0.7032005190849304,0.0067802513949573,-0.1471834629774093,0.4264419674873352
1631204240385,0.7032005190849304,-0.0390615761280059,-0.1507565528154373,0.4264419674873352
1631204240494,0.7032005190849304,-0.0690734311938285,-0.1518679857254028,0.4264419674873352
1631204240650,0.7032005190849304,-0.0976879894733429,-0.1513465344905853,0.4264419674873352
1631204240697,0.7032005190849304,-0.1239422187209129,-0.1512744575738906,0.4264419674873352
1631204240806,0.7032005190849304,-0.1492899060249328,-0.1477349698543548,0.4264419674873352
1631204240931,0.7032005190849304,-0.1760646402835846,-0.1522721946239471,0.4264419674873352
1631204241056,0.7032005190849304,-0.2073040604591369,-0.162245362997055,0.4203626215457916
1631204241087,0.6801549792289734,-0.180025964975357,-0.1705151498317718,0.4116490483283996
1631204241228,0.6670518517494202,-0.137177288532257,-0.1719041168689727,0.4116490483283996
1631204241306,0.6670518517494202,-0.0870110094547271,-0.1654794514179229,0.4116490483283996
1631204241400,0.6670518517494202,-0.0403184778988361,-0.1538868993520736,0.4116490483283996
1631204241509,0.6670518517494202,-0.0034131817519664,-0.1420986056327819,0.4116490483283996
1631204241603,0.6670518517494202,0.0240173917263746,-0.1342471241950988,0.4116490483283996
1631204241743,0.6670518517494202,0.0463007688522338,-0.1334804743528366,0.4116490483283996
1631204241853,0.6670518517494202,0.0658694580197334,-0.1377399563789367,0.4116490483283996
1631204241915,0.6952580809593201,0.084585316479206,-0.1395968198776245,0.4116490483283996
1631204242040,0.6910470128059387,0.0720087066292762,-0.132897600531578,0.6100059747695923
1631204242134,0.6694963574409485,0.061341319233179,-0.1156995818018913,0.6109482049942017
1631204242212,0.6418033242225647,0.0501869842410087,-0.0919468030333519,0.6002660393714905
1631204242321,0.6161597967147827,0.039459228515625,-0.0678652673959732,0.5801106691360474
1631204242446,0.598160445690155,0.0317446552217006,-0.0495196431875228,0.556283712387085
1631204242544,0.5953065156936646,0.0281931888312101,-0.0415258631110191,0.5345731973648071
1631204242637,0.6089279651641846,0.01867744512856,-0.0442478507757186,0.5345731973648071
1631204242731,0.6324753165245056,0.0058327387087047,-0.0546278581023216,0.5345731973648071
1631204242841,0.6324753165245056,-0.0080411303788423,-0.0684396103024482,0.5345731973648071
1631204242934,0.6324753165245056,-0.017794381827116,-0.0817728787660598,0.5345731973648071
1631204243059,0.6497752070426941,-0.0212939847260713,-0.0912630185484886,0.5345731973648071
1631204243169,0.6527559161186218,-0.0224151853471994,-0.092807300388813,0.5345731973648071
1631204243294,0.6513532996177673,-0.0264463163912296,-0.086123913526535,0.5261417627334595
1631204243356,0.6417638659477234,-0.0338817834854126,-0.077068418264389,0.5150682330131531
1631204243450,0.6279234886169434,-0.039161279797554,-0.0722299069166183,0.4961771667003631
1631204243543,0.6218350529670715,-0.0366830714046955,-0.0760447904467582,0.4630972146987915
1631204243668,0.6321278810501099,-0.0271920058876276,-0.0894981548190116,0.415193110704422
1631204243747,0.658894419670105,-0.0161339771002531,-0.1100103929638862,0.415193110704422
1631204243845,0.6986720561981201,-0.0104526914656162,-0.1250945627689361,0.415193110704422
1631204243954,0.7474237680435181,-0.0125639913603663,-0.1202526539564132,0.415193110704422
1631204244063,0.7474237680435181,-0.0212849136441946,-0.096998244524002,0.415193110704422
1631204244142,0.7474237680435181,-0.0318174697458744,-0.0693197548389434,0.415193110704422
1631204244282,0.7474237680435181,-0.0408955700695514,-0.0504455342888832,0.415193110704422
1631204244360,0.7474237680435181,-0.0492229051887989,-0.0420550890266895,0.415193110704422
1631204244470,0.6957435011863708,-0.0579853653907775,-0.0378002636134624,0.415193110704422
1631204244551,0.6387379765510559,-0.064503826200962,-0.0305893532931804,0.4460813105106354
1631204244645,0.6361567378044128,-0.064573548734188,-0.0195639859884977,0.4771265387535095
1631204244739,0.6363968253135681,-0.058858186006546,-0.0064948103390634,0.4909805357456207
1631204244926,0.6421806812286377,-0.0534116402268409,0.0056882733479142,0.4874995648860931
1631204244989,0.6538365483283997,-0.0546379759907722,0.0130735738202929,0.4711723923683166
1631204245083,0.6647683382034302,-0.0634874626994133,0.0134366638958454,0.4489220976829529
1631204245161,0.6666116118431091,-0.0746808350086212,0.0080094384029507,0.4275413751602173
1631204245302,0.6566504240036011,-0.0809616521000862,0.0013211105251684,0.4132872521877289
1631204245364,0.6402063965797424,-0.0786813870072364,-0.0069233290851116,0.4093810617923736
1631204245489,0.624931275844574,-0.0723358541727066,-0.02093505859375,0.4093810617923736
1631204245598,0.6192225813865662,-0.0689741820096969,-0.0398865938186645,0.4093810617923736
1631204245676,0.6264070868492126,-0.0738624781370163,-0.0590856373310089,0.4093810617923736
1631204245770,0.6396583914756775,-0.0854935944080352,-0.0718939304351806,0.413093626499176
1631204245864,0.6531862020492554,-0.0993781313300132,-0.0788748487830162,0.415775328874588
1631204245957,0.6556253433227539,-0.1132494732737541,-0.0860192775726318,0.410283476114273
1631204246114,0.6586446166038513,-0.1285775899887085,-0.0982340425252914,0.3897983729839325
1631204246192,0.6612823009490967,-0.1450072973966598,-0.1165568530559539,0.35357666015625
1631204246285,0.6633729338645935,-0.1567264795303344,-0.1385826766490936,0.3088182806968689
1631204246380,0.6621564626693726,-0.16016785800457,-0.1608650833368301,0.2691832482814789
1631204246488,0.6542247533798218,-0.1580702513456344,-0.1769505590200424,0.2508667707443237
1631204246582,0.6416497230529785,-0.1571176499128341,-0.1826319247484207,0.2508667707443237
1631204246723,0.6493149399757385,-0.1605932563543319,-0.180733174085617,0.2508667707443237
1631204246816,0.6765667796134949,-0.1646488308906555,-0.1788779348134994,0.2508667707443237
1631204246910,0.7267445921897888,-0.1639666557312011,-0.1838465481996536,0.2508667707443237
1631204247020,0.7900938987731934,-0.157755896449089,-0.1973262280225753,0.320372998714447
1631204247098,0.8431967496871948,-0.1478897780179977,-0.2158598005771637,0.3449357450008392
1631204247176,0.8693658709526062,-0.1350954473018646,-0.2314110696315765,0.3559419512748718
1631204247332,0.8693026304244995,-0.1216551214456558,-0.2355526834726333,0.362824022769928
1631204247426,0.8762194514274597,-0.1057739779353141,-0.2281045615673065,0.3751286566257477
1631204247504,0.8762194514274597,-0.0917513445019722,-0.2172808051109314,0.3899956345558166
1631204247613,0.8762194514274597,-0.0809170082211494,-0.2139473855495453,0.3980969190597534
1631204247691,0.8762194514274597,-0.0724901258945465,-0.2137028723955154,0.3955367803573608
1631204247801,0.8736128807067871,-0.0653922259807586,-0.2164724022150039,0.387345403432846
1631204247910,0.8680864572525024,-0.0563107468187809,-0.218606561422348,0.3826068639755249
1631204248004,0.8531515598297119,-0.0437080822885036,-0.2197711765766143,0.3851547241210937
1631204248113,0.8314658999443054,-0.027870625257492,-0.2350257635116577,0.3911043405532837
1631204248207,0.8150010108947754,-0.0114243552088737,-0.2447196245193481,0.4016151428222656
1631204248301,0.7958818674087524,-0.0189300719648599,-0.2495082020759582,0.4065692126750946
1631204248394,0.7674223184585571,-0.0520170331001281,-0.2477979362010955,0.4032058715820312
1631204248568,0.7243944406509399,-0.1092537641525268,-0.2403835952281952,0.3947046995162964
1631204248662,0.673007071018219,-0.1719216406345367,-0.222969114780426,0.3888553977012634
1631204248740,0.6275001168251038,-0.2198196947574615,-0.1962676346302032,0.3934292197227478
1631204248818,0.5983208417892456,-0.2120383977890014,-0.1971109360456466,0.411660760641098
1631204248974,0.600195586681366,-0.1827168613672256,-0.2055902779102325,0.4396379590034485
1631204249006,0.6104739308357239,-0.1827168613672256,-0.2170877754688263,0.4704955816268921
1631204249178,0.6250044107437134,-0.1827168613672256,-0.2170877754688263,0.4977344572544098
1631204249256,0.6250044107437134,-0.1827168613672256,-0.2170877754688263,0.5056164860725403
1631204249334,0.6010404825210571,-0.1298085004091262,-0.2130300998687744,0.518710196018219
1631204249428,0.576472818851471,-0.091509498655796,-0.208540678024292,0.5317323803901672
1631204249521,0.5646457672119141,-0.0599335283041,-0.2027393132448196,0.5408042669296265
1631204249615,0.5688787698745728,-0.0342599302530288,-0.179832175374031,0.5475533604621887
1631204249740,0.5822108387947083,-0.0151682691648602,-0.162453606724739,0.5579956769943237
1631204249852,0.597859263420105,0.0067122373729944,-0.1483447849750518,0.5777751803398132
1631204249946,0.6155980825424194,0.0319927185773849,-0.1384368985891342,0.6085395216941833
1631204250040,0.6344523429870605,0.0610538311302661,-0.1328734159469604,0.6468993425369263
1631204250133,0.6532804369926453,0.089249387383461,-0.1402359008789062,0.6885771751403809
1631204250227,0.6765133142471313,0.1124132275581359,-0.1594556868076324,0.7297013401985168
1631204250399,0.6765133142471313,0.1286761909723281,-0.1579186469316482,0.7297013401985168
1631204250477,0.6765133142471313,0.1366377770900726,-0.1488300561904907,0.7297013401985168
1631204250555,0.6765133142471313,0.131244882941246,-0.1383753418922424,0.7297013401985168
1631204250649,0.6765133142471313,0.1233856976032257,-0.1336048245429992,0.7297013401985168
1631204250727,0.6765133142471313,0.1116607412695884,-0.1366737484931945,0.7297013401985168
1631204250821,0.6765133142471313,0.0944868400692939,-0.1400038450956344,0.7297013401985168
1631204250977,0.6765133142471313,0.0734126642346382,-0.1405436098575592,0.7297013401985168
1631204251086,0.6765133142471313,0.0492056123912334,-0.135254830121994,0.7297013401985168
1631204251164,0.6765133142471313,0.0231561325490474,-0.12884321808815,0.7297013401985168
1631204251258,0.6765133142471313,-0.0021121576428413,-0.1249252408742904,0.7297013401985168
1631204251336,0.6765133142471313,-0.0265303142368793,-0.124961145222187,0.7297013401985168
1631204251446,0.6765133142471313,-0.0508598126471042,-0.1256731450557708,0.7297013401985168
1631204251602,0.6765133142471313,-0.0744849741458892,-0.1231066882610321,0.7297013401985168
1631204251696,0.6765133142471313,-0.0924326255917549,-0.1121436953544616,0.7297013401985168
1631204251758,0.6765133142471313,-0.0998251140117645,-0.0926370844244957,0.7297013401985168
1631204251883,0.6765133142471313,-0.0966060161590576,-0.0695442855358123,0.7297013401985168
1631204251977,0.6765133142471313,-0.0863749161362648,-0.0702560916543006,0.7297013401985168
1631204252055,0.6765133142471313,-0.0743195861577987,-0.0735700875520706,0.7297013401985168
1631204252180,0.6765133142471313,-0.0637273490428924,-0.0733738243579864,0.7297013401985168
1631204252274,0.6765133142471313,-0.0557906329631805,-0.070762775838375,0.7297013401985168
1631204252367,0.6765133142471313,-0.0513075850903987,-0.0621036924421787,0.7297013401985168
1631204252477,0.6765133142471313,-0.0508749522268772,-0.0517669282853603,0.7297013401985168
1631204252570,0.6765133142471313,-0.0530793778598308,-0.047599509358406,0.7297013401985168
1631204252664,0.6765133142471313,-0.0544453300535678,-0.050811905413866,0.7297013401985168
1631204252836,0.6765133142471313,-0.0521673969924449,-0.0575213693082332,0.7297013401985168
1631204252898,0.6765133142471313,-0.0452095046639442,-0.0634515359997749,0.7297013401985168
1631204252992,0.6765133142471313,-0.0357077792286872,-0.0665734335780143,0.7297013401985168
1631204253086,0.6765133142471313,-0.0287421904504299,-0.0670887380838394,0.7297013401985168
1631204253180,0.6765133142471313,-0.0310116875916719,-0.0693225264549255,0.7297013401985168
1631204253305,0.6765133142471313,-0.0459548942744731,-0.0802352502942085,0.7297013401985168
1631204253414,0.6765133142471313,-0.071241907775402,-0.1013412177562713,0.7297013401985168
1631204253508,0.6765133142471313,-0.0994255319237709,-0.0937911346554756,0.7297013401985168
1631204253617,0.6765133142471313,-0.1223110780119896,-0.0833730399608612,0.7297013401985168
1631204253711,0.6765133142471313,-0.1350377947092056,-0.0721465423703193,0.7297013401985168
1631204253789,0.6765133142471313,-0.1356870085000991,-0.0595549009740352,0.7297013401985168
1631204253883,0.6765133142471313,-0.1250720769166946,-0.0541268847882747,0.7297013401985168
1631204254008,0.6765133142471313,-0.1068029329180717,-0.0592093430459499,0.7297013401985168
1631204254117,0.6765133142471313,-0.0864578410983085,-0.0708677023649215,0.7297013401985168
1631204254211,0.873525083065033,-0.0687066987156868,-0.083511434495449,0.7297013401985168
1631204254289,0.8473968505859375,-0.057588018476963,-0.0939957126975059,0.7297013401985168
1631204254383,0.8008541464805603,-0.0554907508194446,-0.101346231997013,0.5759739875793457
1631204254492,0.7627140879631042,-0.0633042529225349,-0.1070502921938896,0.524757444858551
1631204254617,0.7570626735687256,-0.0777108743786811,-0.1126335933804512,0.5294342041015625
1631204254726,0.7558910250663757,-0.0911513790488243,-0.1176226511597633,0.5264464616775513
1631204254804,0.7493185997009277,-0.0970203429460525,-0.1214639097452163,0.509987473487854
1631204254914,0.7354065775871277,-0.0957341566681861,-0.1259168833494186,0.4908806383609772
1631204255007,0.7182755470275879,-0.0939741432666778,-0.1353970319032669,0.4772374331951141
1631204255101,0.7039388418197632,-0.0956998020410537,-0.1536534875631332,0.4698116481304168
1631204255257,0.6955409646034241,-0.0993849262595176,-0.1805818527936935,0.4634342193603515
1631204255335,0.6925448775291443,-0.1022659838199615,-0.2119436562061309,0.4531522393226623
1631204255429,0.6917409300804138,-0.1039232835173606,-0.2431512027978897,0.440134733915329
1631204255523,0.6890647411346436,-0.1061521545052528,-0.2690356373786926,0.4282804727554321
1631204255632,0.6643304228782654,-0.1098474934697151,-0.2827485501766205,0.4204753041267395
1631204255726,0.6510108709335327,-0.1159030720591545,-0.281299352645874,0.4165672361850738
1631204255838,0.6448909640312195,-0.1239794865250587,-0.2711118161678314,0.4094914495944977
1631204255963,0.6444435715675354,-0.1306815147399902,-0.2631154060363769,0.4018221497535705
1631204256073,0.6423634886741638,-0.1309718638658523,-0.2638989686965942,0.3868025839328766
1631204256135,0.6328364610671997,-0.1224424839019775,-0.2739280760288238,0.3672380447387695
1631204256229,0.6178114414215088,-0.1088628396391868,-0.2912130355834961,0.3510296642780304
1631204256323,0.6257525086402893,-0.0960875898599624,-0.3140532374382019,0.3438706994056701
1631204256448,0.6353232860565186,-0.0871739014983177,-0.3394080400466919,0.3426980078220367
1631204256542,0.6419161558151245,-0.0818716064095497,-0.3620250523090362,0.3395039141178131
1631204256667,0.642720103263855,-0.0803566128015518,-0.376799613237381,0.3292283713817596
1631204256760,0.637121319770813,-0.0817851349711418,-0.3819595575332641,0.2996709942817688
1631204256854,0.6313143372535706,-0.0831617414951324,-0.3791163563728332,0.2743651568889618
1631204256932,0.6383411884307861,-0.0819547995924949,-0.3710638880729675,0.2587683796882629
1631204257072,0.663006603717804,-0.0793097242712974,-0.3615173101425171,0.2534647285938263
1631204257166,0.6915459632873535,-0.0797275230288505,-0.3571114838123321,0.2527560293674469
1631204257260,0.6954501867294312,-0.0852144360542297,-0.3626156747341156,0.2449652552604675
1631204257369,0.6872336268424988,-0.0936864912509918,-0.3766429424285888,0.2264153808355331
1631204257432,0.6747884750366211,-0.1017818227410316,-0.3924903869628906,0.2277711331844329
1631204257557,0.663215696811676,-0.1068818494677543,-0.403183251619339,0.236992746591568
1631204257682,0.6547926068305969,-0.1090493872761726,-0.4065799117088318,0.2539855241775512
1631204257760,0.6509469747543335,-0.1109494268894195,-0.4037986099720001,0.2687760293483734
1631204257872,0.6434168815612793,-0.1149481013417244,-0.3965986967086792,0.2760750949382782
1631204257934,0.64286208152771,-0.1208568587899208,-0.3888158798217773,0.2781911790370941
1631204258075,0.645201563835144,-0.1264421045780182,-0.3841756284236908,0.2781875431537628
1631204258153,0.6441729664802551,-0.130464032292366,-0.3826186656951904,0.2750505208969116
1631204258294,0.6367427110671997,-0.1358894854784011,-0.3808428943157196,0.2715311348438263
1631204258387,0.6228919625282288,-0.1484891474246978,-0.373920738697052,0.2662253379821777
1631204258481,0.604196310043335,-0.1704694777727127,-0.3597371280193329,0.2647362947463989
1631204258575,0.5868794322013855,-0.1961225122213363,-0.3401249945163727,0.2715964317321777
1631204258669,0.5793275833129883,-0.2113424688577652,-0.3179162442684173,0.2875716686248779
1631204258747,0.5830279588699341,-0.2045264989137649,-0.2933717966079712,0.3091034293174743
1631204258919,0.589596152305603,-0.1771656274795532,-0.263749212026596,0.3306248486042022
1631204258997,0.5925445556640625,-0.1429786086082458,-0.2304360568523407,0.3447323441505432
1631204259106,0.5948085188865662,-0.1147463992238044,-0.200069323182106,0.3501663506031036
1631204259184,0.603130042552948,-0.0976758077740669,-0.1795024275779724,0.3543127775192261
1631204259278,0.6207529902458191,-0.0899407938122749,-0.1700617372989654,0.3669090867042541
1631204259372,0.6425772905349731,-0.0888927653431892,-0.1688862591981887,0.387966126203537
1631204259512,0.659974217414856,-0.0932136476039886,-0.1719101965427398,0.4072768092155456
1631204259609,0.6679266095161438,-0.1022842898964881,-0.1760194897651672,0.4173631370067596
1631204259687,0.6696984767913818,-0.1136555597186088,-0.178519070148468,0.4217185080051422
1631204259812,0.6703310608863831,-0.1229108497500419,-0.1781545877456665,0.4266563057899475
1631204259890,0.6704540252685547,-0.1261146962642669,-0.1764978915452957,0.4335757195949554
1631204259968,0.6682678461074829,-0.121935449540615,-0.1754860430955886,0.4375138282775879
1631204260109,0.6647742390632629,-0.1136423572897911,-0.1759039014577865,0.432756245136261
1631204260217,0.6621865034103394,-0.1087346225976944,-0.1782893687486648,0.4175516664981842
1631204260310,0.6615251302719116,-0.113836720585823,-0.1835042983293533,0.3975298404693603
1631204260388,0.6626859307289124,-0.1297596842050552,-0.1925992667675018,0.3817625939846039
1631204260514,0.6672338843345642,-0.1508278101682663,-0.2048654556274414,0.3775295317173004
1631204260578,0.6751720309257507,-0.168795645236969,-0.2173238396644592,0.3805203735828399
1631204260750,0.6826779842376709,-0.1763288974761963,-0.22536301612854,0.3790507614612579
1631204260828,0.6827353239059448,-0.1690813601016998,-0.2250653803348541,0.3647820949554443
1631204260968,0.663229763507843,-0.1478964984416961,-0.2148972153663635,0.340264230966568
1631204261015,0.6418823003768921,-0.1191971525549888,-0.1960907280445099,0.3149841427803039
1631204261078,0.632133424282074,-0.091102011501789,-0.1710398346185684,0.3007550537586212
1631204261181,0.6387587189674377,-0.0650893226265907,-0.1418311148881912,0.2988127470016479
1631204261365,0.6581075191497803,-0.0409116521477699,-0.1118574663996696,0.3043059110641479
1631204261427,0.6845577955245972,-0.0202718675136566,-0.0866809114813804,0.3134565949440002
1631204261520,0.7108468413352966,-0.0063783451914787,-0.0717209503054618,0.3257473111152649
1631204261629,0.726312518119812,0.0048813009634613,-0.0676556602120399,0.3421453833580017
1631204261707,0.7263070940971375,0.0116934208199381,-0.0692003369331359,0.3635017275810241
1631204261805,0.7194571495056152,0.0182092804461717,-0.0706447586417198,0.3882687389850616
1631204261952,0.7245040535926819,0.0203212741762399,-0.0714108869433403,0.3882687389850616
1631204262046,0.7245040535926819,0.0145061183720827,-0.0733652859926223,0.3882687389850616
1631204262108,0.7245040535926819,0.0031486856751143,-0.0769708901643753,0.3882687389850616
1631204262218,0.7245040535926819,-0.0078135188668966,-0.0821184068918228,0.3882687389850616
1631204262327,0.7245040535926819,-0.0161394011229276,-0.0907917022705078,0.3882687389850616
1631204262407,0.7245040535926819,-0.0244411490857601,-0.1041157245635986,0.3882687389850616
1631204262566,0.7245040535926819,-0.0373971313238143,-0.1186847761273384,0.3882687389850616
1631204262627,0.7245040535926819,-0.0564476065337657,-0.1317437589168548,0.3882687389850616
1631204262738,0.7245040535926819,-0.0811954140663147,-0.1461273580789566,0.3882687389850616
1631204262833,0.7245040535926819,-0.10793387144804,-0.1667305529117584,0.3882687389850616
1631204262911,0.7245040535926819,-0.1309428066015243,-0.1919008493423462,0.3882687389850616
1631204263005,0.7245040535926819,-0.1451932191848755,-0.2133850157260894,0.3882687389850616
1631204263179,0.7184913754463196,-0.1435880064964294,-0.226143792271614,0.6702759861946106
1631204263257,0.7235554456710815,-0.1459011882543563,-0.2339168488979339,0.6316918134689331
1631204263348,0.728861927986145,-0.1459575891494751,-0.2426674962043762,0.6036827564239502
1631204263428,0.728861927986145,-0.140726238489151,-0.2503576874732971,0.6036827564239502
1631204263535,0.728861927986145,-0.1282900273799896,-0.249688908457756,0.6036827564239502
1631204263630,0.728861927986145,-0.1131030991673469,-0.2367711514234542,0.6036827564239502
1631204263771,0.728861927986145,-0.103679321706295,-0.2132043838500976,0.6036827564239502
1631204263865,0.728861927986145,-0.1034468486905098,-0.1831946820020675,0.6036827564239502
1631204263944,0.728861927986145,-0.1079986616969108,-0.1509788185358047,0.6036827564239502
1631204264034,0.728861927986145,-0.1078098341822624,-0.1221831962466239,0.6036827564239502
1631204264143,0.728861927986145,-0.0976910889148712,-0.1011339575052261,0.6036827564239502
1631204264221,0.728861927986145,-0.0831216946244239,-0.0900234207510948,0.6036827564239502
1631204264382,0.739629864692688,-0.0732098370790481,-0.0864247828722,0.5665401220321655
1631204264476,0.7501564621925354,-0.0728921145200729,-0.086043007671833,0.5176525115966797
1631204264569,0.7501564621925354,-0.0814899578690528,-0.0843125358223915,0.5176525115966797
1631204264693,0.7501564621925354,-0.0960798636078834,-0.0801402553915977,0.5176525115966797
1631204264755,0.7501564621925354,-0.1143759787082672,-0.0746744945645332,0.5176525115966797
1631204264850,0.7501564621925354,-0.1349224746227264,-0.0695958212018013,0.5176525115966797
1631204264983,0.6967406868934631,-0.1563674062490463,-0.0675371959805488,0.2724283039569855
1631204265076,0.6722372174263,-0.1754756569862365,-0.0708604454994201,0.2841741442680359
1631204265216,0.6496407985687256,-0.1870725899934768,-0.0788286328315734,0.2959226667881012
1631204265295,0.63467937707901,-0.187749981880188,-0.0891079008579254,0.3053103387355804
1631204265357,0.6352839469909668,-0.1818843185901641,-0.1006656065583229,0.3123030662536621
1631204265451,0.6485641002655029,-0.1788216531276703,-0.115887738764286,0.3164231777191162
1631204265591,0.6598342061042786,-0.1855904310941696,-0.1371954679489135,0.3170452117919922
1631204265688,0.6584579348564148,-0.2019166499376297,-0.1613619476556778,0.3137699663639068
1631204265781,0.647036075592041,-0.2212138772010803,-0.180080696940422,0.30789515376091
1631204265906,0.6345595717430115,-0.2363369017839431,-0.1879213154315948,0.3014115691184997
1631204266000,0.6275168657302856,-0.2405078560113906,-0.1875999420881271,0.2981408834457397
1631204266078,0.625908613204956,-0.2301503270864486,-0.1878449618816375,0.300797551870346
1631204266219,0.6183381676673889,-0.2075761556625366,-0.1920102834701538,0.3095088899135589
1631204266281,0.6081559658050537,-0.1809045374393463,-0.1971409022808075,0.3133014738559723
1631204266406,0.6010541915893555,-0.1567659378051757,-0.196267694234848,0.3175393939018249
1631204266484,0.5994852781295776,-0.1372807323932647,-0.1852992624044418,0.3198267221450805
1631204266585,0.6031082272529602,-0.1244529783725738,-0.1687381416559219,0.3190558552742004
1631204266694,0.61646568775177,-0.1219307258725166,-0.1531632840633392,0.315801590681076
1631204266803,0.6332393288612366,-0.1313872933387756,-0.143232449889183,0.310882031917572
1631204266913,0.6326090693473816,-0.1472495794296264,-0.1379834860563278,0.3045689165592193
1631204267006,0.6185160875320435,-0.1577272862195968,-0.1335793137550354,0.2979863882064819
1631204267100,0.5988961458206177,-0.1543300151824951,-0.1273591369390487,0.2937443256378174
1631204267194,0.5919800996780396,-0.1394040733575821,-0.1202599257230758,0.2965220510959625
1631204267319,0.6060523390769958,-0.1222673058509826,-0.1158372461795806,0.3101230561733246
1631204267444,0.6318186521530151,-0.1101145893335342,-0.1166109666228294,0.3101230561733246
1631204267521,0.6551012396812439,-0.1057656556367874,-0.1209740117192268,0.3101230561733246
1631204267614,0.6551012396812439,-0.1090406253933906,-0.1259393393993377,0.3101230561733246
1631204267695,0.6551012396812439,-0.117429532110691,-0.1277921795845031,0.3101230561733246
1631204267789,0.6551012396812439,-0.1263177543878555,-0.1284378468990326,0.3101230561733246
1631204267883,0.757658839225769,-0.1305735409259796,-0.1342601329088211,0.3101230561733246
1631204268039,0.7889711260795593,-0.1265097558498382,-0.1484027653932571,0.3550675809383392
1631204268133,0.8327284455299377,-0.1138194054365158,-0.1672777533531189,0.359981894493103
1631204268211,0.9045339822769164,-0.0967402085661888,-0.187940627336502,0.3637635111808777
1631204268302,0.9588598012924194,-0.0822843387722969,-0.2097020596265792,0.3556318581104278
1631204268427,0.95659738779068,-0.0758835822343826,-0.2324014604091644,0.3369829952716827
1631204268505,0.9354243278503418,-0.0781814903020858,-0.2532267272472381,0.3185911178588867
1631204268674,0.9076313972473145,-0.0855158641934394,-0.2678903639316559,0.3128156065940857
1631204268742,0.8796570301055908,-0.0946888476610183,-0.2755415141582489,0.3215367794036865
1631204268836,0.8529197573661804,-0.10420473664999,-0.2780748903751373,0.3367007970809936
1631204268930,0.8294380903244019,-0.1130756884813308,-0.2759053707122803,0.3491884768009186
1631204269039,0.8122877478599548,-0.120866984128952,-0.2678601145744324,0.3556598126888275
1631204269117,0.801456868648529,-0.1272601634263992,-0.2523218691349029,0.3581663370132446
1631204269258,0.7937660813331604,-0.1323977559804916,-0.2339956760406494,0.3590651750564575
1631204269367,0.785251259803772,-0.1362065523862838,-0.2160464823246002,0.3593828082084656
1631204269414,0.7724660038948059,-0.1392308324575424,-0.1994971334934234,0.3609424829483032
1631204269539,0.7522838115692139,-0.144912913441658,-0.1875214427709579,0.3629248738288879
1631204269648,0.7186058759689331,-0.1567423343658447,-0.182264357805252,0.3663699328899383
1631204269742,0.6723504662513733,-0.1740246713161468,-0.1814710050821304,0.3757777214050293
1631204269867,0.6279723644256592,-0.1894977986812591,-0.1779137402772903,0.3949175477027893
1631204269961,0.6036930084228516,-0.1926095634698867,-0.1674846410751342,0.4196553528308868
1631204270039,0.6008279919624329,-0.1804948300123214,-0.1519936770200729,0.4404939711093902
1631204270132,0.6073238253593445,-0.1623003482818603,-0.1364294290542602,0.4493395388126373
1631204270242,0.6169366836547852,-0.148428276181221,-0.1246785745024681,0.4450670182704925
1631204270367,0.6304025053977966,-0.1418138295412063,-0.1175804585218429,0.432766705751419
1631204270476,0.6450093388557434,-0.137913629412651,-0.1142317578196525,0.4197771549224853
1631204270554,0.6558355689048767,-0.1316966265439987,-0.1140729114413261,0.4107433259487152
1631204270668,0.662015974521637,-0.1235965862870216,-0.1173079907894134,0.4053611159324646
1631204270746,0.6664999723434448,-0.118303544819355,-0.1236964836716651,0.4012419581413269
1631204270839,0.6706670522689819,-0.1194968447089195,-0.1315721124410629,0.3971450328826904
1631204270933,0.6725810766220093,-0.1280947178602218,-0.1384880691766739,0.392950564622879
1631204271089,0.6704586148262024,-0.1415549665689468,-0.1416127830743789,0.389439195394516
1631204271168,0.666179895401001,-0.155210480093956,-0.1402734071016311,0.3845669329166412
1631204271292,0.665350079536438,-0.1635056585073471,-0.1372139006853103,0.3740485906600952
1631204271371,0.6732836961746216,-0.1643191426992416,-0.1372931152582168,0.3565877079963684
1631204271464,0.6885758638381958,-0.1648961007595062,-0.1426516473293304,0.3373506367206573
1631204271542,0.7040056586265564,-0.1755523383617401,-0.151862546801567,0.3250242471694946
1631204271699,0.7123225331306458,-0.1980291008949279,-0.1616642624139785,0.3242372572422027
1631204271795,0.7130873203277588,-0.2206186205148697,-0.168145015835762,0.3327527046203613
1631204271889,0.7106537818908691,-0.2289870381355285,-0.1690345853567123,0.3461390733718872
1631204271982,0.7097614407539368,-0.2217952460050583,-0.1640516072511673,0.3609586954116821
1631204272061,0.7101245522499084,-0.208446592092514,-0.1545044481754303,0.373320072889328
1631204272186,0.7092666029930115,-0.1964304596185684,-0.1426892429590225,0.3806576728820801
1631204272295,0.7040352821350098,-0.1872067600488662,-0.1319008767604828,0.3843155205249786
1631204272388,0.6946125626564026,-0.1803282797336578,-0.125710979104042,0.3885088860988617
1631204272482,0.6833927035331726,-0.1760668307542801,-0.1248748525977134,0.3956550657749176
1631204272591,0.6741344928741455,-0.1733871549367904,-0.1259322315454483,0.4043309688568115
1631204272685,0.6670752167701721,-0.1706485301256179,-0.1257189512252807,0.4117740094661712
1631204272779,0.6587383151054382,-0.1681793332099914,-0.1225258558988571,0.4161979556083679
1631204272904,0.644435465335846,-0.1663300693035125,-0.1157575696706771,0.4169955253601074
1631204273014,0.6259342432022095,-0.1616000682115554,-0.1063980236649513,0.413436621427536
1631204273092,0.6104962825775146,-0.1480824649333953,-0.0966734364628791,0.4067514538764953
1631204273232,0.605584979057312,-0.1240951120853424,-0.0894107148051261,0.3996198773384094
1631204273294,0.6092135906219482,-0.0950583145022392,-0.085938885807991,0.3947891294956207
1631204273388,0.6122637391090393,-0.0687900334596633,-0.0849218592047691,0.3926458656787872
1631204273513,0.6070151925086975,-0.0501981191337108,-0.085381880402565,0.3922071158885956
1631204273607,0.5929504036903381,-0.0392284616827964,-0.087401382625103,0.3935301303863525
1631204273701,0.5739506483078003,-0.0298912692815065,-0.0909137800335884,0.3982674777507782
1631204273810,0.559198260307312,-0.0152332782745361,-0.0950279310345649,0.4069455564022064
1631204273904,0.5585763454437256,0.0072359493933618,-0.0976781845092773,0.418310672044754
1631204274013,0.5740141868591309,0.0348092727363109,-0.0972103253006935,0.4301269948482513
1631204274138,0.5974823832511902,0.0617221072316169,-0.0947279259562492,0.4391417503356933
1631204274232,0.619364857673645,0.0827492624521255,-0.0920293629169464,0.4435365796089172
1631204274310,0.634194552898407,0.0953014194965362,-0.0915887951850891,0.4458943605422973
1631204274404,0.6416910290718079,0.0991227850317955,-0.0959201157093048,0.449767529964447
1631204274513,0.6437450051307678,0.095505379140377,-0.1051569879055023,0.4562868177890777
1631204274607,0.6421804428100586,0.0857841372489929,-0.117585189640522,0.4624345302581787
1631204274732,0.6370355486869812,0.0700531527400016,-0.1297147274017334,0.4659320712089538
1631204274841,0.6292290091514587,0.0484020225703716,-0.1399994045495987,0.4665279984474182
1631204274935,0.624531626701355,0.0229189023375511,-0.1509445309638977,0.464458703994751
1631204275028,0.6324637532234192,-0.00172339763958,-0.165287509560585,0.4603388905525207
1631204275122,0.6568737030029297,-0.0216904561966657,-0.1816408038139343,0.4567543268203735
1631204275200,0.6927951574325562,-0.039958618581295,-0.1958237588405609,0.4549508392810821
1631204275341,0.7304618954658508,-0.0629264339804649,-0.2050217092037201,0.451900839805603
1631204275435,0.7608512043952942,-0.0928215086460113,-0.2111495584249496,0.4424598813056946
1631204275544,0.7801651954650879,-0.1243419721722602,-0.2188111096620559,0.4253924190998077
1631204275653,0.791685163974762,-0.1497441083192825,-0.2304247170686721,0.4056492447853088
1631204275731,0.8046637177467346,-0.1650385111570358,-0.2425824403762817,0.3894979059696197
1631204275809,0.8239285945892334,-0.1715010851621627,-0.2480088770389557,0.379462331533432
1631204275966,0.8438414931297302,-0.1708311289548874,-0.2414448857307434,0.3767805695533752
1631204276075,0.854918360710144,-0.162686675786972,-0.2265880703926086,0.3851392567157745
1631204276137,0.8551115393638611,-0.1469207555055618,-0.2118895202875137,0.4069396555423736
1631204276247,0.8502780199050903,-0.125315710902214,-0.2033270299434662,0.4350241422653198
1631204276341,0.8463355302810669,-0.1029804125428199,-0.2001843005418777,0.4566094279289245
1631204276419,0.8422387838363647,-0.0846951529383659,-0.1969918310642242,0.4646060466766357
1631204276544,0.8330981731414795,-0.0733326971530914,-0.1883687973022461,0.4605691730976105
1631204276684,0.816087007522583,-0.0699256807565689,-0.1744336783885955,0.4494328498840332
1631204276780,0.7923039793968201,-0.0723383054137229,-0.1599210202693939,0.4344029724597931
1631204276843,0.765217661857605,-0.0756707265973091,-0.1486294418573379,0.4180310070514679
1631204276921,0.7389798760414124,-0.076043777167797,-0.140906348824501,0.4052641689777374
1631204277046,0.7171096801757812,-0.0754274651408195,-0.1348372995853424,0.3994107842445373
1631204277218,0.6989847421646118,-0.0776517167687416,-0.1276730448007583,0.3999448716640472
1631204277296,0.6781445145606995,-0.0829953700304031,-0.1183588728308677,0.4053063988685608
1631204277374,0.649603545665741,-0.0875740125775337,-0.1098978221416473,0.4149487018585205
1631204277483,0.6180225610733032,-0.0896329581737518,-0.1066180989146232,0.4256207346916199
1631204277546,0.5946536660194397,-0.0934407338500022,-0.110128603875637,0.4286601841449737
1631204277655,0.5836346745491028,-0.1058806404471397,-0.1178152784705162,0.4161859452724457
1631204277780,0.5788685083389282,-0.1298709213733673,-0.1262420862913131,0.3894194662570953
1631204277889,0.5737859606742859,-0.1607840210199356,-0.1352795958518982,0.360895961523056
1631204277983,0.5693703889846802,-0.1897298395633697,-0.147305428981781,0.3449693918228149
1631204278062,0.5689178705215454,-0.2067150771617889,-0.1640933454036712,0.3455742597579956
1631204278171,0.575021505355835,-0.206260547041893,-0.1849083453416824,0.3564958870410919
1631204278249,0.5843398571014404,-0.1929340064525604,-0.2050032913684845,0.3712390065193176
1631204278389,0.5889370441436768,-0.1791451573371887,-0.2177033275365829,0.3868039548397064
1631204278467,0.58245450258255,-0.1752235144376754,-0.2193155884742736,0.3999926149845123
1631204278592,0.5659272074699402,-0.1803304702043533,-0.2129784673452377,0.4083710610866546
1631204278686,0.5455194115638733,-0.1866367310285568,-0.2074272185564041,0.4125728905200958
1631204278795,0.5280134677886963,-0.1901974529027938,-0.2115756720304489,0.4142324924468994
1631204278874,0.5147255063056946,-0.1927651613950729,-0.2267562747001648,0.4141455888748169
1631204278999,0.5061722993850708,-0.193871796131134,-0.2462304532527923,0.4120056629180908
1631204279124,0.5021554827690125,-0.1887736618518829,-0.2590941786766052,0.4100546240806579
1631204279186,0.5015266537666321,-0.1740261167287826,-0.2596663236618042,0.4114643037319183
1631204279295,0.5010929107666016,-0.152568057179451,-0.2510334253311157,0.4176729023456573
1631204279389,0.4996027648448944,-0.1298651397228241,-0.2387304157018661,0.4269571900367737
1631204279483,0.4971722662448883,-0.1105051636695861,-0.2266525030136108,0.4365983605384826
1631204279608,0.4943752288818359,-0.0994476824998855,-0.2155615240335464,0.4442063570022583
1631204279720,0.4930950403213501,-0.0998160392045974,-0.2055259346961975,0.4480753540992737
1631204279798,0.4986759126186371,-0.1092276200652122,-0.1982141584157943,0.4483122825622558
1631204279876,0.5136873126029968,-0.1194380894303321,-0.1967412680387497,0.4462628364562988
1631204279985,0.5344106554985046,-0.123685099184513,-0.2028614729642868,0.4437487721443176
1631204280110,0.5516722202301025,-0.1244048997759819,-0.2149356603622436,0.4409950077533722
1631204280236,0.5614675283432007,-0.1295970380306244,-0.2286673486232757,0.4362761080265045
1631204280314,0.5632913112640381,-0.1419039368629455,-0.238201156258583,0.4286679923534393
1631204280407,0.5591539740562439,-0.1567311584949493,-0.2392189651727676,0.4181544780731201
1631204280532,0.5499181747436523,-0.169352114200592,-0.231785774230957,0.4062871932983398
1631204280610,0.5396766066551208,-0.1792747527360916,-0.2212975323200225,0.3944803476333618
1631204280688,0.5333903431892395,-0.1893623620271682,-0.2136793732643127,0.3831124901771545
1631204280845,0.5341641902923584,-0.201240062713623,-0.2108344882726669,0.3715603351593017
1631204280938,0.5388131737709045,-0.2161900550127029,-0.2111193537712097,0.3582150042057037
1631204281016,0.5414360761642456,-0.2337636500597,-0.211744025349617,0.3410406410694122
1631204281126,0.5371242761611938,-0.2507784962654114,-0.2133367508649826,0.3187605738639831
1631204281204,0.5221595764160156,-0.263260155916214,-0.2182101607322693,0.2928052246570587
1631204281282,0.4958384931087494,-0.2696523070335388,-0.22694893181324,0.2668924927711487
1631204281423,0.4660350978374481,-0.2720755934715271,-0.2343702912330627,0.2446533888578415
1631204281548,0.4464583694934845,-0.2729817032814026,-0.2335473597049713,0.227994218468666
1631204281626,0.4499695897102356,-0.2727388739585876,-0.2217540740966797,0.2183032631874084
1631204281728,0.4775108993053436,-0.2686905264854431,-0.2031390070915222,0.2160270810127258
1631204281833,0.5200927257537842,-0.2564877569675445,-0.1831964403390884,0.2195163965225219
1631204281958,0.5662548542022705,-0.2325637191534042,-0.1649684607982635,0.226267784833908
1631204282036,0.6098684668540955,-0.1979459524154663,-0.1496373862028122,0.2354708909988403
1631204282176,0.6500035524368286,-0.1596952974796295,-0.1379491239786148,0.2475828975439071
1631204282239,0.686410665512085,-0.1254040747880935,-0.130120500922203,0.2618934214115143
1631204282317,0.7164958119392395,-0.0984714105725288,-0.1256421655416488,0.2757484912872314
1631204282473,0.7410330176353455,-0.0771058499813079,-0.1232670471072197,0.2875299751758575
1631204282505,0.7669147253036499,-0.0583045966923236,-0.1215556412935257,0.3018312454223633
1631204282670,0.8003302216529846,-0.040981400758028,-0.1195094138383865,0.3307773768901825
1631204282764,0.8362827301025391,-0.0253643933683633,-0.1176702976226806,0.3790780007839203
1631204282842,0.8644304275512695,-0.0116338329389691,-0.1182013154029846,0.4337717294692993
1631204282920,0.8793271780014038,0.0010442961938679,-0.1255575716495514,0.4776665568351745
1631204283045,0.8833965063095093,0.0132344141602516,-0.1416811197996139,0.5024382472038269
1631204283138,0.8820834755897522,0.0251201130449771,-0.1628297418355941,0.518908679485321
1631204283279,0.8783730864524841,0.0356206484138965,-0.180542916059494,0.5343610048294067
1631204283357,0.8719486594200134,0.0414530225098133,-0.1903227269649505,0.5486692190170288
1631204283451,0.8617105484008789,0.0374511256814003,-0.1963753998279571,0.5615831017494202
1631204283560,0.8455446362495422,0.0211901515722274,-0.2057078629732132,0.5726420283317566
1631204283623,0.8218077421188354,-0.002606795169413,-0.2207930535078048,0.5860775709152222
1631204283732,0.7934406995773315,-0.0221126712858676,-0.2390764206647873,0.5984184145927429
1631204283873,0.7679212093353271,-0.0273838359862566,-0.2567048370838165,0.6041919589042664
1631204283966,0.7482788562774658,-0.019766142591834,-0.2716588973999023,0.604354202747345
1631204284044,0.7277513146400452,-0.0090509168803691,-0.2833985090255737,0.6007354855537415
1631204284154,0.6970245838165283,-0.0023155629169195,-0.2923923134803772,0.5887892842292786
1631204284247,0.6582404971122742,0.0006072560208849,-0.3002133369445801,0.5613775253295898
1631204284341,0.6238480806350708,0.0032238555140793,-0.3067946434020996,0.5187580585479736
1631204284482,0.6036801338195801,0.0066001871600747,-0.3079554140567779,0.4726586043834686
1631204284580,0.595392107963562,0.0106809725984931,-0.2996571063995361,0.4412737488746643
1631204284674,0.592292845249176,0.0169756636023521,-0.2825224995613098,0.4412737488746643
1631204284767,0.5846702456474304,0.0273380298167467,-0.2635123431682586,0.4412737488746643
1631204284845,0.5697453618049622,0.0411942638456821,-0.2500051259994507,0.4412737488746643
1631204284970,0.5504530072212219,0.0553235188126564,-0.2453801184892654,0.4412737488746643
1631204285111,0.5362064242362976,0.065630130469799,-0.2493241280317306,0.4412737488746643
1631204285205,0.535697340965271,0.0686962530016899,-0.2582006454467773,0.4152157604694366
1631204285283,0.5467357635498047,0.0627055689692497,-0.2649457156658172,0.3781596422195434
1631204285376,0.5584278702735901,0.0483379364013671,-0.2629681825637817,0.3462047874927521
1631204285533,0.5646453499794006,0.0292617827653884,-0.2498481273651123,0.3349644243717193
1631204285564,0.5673752427101135,0.0098706167191267,-0.2296438217163086,0.3383201360702514
1631204285736,0.5707740783691406,-0.0070025408640503,-0.2070349752902984,0.3371916711330414
1631204285798,0.5707740783691406,-0.0201799068599939,-0.1824811697006225,0.3296712040901184
1631204285876,0.5707740783691406,-0.0299030002206563,-0.1556640118360519,0.3215080201625824
1631204285970,0.5707740783691406,-0.0371884852647781,-0.1305876672267913,0.3215080201625824
1631204286095,0.5707740783691406,-0.0441058129072189,-0.1128655448555946,0.3215080201625824
1631204286204,0.5707740783691406,-0.0531425066292285,-0.106149785220623,0.3215080201625824
1631204286298,0.5707740783691406,-0.063153825700283,-0.1101574450731277,0.3215080201625824
1631204286423,0.5707740783691406,-0.0692855194211006,-0.1212050840258598,0.3215080201625824
1631204286520,0.5707740783691406,-0.0663678646087646,-0.1326359212398529,0.3215080201625824
1631204286598,0.5707740783691406,-0.0547597594559192,-0.1370284706354141,0.3215080201625824
1631204286692,0.5707740783691406,-0.0396838895976543,-0.1312765181064605,0.2713769972324371
1631204286786,0.5707740783691406,-0.0252177231013774,-0.1201645508408546,0.2628099620342254
1631204286926,0.6895952224731445,-0.0108509454876184,-0.1104084849357605,0.2775168120861053
1631204287004,0.667275607585907,0.0046347728930413,-0.1050391867756843,0.2857425212860107
1631204287114,0.6419849991798401,0.0203974731266498,-0.1021177321672439,0.2919497489929199
1631204287208,0.6203705668449402,0.0340796634554863,-0.0991629362106323,0.3039066791534424
1631204287317,0.6018890142440796,0.043546974658966,-0.0961462184786796,0.3105736970901489
1631204287380,0.5849520564079285,0.0494229868054389,-0.0946779251098632,0.3146994411945343
1631204287551,0.5691070556640625,0.0536602362990379,-0.0949242413043975,0.3149569034576416
1631204287629,0.5561381578445435,0.0574913099408149,-0.0963723734021186,0.3107776641845703
1631204287754,0.5483067035675049,0.0606266856193542,-0.0979870036244392,0.3026464283466339
1631204287804,0.5465885400772095,0.0603709816932678,-0.0962238535284996,0.2916650474071502
1631204287913,0.5490558743476868,0.0538104437291622,-0.0868744030594825,0.2792788445949554
1631204288038,0.5526507496833801,0.0410774014890193,-0.0713808238506317,0.2674358189105987
1631204288147,0.5530011653900146,0.0267337225377559,-0.0576326362788677,0.2627090215682983
1631204288272,0.5516624450683594,0.0161586757749319,-0.0525321997702121,0.2656376659870147
1631204288350,0.5540644526481628,0.0095799602568149,-0.0549324192106723,0.2717540860176086
1631204288444,0.5585523843765259,0.0020892764441668,-0.0586788207292556,0.2787796258926391
1631204288522,0.5590474009513855,-0.0096890041604638,-0.0592491589486599,0.2864004671573639
1631204288616,0.5541470646858215,-0.0224997214972972,-0.0584305152297019,0.2942053973674774
1631204288772,0.5490980744361877,-0.0301329307258129,-0.0609207190573215,0.2882959246635437
1631204288850,0.5507173538208008,-0.0309096239507198,-0.0692802220582962,0.2827522754669189
1631204288960,0.5607541799545288,-0.0298368763178586,-0.0818171799182891,0.2770053744316101
1631204289053,0.5706146359443665,-0.0318337902426719,-0.0929398313164711,0.2731531262397766
1631204289163,0.5813701152801514,-0.036919467151165,-0.0961789712309837,0.2827367782592773
1631204289210,0.5906364321708679,-0.0423001199960708,-0.0907760635018348,0.2900890409946441
1631204289381,0.6039596796035767,-0.0456872135400772,-0.0829190984368324,0.3045524656772613
1631204289459,0.624840259552002,-0.0457440875470638,-0.0803590938448906,0.3263293802738189
1631204289603,0.6538768410682678,-0.0424464382231235,-0.0863965153694152,0.3542472422122955
1631204289665,0.678985595703125,-0.0382007881999015,-0.0983144715428352,0.3866795003414154
1631204289728,0.6890428066253662,-0.0367803238332271,-0.1115819588303566,0.4139543771743774
1631204289853,0.6857398748397827,-0.0402007177472114,-0.1253953129053115,0.4221281111240387
1631204289993,0.6830213069915771,-0.0470048673450946,-0.1423956006765365,0.4177201390266418
1631204290071,0.6966730952262878,-0.0536693669855594,-0.165677011013031,0.4120580852031708
1631204290181,0.7315905690193176,-0.0579130351543426,-0.1938814222812652,0.4092617332935333
1631204290259,0.7772425413131714,-0.0609821304678916,-0.2204047739505767,0.4090966284275055
1631204290337,0.8181344270706177,-0.0650514364242553,-0.2383126616477966,0.3946769833564758
1631204290431,0.8451957106590271,-0.071567878127098,-0.2470607161521911,0.3728632628917694
1631204290592,0.8451570868492126,-0.0789724662899971,-0.2520858347415924,0.3521507680416107
1631204290670,0.8373138904571533,-0.0854654163122177,-0.2595141232013702,0.3332438170909881
1631204290795,0.8249740600585938,-0.0912686586380004,-0.270531564950943,0.3216310739517212
1631204290857,0.8183278441429138,-0.0975093841552734,-0.2843225300312042,0.3165833353996277
1631204290967,0.8058658838272095,-0.1052375882863998,-0.2993068397045135,0.3174957633018493
1631204291077,0.7901138663291931,-0.1141436919569969,-0.3112681210041046,0.3207549452781677
1631204291186,0.7764496803283691,-0.1220698505640029,-0.3112686276435852,0.322000503540039
1631204291326,0.7686694264411926,-0.1263143569231033,-0.2932349741458893,0.3142742216587066
1631204291389,0.7650269269943237,-0.1242902502417564,-0.2607338726520538,0.3047405183315277
1631204291467,0.7611570954322815,-0.116746537387371,-0.2222477495670318,0.2916106581687927
1631204291579,0.7621951699256897,-0.107289969921112,-0.1844450980424881,0.2778835594654083
1631204291657,0.7524170279502869,-0.1009303033351898,-0.1514351814985275,0.2594013512134552
1631204291798,0.7274690866470337,-0.100053921341896,-0.127478539943695,0.2443662285804748
1631204291891,0.6909644603729248,-0.1048598065972328,-0.1140431985259056,0.2412160336971283
1631204291986,0.6537094116210938,-0.1119298636913299,-0.1084709614515304,0.2499827444553375
1631204292079,0.6262038350105286,-0.1177242174744606,-0.1065890789031982,0.2638029754161834
1631204292173,0.6129332780838013,-0.1192898899316787,-0.1056073158979415,0.2779479026794433
1631204292298,0.6146684885025024,-0.1136102005839347,-0.1039271652698516,0.2898118197917938
1631204292407,0.6290321350097656,-0.099791906774044,-0.0971793010830879,0.2950774729251861
1631204292501,0.6464948058128357,-0.0814309120178222,-0.0823747366666793,0.2881171703338623
1631204292579,0.6554314494132996,-0.0655145645141601,-0.0623818524181842,0.2677990198135376
1631204292704,0.6554314494132996,-0.0554149746894836,-0.0458960607647895,0.2677990198135376
1631204292785,0.6554314494132996,-0.0487045682966709,-0.0397682450711727,0.2677990198135376
1631204292878,0.6554314494132996,-0.0420153811573982,-0.0444117002189159,0.2677990198135376
1631204293035,0.6554314494132996,-0.0356726497411727,-0.0555156506597995,0.2677990198135376
1631204293097,0.6554314494132996,-0.0309129431843757,-0.0671465396881103,0.2677990198135376
1631204293207,0.6554314494132996,-0.0240479372441768,-0.0727208703756332,0.2677990198135376
1631204293300,0.5551929473876953,-0.0110556622967123,-0.0674019232392311,0.4962286651134491
1631204293378,0.5605546832084656,0.0065075950697064,-0.053009495139122,0.5027526021003723
1631204293472,0.5814400911331177,0.0223753470927476,-0.0360180251300334,0.5044072270393372
1631204293617,0.6006638407707214,0.0317862555384635,-0.0230206325650215,0.5029445290565491
1631204293727,0.6067522764205933,0.033528059720993,-0.0174711178988218,0.4987081587314605
1631204293805,0.6000732779502869,0.0278870407491922,-0.0201517101377248,0.4929840564727783
1631204293930,0.5883362293243408,0.0156226940453052,-0.0319928936660289,0.4868021011352539
1631204294024,0.5795034170150757,0.0004922305815853,-0.0524528473615646,0.4799496233463287
1631204294118,0.5750035643577576,-0.0112042464315891,-0.0779840648174285,0.4727212190628052
1631204294258,0.5723952651023865,-0.0156357921659946,-0.1024223119020462,0.4660073220729828
1631204294336,0.5691860914230347,-0.0139276841655373,-0.120201863348484,0.460729718208313
1631204294414,0.5644708275794983,-0.0110076861456036,-0.1286193579435348,0.4580267071723938
1631204294508,0.5510659217834473,-0.0114564159885048,-0.1277743428945541,0.458387941122055
1631204294602,0.5461187362670898,-0.0170316006988286,-0.1205884218215942,0.4599559605121612
1631204294742,0.5468973517417908,-0.0282758194953203,-0.1136252954602241,0.4593682885169983
1631204294840,0.5486642718315125,-0.0424209833145141,-0.1139954924583435,0.4538806080818176
1631204294934,0.546144425868988,-0.0530625656247139,-0.1243877634406089,0.4447615444660187
1631204295043,0.5389631390571594,-0.0555355846881866,-0.1422167867422104,0.4359170198440552
1631204295136,0.5321183204650879,-0.0511219054460525,-0.1618264764547348,0.4286195933818817
1631204295215,0.5315877795219421,-0.0444759801030159,-0.177602082490921,0.4216484129428863
1631204295308,0.5395675301551819,-0.038423579186201,-0.1846233159303665,0.4134128391742706
1631204295464,0.5531166195869446,-0.0329697728157043,-0.1795787066221237,0.4036619365215301
1631204295558,0.5651789307594299,-0.028288435190916,-0.1643007695674896,0.3935306370258331
1631204295636,0.5705000162124634,-0.0248468723148107,-0.1454427689313888,0.3825514018535614
1631204295746,0.5687568187713623,-0.0241511147469282,-0.1297518014907837,0.3694965243339538
1631204295839,0.5632720589637756,-0.0282441601157188,-0.1186690479516983,0.3546291887760162
1631204295918,0.5679154992103577,-0.0374567434191703,-0.1088877618312835,0.3497028052806854
1631204296043,0.5742780566215515,-0.0465394482016563,-0.0954156816005706,0.3390338718891144
1631204296152,0.5812951922416687,-0.0478401593863964,-0.0759346485137939,0.3218235075473785
1631204296261,0.5884436964988708,-0.038700945675373,-0.0845252573490142,0.3013302683830261
1631204296339,0.5951576828956604,-0.0247660838067531,-0.094946451485157,0.2830768525600433
1631204296449,0.6003971099853516,-0.0152409961447119,-0.1006310358643531,0.2685835659503937
1631204296542,0.6022974252700806,-0.0144925154745578,-0.0970057994127273,0.2519718706607818
1631204296667,0.5990382432937622,-0.0190148390829563,-0.083440363407135,0.2287513464689254
1631204296808,0.5916346311569214,-0.0193399246782064,-0.0626669749617576,0.2022101134061813
1631204296855,0.5797075033187866,-0.007068249862641,-0.0407213419675827,0.1772754788398742
1631204296964,0.5572080016136169,0.0177892465144395,-0.0246796701103448,0.1546852588653564
1631204297058,0.5572080016136169,0.0479794219136238,-0.0173264034092426,0.1546852588653564
1631204297152,0.5572080016136169,0.0751925483345985,-0.0130087872967123,0.1546852588653564
1631204297277,0.5572080016136169,0.0937976092100143,0.0017389823915436,0.1546852588653564
1631204297370,0.5572080016136169,0.1031811535358429,0.0017389823915436,0.1546852588653564
1631204297448,0.5572080016136169,0.1056450977921485,0.0017389823915436,0.1546852588653564
1631204297558,0.5572080016136169,0.1043825149536132,0.0017389823915436,0.1546852588653564
1631204297683,0.5572080016136169,0.1009169518947601,0.0017389823915436,0.1546852588653564
1631204297795,0.5572080016136169,0.0983735397458076,0.0017389823915436,0.1546852588653564
1631204297888,0.5572080016136169,0.1033800244331359,0.0017389823915436,0.1546852588653564
1631204297982,0.5572080016136169,0.1211911216378212,0.0017389823915436,0.1546852588653564
1631204298091,0.5572080016136169,0.1466946899890899,0.0017389823915436,0.1546852588653564
1631204298216,0.5572080016136169,0.1680583506822586,0.0017389823915436,0.1546852588653564
1631204298279,0.5572080016136169,0.1767724454402923,0.0017389823915436,0.1546852588653564
1631204298388,0.5572080016136169,0.1720659881830215,0.0017389823915436,0.1546852588653564
1631204298513,0.5572080016136169,0.1593574583530426,0.0017389823915436,0.1546852588653564
1631204298607,0.5572080016136169,0.1447506695985794,0.0017389823915436,0.1546852588653564
1631204298685,0.5572080016136169,0.1323911696672439,0.0017389823915436,0.1546852588653564
1631204298780,0.5572080016136169,0.1231902837753295,0.0017389823915436,0.1546852588653564
1631204298867,0.5572080016136169,0.1165012866258621,0.0017389823915436,0.1546852588653564
1631204298976,0.5572080016136169,0.1131271496415138,0.0017389823915436,0.1546852588653564
1631204299102,0.5572080016136169,0.1154205128550529,0.0017389823915436,0.1546852588653564
1631204299227,0.5572080016136169,0.1227484345436096,0.0017389823915436,0.1546852588653564
1631204299304,0.5572080016136169,0.1290158033370971,0.0017389823915436,0.1546852588653564
1631204299398,0.5572080016136169,0.1251864582300186,0.1217796057462692,0.1546852588653564
1631204299476,0.5572080016136169,0.1083922535181045,0.1976004540920257,0.1546852588653564
1631204299570,0.5572080016136169,0.0886838361620903,0.251773476600647,0.1546852588653564
1631204299726,0.8033614754676819,0.0830962508916854,0.2786949872970581,0.4618028998374939
1631204299807,0.8033614754676819,0.0965075865387916,0.2820797860622406,0.4637715220451355
1631204299901,0.8033614754676819,0.1171534284949302,0.2703287303447723,0.4637715220451355
1631204299995,0.8033614754676819,0.1329320073127746,0.253297746181488,0.4637715220451355
1631204300104,0.8033614754676819,0.1436114311218261,0.2815076410770416,0.4637715220451355
1631204300198,0.8033614754676819,0.1540291458368301,0.2815076410770416,0.4637715220451355
1631204300323,0.8033614754676819,0.1665233522653579,0.2815076410770416,0.4637715220451355
1631204300417,0.8033614754676819,0.1782646775245666,0.2815076410770416,0.4637715220451355
1631204300510,0.8033614754676819,0.1861180067062378,0.2815076410770416,0.4637715220451355
1631204300604,0.8033614754676819,0.1878127157688141,0.2815076410770416,0.4637715220451355
1631204300713,0.8033614754676819,0.1829735189676284,0.3024786412715912,0.4637715220451355
1631204300810,0.8033614754676819,0.1719445288181305,0.319735050201416,0.4637715220451355
1631204300935,0.8033614754676819,0.1569267213344574,0.3230340480804443,0.4689158499240875
1631204301044,0.8033614754676819,0.1405794322490692,0.2723163664340973,0.4689158499240875
1631204301138,0.8033614754676819,0.1228920817375183,0.1957255452871322,0.4689158499240875
1631204301232,0.8033614754676819,0.1003403738141059,0.1088904365897178,0.4689158499240875
1631204301310,0.8033614754676819,0.071638636291027,0.0347742848098278,0.4689158499240875
1631204301403,0.6345347762107849,0.0408537983894348,-0.0108894826844334,0.4689158499240875
1631204301544,0.6345347762107849,0.0135963475331664,-0.0345565304160118,0.4689158499240875
1631204301625,0.6345347762107849,-0.0112913725897669,-0.0396987758576869,0.4689158499240875
1631204301719,0.6345347762107849,-0.038293570280075,-0.0455439239740371,0.4689158499240875
1631204301828,0.6345347762107849,-0.0659879446029663,-0.053719088435173,0.4689158499240875
1631204301922,0.6345347762107849,-0.0862161368131637,-0.0638812333345413,0.4689158499240875
1631204302016,0.6345347762107849,-0.0950580611824989,-0.0737480893731117,0.4689158499240875
1631204302156,0.6345347762107849,-0.0968778654932975,-0.0798812583088874,0.4689158499240875
1631204302266,0.6345347762107849,-0.0967341810464859,-0.0791714191436767,0.4689158499240875
1631204302344,0.6345347762107849,-0.0914240032434463,-0.0692205727100372,0.4689158499240875
1631204302438,0.6345347762107849,-0.0770245939493179,-0.0514324121177196,0.4689158499240875
1631204302547,0.6345347762107849,-0.0565947033464908,-0.0398171320557594,0.4689158499240875
1631204302628,0.6345347762107849,-0.0384158976376056,-0.0244827717542648,0.4689158499240875
1631204302769,0.6345347762107849,-0.0272736214101314,-0.0120964786037802,0.4689158499240875
1631204302862,0.6345347762107849,-0.0229145307093858,-0.00551402522251,0.4689158499240875
1631204302972,0.6345347762107849,-0.0225545261055231,-0.0049039660952985,0.4689158499240875
1631204303034,0.6345347762107849,-0.0247962027788162,-0.0091984756290912,0.4689158499240875
1631204303144,0.6329585313796997,-0.0294164549559354,-0.0159603115171194,0.4909908771514892
1631204303222,0.6091272234916687,-0.0358919352293014,-0.0225462056696414,0.5160205364227295
1631204303362,0.5992880463600159,-0.0426935367286205,-0.0275282189249992,0.5285799503326416
1631204303456,0.5992880463600159,-0.0468413271009922,-0.0296562258154153,0.5298324227333069
1631204303550,0.5992880463600159,-0.0454869046807289,-0.0271846037358045,0.5298324227333069
1631204303677,0.5992880463600159,-0.0367494337260723,-0.0214605014771223,0.5298324227333069
1631204303755,0.5992880463600159,-0.0207530874758958,-0.01814541593194,0.5298324227333069
1631204303849,0.5992880463600159,-0.0030456997919827,-0.0232144463807344,0.5298324227333069
1631204303990,0.5992880463600159,0.0092043997719883,-0.0403248257935047,0.5298324227333069
1631204304099,0.5992880463600159,0.0114935468882322,-0.0691884160041809,0.5298324227333069
1631204304178,0.5992880463600159,0.0058027161285281,-0.1039325296878814,0.5298324227333069
1631204304271,0.5992880463600159,-0.0020891514141112,-0.1358131915330886,0.5298324227333069
1631204304365,0.5767650008201599,-0.0075751324184238,-0.1587007492780685,0.5450549125671387
1631204304458,0.5526480674743652,-0.0113111082464456,-0.1707372814416885,0.562938928604126
1631204304599,0.5526480674743652,-0.016333857551217,-0.1724185794591903,0.575754702091217
1631204304677,0.5526480674743652,-0.0223438572138547,-0.165779173374176,0.575754702091217
1631204304786,0.5526480674743652,-0.0268197506666183,-0.1308373063802719,0.575754702091217
1631204304880,0.5526480674743652,-0.0275791995227336,-0.1073763668537139,0.575754702091217
1631204304974,0.5526480674743652,-0.0253222342580556,-0.0929922983050346,0.575754702091217
1631204305068,0.5526480674743652,-0.0218319799751043,-0.0956201702356338,0.575754702091217
1631204305208,0.8954550623893738,-0.0214910376816988,-0.1163484305143356,0.575754702091217
1631204305318,0.8817397952079773,-0.0294404532760381,-0.1209347322583198,0.4357452094554901
1631204305380,0.862758219242096,-0.047209084033966,-0.1240041032433509,0.4419354200363159
1631204305489,0.8428586721420288,-0.0694170966744422,-0.1250558644533157,0.4493466019630432
1631204305599,0.8254082202911377,-0.0863645672798156,-0.1205394268035888,0.459491103887558
1631204305666,0.8115233778953552,-0.0916943177580833,-0.1072589680552482,0.4703617095947265
1631204305823,0.8010427951812744,-0.0872557684779167,-0.0878630504012107,0.4764460623264313
1631204305901,0.7929413318634033,-0.0777637585997581,-0.0702490210533142,0.4741325974464416
1631204306010,0.7855632305145264,-0.0666994079947471,-0.0612551271915435,0.4652612209320068
1631204306135,0.7765492796897888,-0.0557680763304233,-0.0625500082969665,0.4554098844528198
1631204306182,0.7661717534065247,-0.0475360676646232,-0.0710104629397392,0.4502585530281067
1631204306307,0.7556331753730774,-0.0424497537314891,-0.0832200497388839,0.4508083760738373
1631204306447,0.7322676777839661,-0.0393146239221096,-0.0915141105651855,0.4534863233566284
1631204306495,0.7059747576713562,-0.038774274289608,-0.0952320545911789,0.455678790807724
1631204306638,0.6759599447250366,-0.0444552488625049,-0.0955884829163551,0.4616010189056396
1631204306732,0.6449849009513855,-0.0573737397789955,-0.0966778695583343,0.471809834241867
1631204306810,0.6196167469024658,-0.073640801012516,-0.101319670677185,0.485047847032547
1631204306903,0.6049727201461792,-0.0874282419681549,-0.1086392551660537,0.496751606464386
1631204307044,0.6028702855110168,-0.0958229601383209,-0.1169027537107467,0.5014165043830872
1631204307138,0.6116435527801514,-0.0998194366693496,-0.1266587823629379,0.4959970712661743
1631204307216,0.6250565648078918,-0.1022552922368049,-0.1419568657875061,0.4837222695350647
1631204307326,0.6343308687210083,-0.1055562868714332,-0.1635275930166244,0.4728555679321289
1631204307435,0.634319543838501,-0.1122431978583335,-0.1833779066801071,0.4693930447101593
1631204307513,0.6274856328964233,-0.1221668273210525,-0.1902095526456833,0.4731652438640594
1631204307653,0.6209557056427002,-0.133593812584877,-0.1813600659370422,0.4799049794673919
1631204307731,0.6175034046173096,-0.1451815664768219,-0.1662032008171081,0.4843043684959411
1631204307825,0.6188151836395264,-0.1586100161075592,-0.1563440114259719,0.4830900728702545
1631204307919,0.626961350440979,-0.1776746958494186,-0.156999796628952,0.4770947992801666
1631204307997,0.6428954005241394,-0.2025657147169113,-0.1684591323137283,0.4697949588298797
1631204308091,0.6615915894508362,-0.2271588891744613,-0.1880872100591659,0.4637900590896606
1631204308278,0.6767391562461853,-0.2427005618810653,-0.2098092585802078,0.4598315060138702
1631204308356,0.6857590675354004,-0.2444449514150619,-0.2261734157800674,0.4580003619194031
1631204308435,0.6912928819656372,-0.2339759767055511,-0.2338968366384506,0.4598532319068908
1631204308512,0.6928672194480896,-0.2184763699769973,-0.2359649538993835,0.4656111896038055
1631204308622,0.6877393126487732,-0.2067289352416992,-0.237658679485321,0.4723049700260162
1631204308735,0.6774485111236572,-0.2046855092048645,-0.236208900809288,0.4763740599155426
1631204308845,0.670083224773407,-0.2129480987787246,-0.2259120941162109,0.4773809313774109
1631204308970,0.6728575825691223,-0.2260013818740844,-0.2093883752822876,0.4782521724700928
1631204309048,0.6826693415641785,-0.2357427328824997,-0.196003571152687,0.4810194671154022
1631204309141,0.6917182207107544,-0.2362214177846908,-0.1900419741868972,0.486344575881958
1631204309235,0.6959902048110962,-0.2275670021772384,-0.1871768534183502,0.4945748746395111
1631204309329,0.6961647868156433,-0.2154332250356674,-0.1800286620855331,0.5068410634994507
1631204309454,0.6933589577674866,-0.2036798894405365,-0.1653224527835846,0.5216534733772278
1631204309548,0.6871232390403748,-0.1913967877626419,-0.1440027952194214,0.5353911519050598
1631204309658,0.6786531805992126,-0.1754608750343322,-0.1197982206940651,0.5461515188217163
1631204309757,0.6710138916969299,-0.1562703251838684,-0.099162183701992,0.5541509985923767
1631204309835,0.6670162677764893,-0.1377355903387069,-0.0877459794282913,0.559263288974762
1631204309929,0.6656149625778198,-0.1243882402777671,-0.08570047467947,0.5598065257072449
1631204310085,0.6657027006149292,-0.1180830597877502,-0.088638998568058,0.5558810830116272
1631204310163,0.6682167053222656,-0.1168641448020935,-0.0925656035542488,0.5512930154800415
1631204310272,0.6716333627700806,-0.1159795969724655,-0.0998954698443412,0.5499197244644165
1631204310382,0.6719810962677002,-0.1121667698025703,-0.1170962676405906,0.551693856716156
1631204310491,0.6666375994682312,-0.1064993292093277,-0.1459633708000183,0.5535461902618408
1631204310570,0.6622995138168335,-0.1032401472330093,-0.1793154627084732,0.5532903671264648
1631204310681,0.6687862277030945,-0.1051806211471557,-0.2081008106470108,0.5500213503837585
1631204310821,0.6881082653999329,-0.1102629527449607,-0.2296990305185318,0.5431792140007019
1631204310899,0.7117891311645508,-0.1136692240834236,-0.2492403388023376,0.5325650572776794
1631204310977,0.7322882413864136,-0.1139890477061271,-0.2707935869693756,0.5194060206413269
1631204311071,0.7492583394050598,-0.1144764870405197,-0.2934592366218567,0.5057792067527771
1631204311149,0.7654154896736145,-0.1200719252228736,-0.3134957551956177,0.4927774667739868
1631204311290,0.7797120213508606,-0.132919356226921,-0.3277321457862854,0.4789311587810516
1631204311384,0.7894338369369507,-0.1514993757009506,-0.3364691734313965,0.4622304737567901
1631204311462,0.7950895428657532,-0.1717763692140579,-0.3430284559726715,0.4449591636657715
1631204311587,0.7983834743499756,-0.1882915645837783,-0.3492639362812042,0.4330659210681915
1631204311667,0.7999162673950195,-0.1973647028207779,-0.3524194657802582,0.4312876462936401
1631204311761,0.8014711141586304,-0.1989579796791076,-0.3487499952316284,0.4398598670959472
1631204311886,0.8052827715873718,-0.1941673755645752,-0.3378450274467468,0.4561949372291565
1631204312042,0.8109634518623352,-0.1831130236387252,-0.3235308825969696,0.4771024286746979
1631204312089,0.8128204941749573,-0.1673391014337539,-0.3106207251548767,0.5003005862236023
1631204312183,0.8072712421417236,-0.1518376916646957,-0.3006224632263183,0.5221489071846008
1631204312277,0.7962669134140015,-0.1411858201026916,-0.2923212945461273,0.5390769839286804
1631204312386,0.7837945222854614,-0.1348020136356353,-0.2850353121757507,0.5488162636756897
1631204312527,0.7702728509902954,-0.1284762322902679,-0.2811423242092132,0.5535179972648621
