timestamp,TP9,AF7,AF8,TP10
1629724800056,0.6375188231468201,0.2703897953033447,-0.2183772176504135,0.143599584698677
1629724800146,0.6375188231468201,0.2713292837142944,-0.2155469059944152,0.143599584698677
1629724800263,0.6375188231468201,0.2840357422828674,-0.2155476361513137,0.143599584698677
1629724800331,0.6375188231468201,0.2958424389362335,-0.2188198417425155,0.143599584698677
1629724800439,0.6375188231468201,0.3034027814865112,-0.2188198417425155,0.143599584698677
1629724800589,0.6375188231468201,0.300989031791687,-0.2146817743778228,0.143599584698677
1629724800653,0.6375188231468201,0.2950834035873413,-0.2095107138156891,0.143599584698677
1629724800773,0.6375188231468201,0.2950834035873413,-0.203950747847557,0.143599584698677
1629724800805,0.6375188231468201,0.2950834035873413,-0.2024535983800888,0.143599584698677
1629724800950,0.6375188231468201,0.2950834035873413,-0.208803191781044,0.143599584698677
1629724801063,0.6375188231468201,0.2950834035873413,-0.22135891020298,0.143599584698677
1629724801228,0.6375188231468201,0.2950834035873413,-0.2364940643310547,0.143599584698677
1629724801259,0.6375188231468201,0.2950834035873413,-0.2468695342540741,0.143599584698677
1629724801340,0.6375188231468201,0.2950834035873413,-0.2495559304952621,0.143599584698677
1629724801475,0.6375188231468201,0.2950834035873413,-0.2515476047992706,0.143599584698677
1629724801572,0.6375188231468201,0.2950834035873413,-0.2515476047992706,0.143599584698677
1629724801636,0.6375188231468201,0.2950834035873413,-0.2515476047992706,0.143599584698677
1629724801748,0.6375188231468201,0.2950834035873413,-0.2515476047992706,0.143599584698677
1629724801888,0.6375188231468201,0.2950834035873413,-0.2515476047992706,0.143599584698677
1629724801953,0.6375188231468201,0.2950834035873413,-0.2515476047992706,0.143599584698677
1629724802089,0.6375188231468201,0.2950834035873413,-0.2515476047992706,0.143599584698677
1629724802135,0.6375188231468201,0.2950834035873413,-0.2515476047992706,0.143599584698677
1629724802237,0.6375188231468201,0.2950834035873413,-0.2515476047992706,0.143599584698677
1629724802403,0.6375188231468201,0.2950834035873413,-0.2515476047992706,0.143599584698677
1629724802502,0.6375188231468201,0.2950834035873413,-0.2515476047992706,0.143599584698677
1629724802566,0.6375188231468201,0.2950834035873413,-0.2515476047992706,0.143599584698677
1629724802667,0.6375188231468201,0.2950834035873413,-0.2515476047992706,0.143599584698677
1629724802780,0.6375188231468201,0.2950834035873413,-0.2515476047992706,0.143599584698677
1629724802861,0.6375188231468201,0.2950834035873413,-0.2515476047992706,0.143599584698677
1629724802988,0.6375188231468201,0.2950834035873413,-0.2515476047992706,0.143599584698677
1629724803112,0.6375188231468201,0.2950834035873413,-0.2515476047992706,0.143599584698677
1629724803178,0.6375188231468201,0.2950834035873413,-0.2515476047992706,0.143599584698677
1629724803272,0.6375188231468201,0.2950834035873413,-0.2515476047992706,0.143599584698677
1629724803372,0.6375188231468201,0.2950834035873413,-0.2515476047992706,0.143599584698677
1629724803437,0.6375188231468201,0.2950834035873413,0.6932602524757385,0.143599584698677
1629724803604,0.6375188231468201,0.2950834035873413,0.7047244906425476,0.143599584698677
1629724803715,0.6375188231468201,0.2950834035873413,0.6711515188217163,0.143599584698677
1629724803794,0.6375188231468201,0.2950834035873413,0.6196779012680054,0.143599584698677
1629724804101,0.6375188231468201,0.2950834035873413,0.483713299036026,0.143599584698677
1629724804200,0.6375188231468201,0.2950834035873413,0.4483790695667267,0.143599584698677
1629724804318,0.6375188231468201,0.2950834035873413,0.4163019955158233,0.143599584698677
1629724804415,0.6375188231468201,0.2950834035873413,0.3870991468429565,0.143599584698677
1629724804528,0.6375188231468201,0.2950834035873413,0.3601848781108856,0.143599584698677
1629724804601,0.6375188231468201,0.2950834035873413,0.3352110981941223,0.143599584698677
1629724804722,0.6375188231468201,0.2950834035873413,0.3143634796142578,0.143599584698677
1629724804819,0.6375188231468201,0.2950834035873413,0.2570656836032867,0.143599584698677
1629724804939,0.6375188231468201,0.2950834035873413,0.1404033303260803,0.5032602548599243
1629724804988,0.6375188231468201,0.2950834035873413,-0.0373160764575004,0.4739360213279724
1629724805112,0.6375188231468201,0.2950834035873413,-0.2500897347927093,0.4348047077655792
1629724805196,0.6375188231468201,0.3289291560649872,-0.3971539735794067,0.3919361531734466
1629724805324,0.6375188231468201,0.3063007593154907,-0.4339787364006042,0.3513422906398773
1629724805490,0.6375188231468201,0.2857280075550079,-0.4246466159820556,0.315279483795166
1629724805567,0.12591652572155,0.2685373723506927,-0.4074416160583496,0.2842704653739929
1629724805630,0.12591652572155,0.2559905648231506,-0.3986728191375732,0.2842704653739929
1629724805723,0.12591652572155,0.2459881752729416,-0.390691339969635,0.2842704653739929
1629724805838,0.12591652572155,0.2254420816898346,-0.3693607151508331,0.2842704653739929
1629724805917,0.12591652572155,0.1964519768953323,-0.3302479684352875,0.2842704653739929
1629724806085,0.12591652572155,0.1722209006547927,-0.2815569639205932,0.2842704653739929
1629724806127,0.12591652572155,0.1722209006547927,-0.2359690964221954,0.2510671019554138
1629724806274,0.12591652572155,0.1722209006547927,-0.1949424594640731,0.1983238905668258
1629724806335,0.12591652572155,0.1722209006547927,-0.1494725793600082,0.1248811706900596
1629724806414,0.12591652572155,0.2119125127792358,-0.091351106762886,0.0346600711345672
1629724806505,0.12591652572155,0.2356286942958831,-0.0266732200980186,-0.0602302253246307
1629724806680,0.12591652572155,0.2538788616657257,0.0294228494167327,-0.1375652253627777
1629724806775,0.12591652572155,0.2747368812561035,0.0659997910261154,-0.1375652253627777
1629724806840,0.12591652572155,0.30325448513031,0.0815662965178489,-0.1375652253627777
1629724806931,0.12591652572155,0.3327361643314361,0.0826387628912925,-0.1375652253627777
1629724807027,0.12591652572155,0.3559075593948364,0.0782624036073684,-0.1375652253627777
1629724807140,0.12591652572155,0.3685061633586883,0.0736125782132148,-0.1375652253627777
1629724807233,0.12591652572155,0.3726226687431335,0.068068690598011,-0.1375652253627777
1629724807350,0.12591652572155,0.3744739890098572,0.0569741129875183,-0.1375652253627777
1629724807456,0.12591652572155,0.3775558769702911,0.0365689620375633,-0.1375652253627777
1629724807534,0.12591652572155,0.3768603801727295,0.008007506839931,-0.1375652253627777
1629724807637,0.12591652572155,0.3630857467651367,-0.0235962904989719,-0.1375652253627777
1629724807738,0.12591652572155,0.3483245968818664,-0.0553490370512008,-0.1375652253627777
1629724807920,0.12591652572155,0.3329076468944549,-0.0930496156215667,-0.1375652253627777
1629724807952,0.12591652572155,0.3058764934539795,-0.1494486778974533,-0.1375652253627777
1629724808069,0.12591652572155,0.2804672122001648,-0.2324603646993637,-0.1375652253627777
1629724808147,0.12591652572155,0.2540741860866546,-0.3334690630435943,-0.1375652253627777
1629724808242,0.12591652572155,0.2227798551321029,-0.4247214496135711,-0.1375652253627777
1629724808328,0.0940860658884048,0.1856090575456619,-0.4781786501407623,-0.1692485064268112
1629724808498,0.082685187458992,0.145537793636322,-0.4965831339359283,-0.148643672466278
1629724808561,0.0828681215643882,0.1110458597540855,-0.5041570663452148,-0.1257031261920929
1629724808641,0.095296524465084,0.0917103514075279,-0.5146448016166687,-0.1073094084858894
1629724808737,0.116535760462284,0.0891683846712112,-0.5255253314971924,-0.0953395739197731
1629724808871,0.1438484787940979,0.0942626670002937,-0.5287814736366272,-0.0867532342672348
1629724808971,0.1673162877559662,0.0981801822781562,-0.5178055763244629,-0.0780590325593948
1629724809088,0.1825165301561355,0.0997260138392448,-0.4946129918098449,-0.0698111057281494
1629724809221,0.1901912838220596,0.1022333353757858,-0.4681653082370758,-0.0649330392479896
1629724809266,0.191401407122612,0.1088109463453292,-0.4445017576217651,-0.0635135024785995
1629724809371,0.1891401261091232,0.119906947016716,-0.4246387183666229,-0.0608601793646812
1629724809481,0.1843966096639633,0.1344489604234695,-0.408050000667572,-0.0523388013243675
1629724809590,0.1824650466442108,0.1510236710309982,-0.3979986310005188,-0.0327786765992641
1629724809749,0.1824113577604293,0.1674058139324188,-0.4004717767238617,-0.0100964400917291
1629724809780,0.1878934353590011,0.1811127066612243,-0.4150494635105133,0.0081713199615478
1629724809884,0.1978235393762588,0.1909260004758834,-0.4326349794864654,0.0207957606762647
1629724809978,0.2097136378288269,0.1968371421098709,-0.4419915676116943,0.0304835680872201
1629724810070,0.2192774713039398,0.1992510855197906,-0.4389366209506988,0.040700577199459
1629724810190,0.2247242033481598,0.1986410766839981,-0.4266131222248077,0.0522331148386001
1629724810302,0.2242118716239929,0.1955859065055847,-0.4103068709373474,0.0616848990321159
1629724810415,0.2144015282392501,0.1907131373882293,-0.3952946364879608,0.0647849142551422
1629724810491,0.2000332325696945,0.1849579066038131,-0.3884734809398651,0.060964148491621
1629724810588,0.1840865015983581,0.1790322363376617,-0.393703430891037,0.0551080256700515
1629724810726,0.1668446063995361,0.1719909012317657,-0.4080930948257446,0.0550977848470211
1629724810778,0.1514509469270706,0.16141277551651,-0.4268537759780884,0.0652882754802703
1629724810938,0.1395622789859771,0.1468297243118286,-0.4467962384223938,0.0828224569559097
1629724811014,0.1360284090042114,0.1312780380249023,-0.4664869308471679,0.100158505141735
1629724811107,0.139897882938385,0.1183121278882026,-0.4819526374340057,0.1110671535134315
1629724811227,0.1449942588806152,0.1087515130639076,-0.4880163371562958,0.1149437576532363
1629724811307,0.1493230015039444,0.1025599613785743,-0.4845758378505707,0.11386489123106
1629724811384,0.1515213996171951,0.1010750383138656,-0.4753471314907074,0.1106519252061843
1629724811539,0.1489821672439575,0.1046019196510315,-0.4622970223426819,0.1067818775773048
1629724811645,0.1402225643396377,0.1098014786839485,-0.4460404515266418,0.103567361831665
1629724811771,0.1281985193490982,0.1124748736619949,-0.4303715527057647,0.1020021066069603
1629724811836,0.123417280614376,0.1127027496695518,-0.4213397204875946,0.1035924032330513
1629724811914,0.1327160596847534,0.1145497635006904,-0.4213739335536957,0.10884490609169
1629724811992,0.1494557857513427,0.1207156032323837,-0.4269795715808868,0.1154537573456764
1629724812120,0.1682480424642563,0.1295853853225708,-0.4325453341007232,0.1194958239793777
1629724812239,0.1887999475002288,0.139493852853775,-0.435643583536148,0.1166385784745216
1629724812352,0.2068205028772354,0.1508824676275253,-0.4363830089569092,0.1038148999214172
1629724812430,0.2189011573791504,0.1627951711416244,-0.4352515041828155,0.0816722214221954
1629724812521,0.2188003361225128,0.1721182614564895,-0.4327193796634674,0.0565337836742401
1629724812606,0.2083835452795028,0.1763066202402115,-0.4296925067901611,0.0386651754379272
1629724812749,0.1935546845197677,0.1765250861644745,-0.4275068938732147,0.0338679775595665
1629724812811,0.1772008687257766,0.1740628331899643,-0.4280382692813873,0.0387122295796871
1629724812953,0.1659217178821563,0.1685861945152282,-0.4346347153186798,0.0450462587177753
1629724813030,0.1612088084220886,0.1615282148122787,-0.4504806101322174,0.0464007556438446
1629724813109,0.1626967936754226,0.1565783321857452,-0.4758966565132141,0.0392984375357627
1629724813189,0.1660931408405304,0.1551647782325744,-0.5062790513038635,0.023278459906578
1629724813338,0.1624094396829605,0.1539443433284759,-0.5355889201164246,0.0010724986204877
1629724813497,0.149359256029129,0.1482880711555481,-0.5609833002090454,-0.0221660323441028
1629724813561,0.1313254684209823,0.1370721459388733,-0.5814182162284851,-0.0410957001149654
1629724813640,0.1149936318397522,0.1229272559285163,-0.5949984192848206,-0.0522877238690853
1629724813753,0.104331761598587,0.1080807596445083,-0.5980595946311951,-0.0542901903390884
1629724813894,0.1009061709046363,0.093504324555397,-0.5914677977561951,-0.0475511774420738
1629724813957,0.1030153408646583,0.0818542540073394,-0.5809881091117859,-0.0367949157953262
1629724814082,0.1123995035886764,0.0760101675987243,-0.5741140246391296,-0.0295201558619737
1629724814142,0.126417189836502,0.0765248537063598,-0.5738070607185364,-0.0332494750618934
1629724814290,0.1368532478809356,0.0794447362422943,-0.5765711665153503,-0.0505079254508018
1629724814335,0.1436558365821838,0.0810120329260826,-0.5777398347854614,-0.0752530395984649
1629724814418,0.1482453644275665,0.0804957523941993,-0.5756515860557556,-0.0960217341780662
1629724814586,0.1575431823730468,0.0795514434576034,-0.5730059146881104,-0.1024701073765754
1629724814668,0.1708142310380935,0.080157846212387,-0.5708779692649841,-0.0943394899368286
1629724814755,0.1809010356664657,0.0841225907206535,-0.5686375498771667,-0.0782795473933219
1629724814870,0.1845945566892624,0.0924434661865234,-0.5653743743896484,-0.0610772483050823
1629724814935,0.1808038353919983,0.1046558395028114,-0.5625247955322266,-0.0471893474459648
1629724815058,0.1711532771587371,0.1189497709274292,-0.5610554218292236,-0.0376326330006122
1629724815223,0.1567958295345306,0.1255906522274017,-0.5588757395744324,-0.0317977964878082
1629724815274,0.1366925686597824,0.1349441409111023,-0.5551288723945618,-0.0294806212186813
1629724815352,0.1128890216350555,0.1472035199403762,-0.5532225370407104,-0.030961712822318
1629724815446,0.0898445844650268,0.1652179211378097,-0.5573394298553467,-0.0353085808455944
1629724815580,0.0699386596679687,0.1753965020179748,-0.5641893148422241,-0.0403607711195945
1629724815654,0.053307369351387,0.1757813841104507,-0.5636797547340393,-0.0426648370921611
1629724815782,0.0425020866096019,0.1687933504581451,-0.5506722927093506,-0.0404544509947299
1629724815887,0.0333133749663829,0.1595398485660553,-0.5316774845123291,-0.0372077338397502
1629724816021,0.0200940184295177,0.1532070189714431,-0.5180503129959106,-0.039335511624813
1629724816048,-0.0067938356660306,0.1502363830804824,-0.514872133731842,-0.0524079799652099
1629724816140,-0.0446723885834217,0.1461031883955001,-0.5196599364280701,-0.0754057541489601
1629724816260,-0.079154185950756,0.1349150836467743,-0.5284995436668396,-0.1024321615695953
1629724816430,-0.0996120423078537,0.1137504205107688,-0.538126528263092,-0.1256372332572937
1629724816501,-0.1029850989580154,0.0845758467912674,-0.5436844229698181,-0.1379494369029998
1629724816571,-0.0951100811362266,0.0510285161435604,-0.54329514503479,-0.1390835791826248
1629724816713,-0.085669495165348,0.0369392819702625,-0.540873646736145,-0.1356305927038192
1629724816760,-0.0785987228155136,0.0254881456494331,-0.5417920351028442,-0.1340529769659042
1629724816854,-0.074950523674488,0.0181165467947721,-0.5470460653305054,-0.1349114328622818
1629724817036,-0.0757224410772323,-0.0012085522757843,-0.5527582168579102,-0.1358801126480102
1629724817104,-0.0806939601898193,-0.0114970859140157,-0.5580803155899048,-0.1379926204681396
1629724817187,-0.0903768092393875,-0.0125449337065219,-0.5689846277236938,-0.1447388231754303
1629724817315,-0.1064455062150955,-0.0073780138045549,-0.5927672982215881,-0.1568101942539215
1629724817438,-0.1277342587709427,0.0006854289676994,-0.6296243071556091,-0.1691100299358368
1629724817484,-0.1513080447912216,0.0080655505880713,-0.6703295111656189,-0.1768207103013992
1629724817646,-0.1693300157785415,0.012210626155138,-0.7022700309753418,-0.1790096163749694
1629724817710,-0.1805218458175659,0.0134798111394047,-0.7223734855651855,-0.1785253882408142
1629724817825,-0.1900386214256286,0.0150854820385575,-0.7340570092201233,-0.1784064322710037
1629724817901,-0.2020406872034073,0.0204128436744213,-0.73915034532547,-0.1808110177516937
1629724817990,-0.21458600461483,0.030300598591566,-0.7363099455833435,-0.1876906603574752
1629724818154,-0.2189816981554031,0.0436795651912689,-0.7235485315322876,-0.198589026927948
1629724818216,-0.2095826864242553,0.0584424473345279,-0.703624963760376,-0.2110633105039596
1629724818338,-0.193840280175209,0.0719214454293251,-0.6823317408561707,-0.2226939350366592
1629724818432,-0.1801381558179855,0.0812209546566009,-0.6654555797576904,-0.2355762273073196
1629724818508,-0.1705286502838134,0.0835956484079361,-0.6567647457122803,-0.2541753053665161
1629724818605,-0.1632849723100662,0.0775192081928253,-0.656316876411438,-0.2788985073566437
1629724818720,-0.1496709585189819,0.0651628524065017,-0.661117672920227,-0.3031297326087951
1629724818846,-0.1287784576416015,0.0534541793167591,-0.6649982929229736,-0.3186553418636322
1629724818970,-0.1053955778479576,0.0499177947640419,-0.6598038077354431,-0.3233098983764648
1629724819050,-0.0866015776991844,0.0556000135838985,-0.6387300491333008,-0.3217866718769073
1629724819110,-0.0774918794631958,0.0653811767697334,-0.5997153520584106,-0.32081139087677
1629724819205,-0.0733604729175567,0.0734380632638931,-0.5480740070343018,-0.3189580738544464
1629724819313,-0.0685556605458259,0.0774729028344154,-0.4953755438327789,-0.3084782361984253
1629724819455,-0.0610742159187793,0.0775633305311203,-0.4521116912364959,-0.2842490673065185
1629724819552,-0.0557668656110763,0.0739194974303245,-0.4240317046642303,-0.2513478994369507
1629724819647,-0.0599979981780052,0.0671977922320365,-0.411720871925354,-0.2202315628528595
1629724819718,-0.0705529525876045,0.0598635822534561,-0.4112394452095032,-0.196389228105545
1629724819814,-0.0730504542589187,0.0571075826883316,-0.4170800149440765,-0.1799153834581375
1629724819937,-0.0580595694482326,0.0630154386162757,-0.4229749143123626,-0.1695341616868972
1629724820122,-0.0300568640232086,0.0766931399703025,-0.424028217792511,-0.1645626127719879
1629724820168,-0.0021191854029893,0.0937156751751899,-0.4191588461399078,-0.1622969955205917
1629724820234,0.0130741093307733,0.110196053981781,-0.4087018668651581,-0.1604948341846466
1629724820345,0.0195786412805318,0.1231881454586982,-0.3927220702171325,-0.1553187817335128
1629724820458,0.0277852304279804,0.1297762840986251,-0.3726338744163513,-0.1454705446958542
1629724820555,0.0511377900838851,0.1295953840017318,-0.3535100519657135,-0.1296225041151046
1629724820685,0.0906670093536377,0.126020535826683,-0.3425137400627136,-0.1097991019487381
1629724820748,0.1344268918037414,0.1249764859676361,-0.3446453213691711,-0.0928370431065559
1629724820889,0.1716891527175903,0.13107530772686,-0.3586924374103546,-0.0859167054295539
1629724820965,0.1977369934320449,0.1454449445009231,-0.3790992498397827,-0.0927013754844665
1629724821072,0.2149535715579986,0.1656861156225204,-0.3992907404899597,-0.1100103333592414
1629724821119,0.2293243110179901,0.186748668551445,-0.4139718413352966,-0.1305411159992218
1629724821277,0.2412688732147216,0.2044829279184341,-0.4195676445960998,-0.1465526819229126
1629724821393,0.2480905950069427,0.2166624814271927,-0.4136044085025787,-0.1529099494218826
1629724821473,0.2506799697875976,0.2227682024240493,-0.3979490995407104,-0.1491255909204483
1629724821551,0.2516940534114837,0.2240389734506607,-0.3801175057888031,-0.1395744383335113
1629724821631,0.2553834915161133,0.2227214723825454,-0.3675443530082702,-0.1314460337162017
1629724821756,0.2627588510513305,0.2206766456365585,-0.3640126585960388,-0.1283535957336425
1629724821854,0.266871839761734,0.2190549820661544,-0.3693332374095917,-0.1332525312900543
1629724821955,0.2642110586166382,0.2184826582670211,-0.3826451599597931,-0.1467413753271103
1629724822080,0.2500494122505188,0.2188450396060943,-0.4024309515953064,-0.1704548746347427
1629724822170,0.2254105657339096,0.2192446589469909,-0.4240759611129761,-0.2013191133737564
1629724822321,0.1955299079418182,0.2178486883640289,-0.4392217695713043,-0.2304892390966415
1629724822371,0.164774551987648,0.2133731693029403,-0.438213050365448,-0.247951865196228
1629724822553,0.1391455382108688,0.2053677290678024,-0.4188365042209625,-0.2500892281532287
1629724822600,0.1188924089074134,0.1944336146116256,-0.388458251953125,-0.2412337809801101
1629724822681,0.100674420595169,0.1835606694221496,-0.3584862351417541,-0.2319115251302719
1629724822762,0.0820521786808967,0.1758808195590973,-0.3389763236045837,-0.2329622507095337
1629724822871,0.0619892664253711,0.1710021942853927,-0.3350036740303039,-0.2513526380062103
1629724822952,0.0358374267816543,0.166406974196434,-0.3447195291519165,-0.2840245366096496
1629724823157,2.555901846790221e-05,0.1611729562282562,-0.3606187403202057,-0.3175831139087677
1629724823204,-0.0435913763940334,0.1566112786531448,-0.3729616105556488,-0.3382191061973572
1629724823282,-0.0870532914996147,0.1534898579120636,-0.3762719929218292,-0.3429983854293823
1629724823362,-0.1143522784113884,0.150370642542839,-0.3742827475070953,-0.3372551500797272
1629724823465,-0.1242380887269973,0.1456029415130615,-0.3726187646389007,-0.3271372616291046
1629724823568,-0.1245746538043022,0.1399865597486496,-0.3731935620307922,-0.3165114223957062
1629724823720,-0.121728278696537,0.1357725709676742,-0.3759199380874634,-0.3076674342155456
1629724823786,-0.1172303631901741,0.1350649893283844,-0.3817821741104126,-0.3033246695995331
1629724823905,-0.1025514379143714,0.1379188150167465,-0.3960839807987213,-0.3030165433883667
1629724823986,-0.0774193406105041,0.1426573693752288,-0.423265129327774,-0.3028352260589599
1629724824105,-0.0450662225484848,0.1472263187170028,-0.4623754918575287,-0.3007860779762268
1629724824155,-0.0120924580842256,0.150476649403572,-0.5068500638008118,-0.2949841022491455
1629724824320,0.0192250255495309,0.1523799747228622,-0.546206533908844,-0.2844617366790771
1629724824422,0.0493875220417976,0.1546091437339782,-0.5728427171707153,-0.2657713592052459
1629724824600,0.0805800184607505,0.1589292138814926,-0.587397038936615,-0.2378379851579666
1629724824633,0.1137583553791046,0.1662965416908264,-0.5960661172866821,-0.2057608664035797
1629724824729,0.1460627615451812,0.1772825121879577,-0.604573667049408,-0.1748082190752029
1629724824790,0.1732863932847976,0.1919839978218078,-0.6122201085090637,-0.1490915268659591
1629724824916,0.1921805292367935,0.2080623656511306,-0.6147434711456299,-0.1310811191797256
1629724825020,0.2030462473630905,0.2215259373188018,-0.608720064163208,-0.1213063895702362
1629724825100,0.2095213383436203,0.2297770678997039,-0.5950873494148254,-0.1180034652352333
1629724825238,0.2131266295909881,0.2329222112894058,-0.5779834389686584,-0.1182027161121368
1629724825322,0.2125314772129058,0.2327780276536941,-0.5599343180656433,-0.1192379742860794
1629724825383,0.2054923176765442,0.2315860837697982,-0.5409327149391174,-0.1216902136802673
1629724825572,0.1919118463993072,0.2305231392383575,-0.5196488499641418,-0.1271218508481979
1629724825655,0.1764630675315857,0.2302241176366806,-0.4963617622852325,-0.1358201652765274
1629724825790,0.1641716957092285,0.2295352816581726,-0.4709300398826599,-0.1454288065433502
1629724825833,0.1576836109161377,0.2259345799684524,-0.4424258768558502,-0.1525637209415435
1629724825990,0.1533080637454986,0.2173861265182495,-0.4113258421421051,-0.1574293226003646
1629724826035,0.1455715298652649,0.2045847773551941,-0.3815084397792816,-0.1583219319581985
1629724826181,0.1305665522813797,0.1914596259593963,-0.3572190701961517,-0.1491804271936416
1629724826245,0.1088494136929512,0.1817875504493713,-0.3406940102577209,-0.128731831908226
1629724826352,0.0875856876373291,0.1763178259134292,-0.3326437473297119,-0.104641318321228
1629724826428,0.0725752413272857,0.1744395941495895,-0.3311638832092285,-0.0856737717986106
1629724826537,0.0633111149072647,0.1760218292474746,-0.3338342607021332,-0.0719713196158409
1629724826636,0.0564740113914012,0.1806758642196655,-0.3387236893177032,-0.0578349381685256
1629724826789,0.0475271120667457,0.1874709278345108,-0.3455369472503662,-0.0415680557489395
1629724826865,0.0415073744952678,0.194692388176918,-0.3558389246463775,-0.0263892337679862
1629724826962,0.0458751060068607,0.200326070189476,-0.3552780747413635,-0.0155667196959257
1629724827048,0.0624741427600383,0.2011614590883255,-0.3543708920478821,-0.010409059934318
1629724827153,0.0842084810137748,0.2013009339570999,-0.3535161018371582,-0.0093115484341979
1629724827272,0.1032656952738761,0.2025635540485382,-0.3546288907527923,-0.0098718851804733
1629724827389,0.116579845547676,0.2078081369400024,-0.3619492352008819,-0.0104392580687999
1629724827452,0.127986192703247,0.2209662050008773,-0.3799173533916473,-0.0106526967138051
1629724827595,0.1394861489534378,0.2384987026453018,-0.4085499346256256,-0.0132559444755315
1629724827652,0.1503287702798843,0.2526815831661224,-0.432612657546997,-0.0233750063925981
1629724827756,0.1587343066930771,0.2563461363315582,-0.4484566450119018,-0.0449508614838123
1629724827848,0.1629369109869003,0.2477831840515136,-0.4591447710990906,-0.0753661170601844
1629724827987,0.1663932204246521,0.2315671890974044,-0.472156822681427,-0.10700124502182
1629724828088,0.1724411696195602,0.2157977670431137,-0.4916079640388489,-0.1331687271595001
1629724828152,0.1811634749174118,0.2076113820075988,-0.5160330533981323,-0.1525226384401321
1629724828246,0.1913945823907852,0.2067591845989227,-0.5399153232574463,-0.1665095835924148
1629724828341,0.1972678899765014,0.2074340879917144,-0.5527077913284302,-0.1774037182331085
1629724828452,0.1958396583795547,0.2047931104898452,-0.5560287237167358,-0.1869515925645828
1629724828570,0.1873856782913208,0.202623188495636,-0.5467419624328613,-0.1959134340286255
1629724828712,0.172398567199707,0.199972778558731,-0.5299417972564697,-0.2046770602464676
1629724828799,0.1526719182729721,0.1985509991645813,-0.5123587250709534,-0.2131454199552536
1629724828905,0.1287419945001602,0.19760662317276,-0.4973931312561035,-0.2215175032615661
1629724828965,0.101105511188507,0.1939484477043151,-0.4832505583763122,-0.2283781915903091
1629724829030,0.0742470845580101,0.1902127116918563,-0.4668683409690857,-0.2329021543264389
1629724829223,0.0567136034369468,0.1898993402719497,-0.4542756676673889,-0.2334624379873275
1629724829317,0.0515963323414325,0.195242777466774,-0.4381190240383148,-0.2286386936903
1629724829396,0.0549826994538307,0.2054576873779297,-0.421241819858551,-0.2208607792854309
1629724829470,0.0605084188282489,0.2166189700365066,-0.405518114566803,-0.2145211398601532
1629724829587,0.0646506696939468,0.2239495813846588,-0.3923517167568207,-0.2139301151037216
1629724829643,0.0685120895504951,0.2245418727397918,-0.3824710845947265,-0.2182723879814148
1629724829814,0.0720443800091743,0.2198944687843322,-0.3752038478851318,-0.221771627664566
1629724829949,0.0744013413786888,0.2143382430076599,-0.3706254661083221,-0.2181347459554672
1629724830013,0.0722308382391929,0.2113073617219925,-0.368936538696289,-0.2065941393375396
1629724830163,0.0632431358098983,0.2099040448665619,-0.3696305453777313,-0.1903526484966278
1629724830209,0.049996580928564,0.2071227431297302,-0.3715100288391113,-0.175362154841423
1629724830326,0.0368026942014694,0.2028156816959381,-0.3742789626121521,-0.1670324504375457
1629724830499,0.032767329365015,0.2092774510383606,-0.3895985186100006,-0.1709646731615066
1629724830638,0.0496603660285472,0.2258836925029754,-0.4042723476886749,-0.1791608482599258
1629724830683,0.0736816078424453,0.2461036741733551,-0.4215363562107086,-0.1913551688194275
1629724830785,0.095151774585247,0.2628228664398193,-0.4394029676914215,-0.2070577293634414
1629724830874,0.1069046333432197,0.2722356617450714,-0.4562876224517822,-0.2204241305589676
1629724831091,0.1092700958251953,0.2755103409290313,-0.4718883633613586,-0.225489005446434
1629724831148,0.10537850856781,0.2765040695667267,-0.483470618724823,-0.2226143628358841
1629724831200,0.0994464457035064,0.278106540441513,-0.4856341779232025,-0.2187669426202774
1629724831301,0.0945771858096122,0.281254231929779,-0.474506676197052,-0.2203104645013809
1629724831431,0.0970155745744705,0.286560982465744,-0.453643798828125,-0.2276193648576736
1629724831509,0.1114313825964927,0.2939904928207397,-0.4306095540523529,-0.2341673374176025
1629724831670,0.1364656090736389,0.3018315732479095,-0.4099712669849396,-0.23223377764225
1629724831724,0.1637705564498901,0.3075953125953674,-0.389220654964447,-0.2198586612939834
1629724831819,0.1857055127620697,0.3093850314617157,-0.365803062915802,-0.2020639926195144
1629724831907,0.1974307596683502,0.30584517121315,-0.3415534496307373,-0.1871033012866974
1629724832009,0.1952268779277801,0.2952496409416199,-0.3223932385444641,-0.1801953315734863
1629724832089,0.179547518491745,0.2770447432994842,-0.3134503066539764,-0.1808499246835708
1629724832213,0.1503555178642273,0.2543098032474518,-0.313920646905899,-0.1859578788280487
1629724832361,0.1151098161935806,0.233801856637001,-0.3176302909851074,-0.191974401473999
1629724832424,0.0848335847258567,0.2212782800197601,-0.3183679580688476,-0.1973001360893249
1629724832537,0.0650555044412612,0.2174221724271774,-0.313942402601242,-0.199043408036232
1629724832618,0.057414460927248,0.2192803174257278,-0.3086220324039459,-0.1949431151151657
1629724832722,0.0578098781406879,0.2231596708297729,-0.3082442283630371,-0.1872553676366806
1629724832886,0.0612431988120079,0.2254731655120849,-0.3155198991298675,-0.1804395467042923
1629724832934,0.0608998797833919,0.2223860174417495,-0.3283796906471252,-0.1772450804710388
1629724833026,0.0541119128465652,0.2115096598863601,-0.3435300886631012,-0.1792964190244674
1629724833137,0.0411422587931156,0.1949039697647094,-0.3601925671100616,-0.1891840100288391
1629724833228,0.0287719946354627,0.1780894845724105,-0.3833983540534973,-0.2076187878847122
1629724833314,0.0240284446626901,0.1657457202672958,-0.4169903695583343,-0.2292559742927551
1629724833468,0.030760284513235,0.1581539064645767,-0.4581238627433777,-0.2440821230411529
1629724833545,0.0494359582662582,0.1520403772592544,-0.4980526268482208,-0.2456315010786056
1629724833641,0.0724495574831962,0.1433538943529129,-0.5284677147865295,-0.236287385225296
1629724833754,0.0952632501721382,0.1296725869178772,-0.5492860674858093,-0.2234287559986114
1629724833858,0.1134500652551651,0.111335352063179,-0.5659174919128418,-0.2125802785158157
1629724833967,0.124283343553543,0.0913992822170257,-0.5809805393218994,-0.2063585072755813
1629724834055,0.1277433186769485,0.0733389779925346,-0.5948507189750671,-0.2071629613637924
1629724834238,0.1262710690498352,0.0577847398817539,-0.60456782579422,-0.2153192013502121
1629724834284,0.1206228509545326,0.0426654368638992,-0.6082346439361572,-0.2295107096433639
1629724834356,0.1144013628363609,0.0266402158886194,-0.6080912947654724,-0.2445732206106186
1629724834449,0.1078974306583404,0.0118341967463493,-0.6063493490219116,-0.2561851739883423
1629724834532,0.097806692123413,0.0039067673496901,-0.6052224636077881,-0.2634607553482055
1629724834655,0.0863721072673797,0.0076411920599639,-0.6050698161125183,-0.2676002085208893
1629724834785,0.0766825601458549,0.0217485316097736,-0.6035547256469727,-0.2711570560932159
1629724834913,0.0692341178655624,0.0391340516507625,-0.5983829498291016,-0.2765511572360992
1629724834946,0.0617969818413257,0.0538408458232879,-0.589299201965332,-0.2843529880046844
1629724835087,0.0496581941843032,0.0660645216703414,-0.5763546824455261,-0.2928453981876373
1629724835152,0.034082856029272,0.0798667669296264,-0.5576610565185547,-0.2995868027210235
1629724835292,0.0199260879307985,0.0969431847333908,-0.5344654321670532,-0.3032436668872833
1629724835391,0.0119887189939618,0.1135453730821609,-0.5107849836349487,-0.3043197393417358
1629724835489,0.009568640962243,0.1239169910550117,-0.4939720630645752,-0.3027441203594208
1629724835605,0.0085686296224594,0.1254470348358154,-0.4866517782211303,-0.2957789301872253
1629724835790,-0.000287260627374,0.114661581814289,-0.4951071739196777,-0.2454316169023513
1629724835885,-0.0008766803075559,0.1125674322247505,-0.5069292187690735,-0.20620758831501
1629724835995,0.0057465261779725,0.1142162084579467,-0.5220642685890198,-0.1726472675800323
1629724836073,0.0166274588555097,0.115931861102581,-0.5380501747131348,-0.1529465019702911
1629724836171,0.0218728706240654,0.1143086180090904,-0.5541688799858093,-0.1467965245246887
1629724836289,0.0160510912537574,0.1095768585801124,-0.5694195628166199,-0.1459636390209198
1629724836388,0.0026770450640469,0.1050961464643478,-0.5789069533348083,-0.1421996355056762
1629724836498,-0.0106211118400096,0.1037982329726219,-0.5750506520271301,-0.1348547786474228
1629724836641,-0.0186246894299983,0.1042500063776969,-0.5565955638885498,-0.129695788025856
1629724836705,-0.0237121395766735,0.1019779592752456,-0.5333868861198425,-0.1331947445869445
1629724836768,-0.0296802315860986,0.0943617671728134,-0.5152832865715027,-0.1445902436971664
1629724836877,-0.0398130863904953,0.0839760899543762,-0.5050390362739563,-0.1571372002363205
1629724837003,-0.0516832210123539,0.0775001645088195,-0.4993282258510589,-0.1632266044616699
1629724837107,-0.0611812062561512,0.0802809000015258,-0.4939633309841156,-0.1590374708175659
1629724837186,-0.0684747099876403,0.0907832756638526,-0.4866024851799011,-0.1499097496271133
1629724837299,-0.0780011117458343,0.1025297865271568,-0.477893054485321,-0.1459966301918029
1629724837425,-0.0975138917565345,0.1103676259517669,-0.4698331654071808,-0.1539387255907058
1629724837506,-0.1272785514593124,0.1148113459348678,-0.4640921950340271,-0.1720077693462371
1629724837567,-0.1590676009654998,0.1191406026482582,-0.4603480100631714,-0.1920895427465438
1629724837755,-0.1790195703506469,0.1244890093803405,-0.4553560614585876,-0.206183522939682
1629724837816,-0.1814703941345214,0.128701776266098,-0.4474624097347259,-0.2137376368045807
1629724837944,-0.1743005663156509,0.129385843873024,-0.4401042759418487,-0.2185620814561844
1629724838001,-0.1707521229982376,0.1262883096933365,-0.4390499889850616,-0.2229674309492111
1629724838089,-0.1765966266393661,0.1222981736063957,-0.4470955729484558,-0.225443422794342
1629724838199,-0.1826157122850418,0.1219801604747772,-0.4625363945960998,-0.2227103561162948
1629724838390,-0.1738861799240112,0.1285217553377151,-0.4816283881664276,-0.2159849852323532
1629724838427,-0.139520913362503,0.1409065127372741,-0.5014680624008179,-0.2109244614839553
1629724838541,-0.0825783684849739,0.154277503490448,-0.5179446935653687,-0.2141833454370498
1629724838604,-0.0200360473245382,0.1634437143802642,-0.5283173322677612,-0.2313040196895599
1629724838707,0.0375752225518226,0.1662811934947967,-0.5323969721794128,-0.2620123624801636
1629724838805,0.0852595940232276,0.1641639620065689,-0.5296291708946228,-0.2965207993984222
1629724838985,0.1199373826384544,0.1595866233110427,-0.5172116756439209,-0.3180274069309234
1629724839043,0.1436333507299423,0.1541969627141952,-0.4955735206604004,-0.3172900974750519
1629724839110,0.1581878960132599,0.149491399526596,-0.4730665683746338,-0.3026358783245086
1629724839255,0.1650876402854919,0.1487826108932495,-0.4588440656661987,-0.2892132699489593
1629724839336,0.1660871356725692,0.1554704308509826,-0.4551289081573486,-0.2814009189605713
1629724839421,0.1623226106166839,0.1687113940715789,-0.4552419185638428,-0.2737871408462524
1629724839549,0.1583886444568634,0.1833787560462951,-0.4515725374221802,-0.2619058191776275
1629724839647,0.1566338837146759,0.1945178806781768,-0.4416940808296203,-0.2492528855800628
1629724839760,0.1557472944259643,0.2004832476377487,-0.4269390404224396,-0.2423864156007766
1629724839886,0.1503490358591079,0.2008035331964492,-0.4096952974796295,-0.2415981143712997
1629724839952,0.1333219856023788,0.1952451765537262,-0.3924848735332489,-0.2407446801662445
1629724840068,0.101425252854824,0.1840671151876449,-0.378478854894638,-0.2340700477361679
1629724840183,0.056373406201601,0.1699220389127731,-0.3695995807647705,-0.2224257439374923
1629724840238,0.0025241516996175,0.1564738005399704,-0.3663159310817718,-0.2098185420036316
1629724840330,-0.0523976311087608,0.1460787206888198,-0.3687595129013061,-0.1988173574209213
1629724840449,-0.0969057530164718,0.1391306221485138,-0.376626044511795,-0.1931258738040924
1629724840542,-0.1252264678478241,0.1349975168704986,-0.385868489742279,-0.1951681226491928
1629724840605,-0.138076975941658,0.1312953531742096,-0.3878999650478363,-0.2014515995979309
1629724840805,-0.1422754377126693,0.1232638359069824,-0.3788826763629913,-0.2047906219959259
1629724840854,-0.14249187707901,0.1070789843797683,-0.3645451962947845,-0.2014668583869934
1629724840947,-0.1352152675390243,0.0843351110816001,-0.3552435338497162,-0.1958060711622238
1629724841056,-0.122838020324707,0.0620079822838306,-0.3559328615665436,-0.1934073716402053
1629724841172,-0.1091567277908325,0.0460579507052898,-0.3646527528762817,-0.1952329128980636
1629724841260,-0.1007985398173332,0.034611839801073,-0.3771837651729584,-0.1972955167293548
1629724841390,-0.1008604317903518,0.0224039014428854,-0.3889599144458771,-0.1968959420919418
1629724841488,-0.1036982908844947,0.007388737052679,-0.3974801301956177,-0.1963261663913726
1629724841585,-0.1027885973453521,-0.0070284623652696,-0.4030538201332092,-0.2008570879697799
1629724841649,-0.0946354046463966,-0.0180123001337051,-0.4064410924911499,-0.2119421511888504
1629724841762,-0.0806978642940521,-0.0244322605431079,-0.4066122472286224,-0.2263180613517761
1629724841879,-0.0663847848773002,-0.0261277146637439,-0.4004611670970917,-0.2401460111141204
1629724841985,-0.0579965785145759,-0.0222345553338527,-0.3866787850856781,-0.2494106590747833
1629724842124,-0.0570225939154624,-0.0141795994713902,-0.3706645369529724,-0.2509492635726928
1629724842173,-0.06228644028306,-0.0049751796759665,-0.3611151278018951,-0.2427223324775695
1629724842264,-0.0697357356548309,0.0034114129375666,-0.3629683256149292,-0.2242805063724517
1629724842351,-0.0764302760362625,0.0098910713568329,-0.3744901120662689,-0.2004327178001403
1629724842484,-0.0850003957748413,0.0128242056816816,-0.3903984427452087,-0.1808097511529922
1629724842611,-0.0944147035479545,0.0095742624253034,-0.407262772321701,-0.1721633076667785
1629724842755,-0.100986510515213,0.0003618497867137,-0.424463152885437,-0.1741978824138641
1629724842801,-0.0974491909146308,-0.0084837935864925,-0.4402604401111603,-0.1812328845262527
1629724842880,-0.0813761353492736,-0.0077890162356197,-0.453016847372055,-0.1876227408647537
1629724842997,-0.0565729588270187,0.0056702592410147,-0.4625327587127685,-0.1904903203248977
1629724843067,-0.0312074515968561,0.0260781720280647,-0.4683768153190613,-0.1861496418714523
1629724843201,-0.0109235486015677,0.0447896718978881,-0.470599889755249,-0.1714844107627868
1629724843302,0.0005514507065527,0.0583662129938602,-0.4703069031238556,-0.1508486270904541
1629724843380,0.0016658887034282,0.070264421403408,-0.4719222486019134,-0.1347504407167434
1629724843472,-0.0007945991237647,0.0842037871479988,-0.4812451601028442,-0.130525141954422
1629724843569,-0.0014388994313776,0.1002072244882583,-0.4987427592277527,-0.1389042288064956
1629724843715,0.0007889323169365,0.1143887490034103,-0.5192857980728149,-0.1570204049348831
1629724843841,0.0039894860237836,0.1235333904623985,-0.5343922972679138,-0.1845859140157699
1629724843905,0.0060595911927521,0.1272413432598114,-0.538203239440918,-0.2214339524507522
1629724843984,0.0098481522873044,0.1278087794780731,-0.5318014621734619,-0.2586406469345093
1629724844154,0.0166519470512866,0.1282363831996917,-0.5203639268875122,-0.2837091982364654
1629724844205,0.0239874087274074,0.129547894001007,-0.5096072554588318,-0.2916631996631622
1629724844284,0.0287852920591831,0.1309226304292678,-0.5019719004631042,-0.2901684641838074
1629724844486,0.028698656708002,0.1315596997737884,-0.4961296916007995,-0.2881416380405426
1629724844535,0.0228192657232284,0.1327340453863144,-0.4903095364570617,-0.2903500199317932
1629724844613,0.0105553641915321,0.1357599347829818,-0.4851168394088745,-0.2977103292942047
1629724844714,-0.0096424398943781,0.1407474875450134,-0.4825112819671631,-0.3125108778476715
1629724844775,-0.0320904292166233,0.146208718419075,-0.4834718704223633,-0.3331541419029236
1629724844939,-0.0473010204732418,0.149818480014801,-0.4874491393566131,-0.3501711785793304
1629724845033,-0.0541610121726989,0.1502669602632522,-0.493946760892868,-0.3556348085403442
1629724845139,-0.0571001321077346,0.1482782959938049,-0.5051367282867432,-0.348567247390747
1629724845238,-0.0603278800845146,0.1468808799982071,-0.5223201513290405,-0.3370973467826843
1629724845328,-0.0623524896800518,0.1483501195907592,-0.5435624718666077,-0.3283804655075073
1629724845424,-0.0584661737084388,0.1532112509012222,-0.5639767050743103,-0.3232083320617676
1629724845529,-0.0490560568869113,0.1606901884078979,-0.5792804956436157,-0.3201961517333984
1629724845643,-0.0369675084948539,0.1701931059360504,-0.5881556868553162,-0.3162936866283417
1629724845754,-0.0267206393182277,0.1816619336605072,-0.5887845754623413,-0.3100720047950744
1629724845817,-0.0209679007530212,0.1938454508781433,-0.5829822421073914,-0.3015590310096741
1629724845956,-0.0182357896119356,0.2041360884904861,-0.5759119987487793,-0.290372759103775
1629724846038,-0.0166385024785995,0.2109670042991638,-0.5728779435157776,-0.2751956284046173
1629724846136,-0.0129773654043674,0.2156729251146316,-0.5744556188583374,-0.2593884170055389
1629724846251,-0.0043652947060763,0.2210800349712371,-0.5754679441452026,-0.2473548203706741
1629724846351,0.0044532581232488,0.227849930524826,-0.5717248916625977,-0.2417683154344558
1629724846444,0.0103720109909772,0.2320446372032165,-0.5647342801094055,-0.2418454885482788
1629724846620,0.0122224753722548,0.2286790013313293,-0.5586501955986023,-0.2432108521461486
1629724846645,0.0123970303684473,0.2170673459768295,-0.5535913109779358,-0.2444739937782287
1629724846722,0.0167663060128688,0.201440617442131,-0.5468862652778625,-0.245855763554573
1629724846888,0.0229000747203826,0.1883970648050308,-0.5358515381813049,-0.2468949407339096
1629724846980,0.0274181701242923,0.1812235116958618,-0.5224740505218506,-0.2449830472469329
1629724847075,0.0297042559832334,0.1771141588687896,-0.5098517537117004,-0.2367007881402969
1629724847168,0.0308829694986343,0.1716554909944534,-0.4997289776802063,-0.2234532535076141
1629724847237,0.0354339070618152,0.1634731441736221,-0.4956640601158142,-0.2105730473995208
1629724847321,0.042510736733675,0.1552945673465728,-0.5002652406692505,-0.203470841050148
1629724847472,0.046591430902481,0.1508020758628845,-0.5141472816467285,-0.207887664437294
1629724847563,0.046370442956686,0.1493608504533767,-0.5335255265235901,-0.223128080368042
1629724847641,0.0418488085269928,0.1457780748605728,-0.5534346103668213,-0.2435920983552932
1629724847771,0.0373754501342773,0.1356541365385055,-0.5690202116966248,-0.2591916620731354
1629724847855,0.0387360714375972,0.1195622235536575,-0.5749009251594543,-0.262443482875824
1629724847970,0.044144619256258,0.1041907295584678,-0.5650204420089722,-0.2544471025466919
1629724848096,0.0503475964069366,0.0983503088355064,-0.5416792035102844,-0.2433060258626938
1629724848221,0.0531776212155818,0.1052380055189132,-0.5174189805984497,-0.233539268374443
1629724848320,0.0507489368319511,0.1209263056516647,-0.5033067464828491,-0.2246243953704834
1629724848360,0.0458550862967968,0.1385851204395294,-0.5027663707733154,-0.2144704163074493
1629724848438,0.0370853617787361,0.1541440635919571,-0.5106341242790222,-0.2074367254972458
1629724848537,0.0234073027968406,0.167512908577919,-0.5203480124473572,-0.2115502059459686
1629724848708,0.0034899788442999,0.1789107173681259,-0.5281188488006592,-0.2291357368230819
1629724848828,-0.0178818516433239,0.1863476932048797,-0.5304966568946838,-0.2523098289966583
1629724848906,-0.0305866356939077,0.1867613345384597,-0.5255913734436035,-0.269701212644577
1629724848993,-0.0254853870719671,0.1789489239454269,-0.5139415860176086,-0.2729886770248413
1629724849056,-0.00527926068753,0.1657834202051162,-0.4986960589885711,-0.2665508091449737
1629724849146,0.0188565272837877,0.1534010767936706,-0.4829708039760589,-0.256342202425003
1629724849305,0.035743273794651,0.1459856927394867,-0.4714052081108093,-0.247734934091568
1629724849405,0.0404297225177288,0.1417526006698608,-0.4696224331855774,-0.2446906268596649
1629724849502,0.0361952893435955,0.1361816078424453,-0.4788902103900909,-0.2480615824460983
1629724849598,0.0289503522217273,0.1270651370286941,-0.4916118681430816,-0.2552694976329803
1629724849697,0.0227276980876922,0.1154911145567894,-0.4937784671783447,-0.2630501389503479
1629724849776,0.0166067946702241,0.1024818643927574,-0.4794204831123352,-0.2700993716716766
1629724849909,0.0105521706864237,0.0871665477752685,-0.4549719989299774,-0.2793394923210144
1629724850006,0.0090274233371019,0.0695877820253372,-0.4293075501918793,-0.2901155948638916
1629724850088,0.0118688978254795,0.0539147704839706,-0.4059797525405884,-0.2971377372741699
1629724850186,0.0197274964302778,0.0481858439743518,-0.3852672874927521,-0.2947645783424377
1629724850287,0.0279473904520273,0.057544358074665,-0.3677632510662079,-0.281666100025177
1629724850385,0.0311221368610858,0.0773421078920364,-0.3547381162643432,-0.2609416246414184
1629724850571,0.0255126506090164,0.0971665829420089,-0.3476311862468719,-0.2389211505651474
1629724850620,0.0088286325335502,0.1095557510852813,-0.346902847290039,-0.2195359170436859
1629724850760,-0.0126128140836954,0.1138134524226188,-0.3513948619365692,-0.2041414976119995
1629724850838,-0.0300854239612817,0.1144541576504707,-0.3575802743434906,-0.1924773901700973
1629724850933,-0.0405998490750789,0.1173086166381836,-0.3612633943557739,-0.1841078698635101
1629724851003,-0.0456113517284393,0.1247521266341209,-0.3627435863018036,-0.1804037243127823
1629724851129,-0.0477324910461902,0.1338401436805725,-0.3669063150882721,-0.1813722103834152
1629724851237,-0.0451910085976123,0.1394261866807937,-0.3787898421287536,-0.1855926215648651
1629724851300,-0.0341729894280433,0.1399444192647934,-0.3972065150737762,-0.1910988688468933
1629724851418,-0.0186840649694204,0.138321042060852,-0.4158070981502533,-0.1952519416809082
1629724851506,-0.00563529971987,0.1365925520658493,-0.4320292770862579,-0.1978933066129684
1629724851604,0.0034706136211752,0.133934885263443,-0.4460653066635132,-0.2009806632995605
1629724851722,0.0049647134728729,0.1273130476474762,-0.4569660723209381,-0.2081117630004882
1629724851836,0.0018725290428847,0.1153701171278953,-0.4619815349578857,-0.2222895324230194
1629724851957,-0.0027458015829324,0.1006925776600837,-0.4604229629039764,-0.2443200945854187
1629724852054,-0.0009215704048983,0.0877834632992744,-0.4541985690593719,-0.2709724009037018
1629724852132,0.0158572662621736,0.0797657221555709,-0.4457343220710754,-0.2966636121273041
1629724852195,0.0434400327503681,0.0778792649507522,-0.4356353282928467,-0.3182639479637146
1629724852339,0.0715934187173843,0.082242228090763,-0.4259224534034729,-0.337153822183609
1629724852445,0.0940031185746193,0.091976024210453,-0.4194181263446808,-0.3537542819976806
1629724852510,0.1108532175421714,0.1036763414740562,-0.4168905019760132,-0.3652491569519043
1629724852655,0.1249944344162941,0.11229108273983,-0.4149375557899475,-0.3691726326942444
1629724852756,0.1354033350944519,0.1152400597929954,-0.4097124338150024,-0.3671342432498932
1629724852887,0.1398959457874298,0.1138105690479278,-0.4029094874858856,-0.3618618845939636
1629724852964,0.139247864484787,0.1107890829443931,-0.3997993171215057,-0.3525012731552124
1629724853048,0.1352568119764328,0.108698233962059,-0.4024659097194671,-0.337146908044815
1629724853173,0.1294697970151901,0.1072885766625404,-0.4106455445289612,-0.3173666000366211
1629724853273,0.1230809986591339,0.1049004346132278,-0.4236772656440735,-0.2969994246959686
1629724853320,0.1135492771863937,0.100655123591423,-0.4401744902133941,-0.2779257297515869
1629724853429,0.1011236533522605,0.0956069827079773,-0.4548886716365814,-0.2542798519134521
1629724853573,0.0849527940154075,0.0915521159768104,-0.4607356488704681,-0.2187441885471344
1629724853656,0.0622246637940406,0.0884319543838501,-0.4563269913196563,-0.1748183220624923
1629724853753,0.0318769328296184,0.0829142108559608,-0.4498744606971741,-0.1363876610994339
1629724853908,-0.0042080432176589,0.0707190185785293,-0.4498123526573181,-0.1128729507327079
1629724854007,-0.0367212370038032,0.0508036911487579,-0.4585900902748108,-0.1053682938218116
1629724854071,-0.0582598447799682,0.0299592185765504,-0.4724809825420379,-0.1081325858831405
1629724854206,-0.0712853297591209,0.0199539605528116,-0.4885426163673401,-0.1145956590771675
1629724854269,-0.0786596834659576,0.0276048183441162,-0.5052633285522461,-0.1206086128950119
1629724854390,-0.0822072029113769,0.0486219562590122,-0.520101010799408,-0.1237711012363433
1629724854505,-0.0768473371863365,0.0735856294631958,-0.5304835438728333,-0.1257663518190384
1629724854551,-0.0566082932054996,0.0953563824295997,-0.5350484848022461,-0.1299625188112259
1629724854706,-0.0247560627758502,0.1110413819551467,-0.5332860946655273,-0.1347867101430893
1629724854883,0.0437410064041614,0.1231610625982284,-0.517182469367981,-0.1263724714517593
1629724855010,0.067532904446125,0.1221985965967178,-0.5134876370429993,-0.1206606179475784
1629724855105,0.0787474885582923,0.1202471479773521,-0.5206272602081299,-0.1286683082580566
1629724855175,0.0790061205625534,0.1202589124441146,-0.5367208123207092,-0.1521752774715423
1629724855289,0.0730466991662979,0.1248033121228218,-0.5529981851577759,-0.1790448129177093
1629724855400,0.0676314905285835,0.1354420632123947,-0.5628693103790283,-0.1954857110977172
1629724855477,0.065267875790596,0.1517524272203445,-0.566169023513794,-0.1980601847171783
1629724855622,0.0668994486331939,0.1686706990003585,-0.5681301355361938,-0.1915738135576248
1629724855670,0.0744109004735946,0.1787600964307785,-0.570821225643158,-0.1815822571516037
1629724855772,0.0858354344964027,0.1769376844167709,-0.5732640027999878,-0.1709373146295547
1629724855851,0.0986079573631286,0.163739800453186,-0.5745166540145874,-0.1628712266683578
1629724855996,0.107497714459896,0.1438749134540558,-0.573537290096283,-0.1588064432144165
1629724856073,0.1077290773391723,0.1232146993279457,-0.5698757767677307,-0.1577722430229187
1629724856223,0.0984424948692321,0.1064856052398681,-0.5673520565032959,-0.1604993194341659
1629724856304,0.0830872878432273,0.0963216945528984,-0.5716567635536194,-0.1694668680429458
1629724856353,0.0676476806402206,0.0919296815991401,-0.5858989953994751,-0.1837254017591476
1629724856521,0.0605385974049568,0.0894962847232818,-0.6096625328063965,-0.198016956448555
1629724856638,0.0646272003650665,0.0851796343922615,-0.635227620601654,-0.2085025757551193
1629724856715,0.0731698349118232,0.0792049914598465,-0.657647430896759,-0.2169117331504821
1629724856807,0.0809837728738784,0.0740675181150436,-0.6774880886077881,-0.22606061398983
1629724857023,0.0847259163856506,0.0645846799015998,-0.7145026326179504,-0.239346444606781
1629724857091,0.0775397345423698,0.0527248457074165,-0.7269713878631592,-0.2396850883960724
1629724857221,0.0618906319141387,0.0368171855807304,-0.7320141196250916,-0.2410471588373184
1629724857348,0.0413450002670288,0.0242049414664506,-0.7339324355125427,-0.2462305724620819
1629724857432,0.0198713783174753,0.0198319889605045,-0.7361504435539246,-0.2525631189346313
1629724857525,0.000532969192136,0.0217104312032461,-0.7380757927894592,-0.2551186382770538
1629724857587,-0.016441099345684,0.0257991328835487,-0.7369247078895569,-0.2535058856010437
1629724857689,-0.031207837164402,0.0306520648300647,-0.7301589846611023,-0.2515950798988342
1629724857841,-0.0423695817589759,0.0371173918247222,-0.7175928354263306,-0.2507385611534118
1629724857937,-0.0505489557981491,0.0462352409958839,-0.6993088722229004,-0.2526524364948272
1629724858000,-0.0582881458103656,0.0484946630895137,-0.6782150268554688,-0.2584721148014068
1629724858123,-0.0685235410928726,0.0549638271331787,-0.6601454615592957,-0.2668089270591736
1629724858238,-0.0759124234318733,0.0646627470850944,-0.648297131061554,-0.2732511460781097
1629724858300,-0.0733471885323524,0.0728943645954132,-0.6377196907997131,-0.2683925032615661
1629724858447,-0.0592522695660591,0.074685625731945,-0.6228678822517395,-0.2647183239459991
1629724858553,-0.0340028330683708,0.0696824118494987,-0.6045489311218262,-0.2611729502677917
1629724858654,-0.0012896695407107,0.0637425929307937,-0.586423397064209,-0.2486624717712402
1629724858741,0.0312935374677181,0.0641992017626762,-0.5723311901092529,-0.2198664546012878
1629724858849,0.0559320896863937,0.0729260519146919,-0.5610771179199219,-0.1812206506729126
1629724858958,0.0701374933123588,0.085931122303009,-0.5496104955673218,-0.1476121544837951
1629724859035,0.0779173672199249,0.1006673872470855,-0.5379830598831177,-0.1282508373260498
1629724859130,0.087059661746025,0.1006673872470855,-0.5223303437232971,-0.1359537690877914
1629724859235,0.0988777726888656,0.1006673872470855,-0.526020884513855,-0.1495604962110519
1629724859355,0.1091870591044426,0.1006673872470855,-0.5419006943702698,-0.1655415445566177
1629724859438,0.1136061772704124,0.1006673872470855,-0.5581777691841125,-0.1778740584850311
1629724859556,0.1112528219819068,0.1006673872470855,-0.5600263476371765,-0.1826428771018982
1629724859704,0.1073939800262451,0.1545786261558532,-0.5416331887245178,-0.1823029965162277
1629724859735,0.1059980988502502,0.1555579006671905,-0.5076887011528015,-0.1809676587581634
1629724859856,0.1067703813314437,0.1523128449916839,-0.4926992654800415,-0.1785195022821426
1629724859969,0.107848472893238,0.1459480226039886,-0.4851334393024444,-0.1741814762353897
1629724860064,0.1043301746249198,0.1384931355714798,-0.4795835316181183,-0.1668929308652877
1629724860129,0.0927470624446868,0.1312038451433181,-0.4731327593326568,-0.1601524353027343
1629724860240,0.0779599547386169,0.1258350610733032,-0.4668504893779754,-0.1590645313262939
1629724860354,0.0668267011642456,0.1248498782515525,-0.4627368152141571,-0.1665516793727874
1629724860454,0.0669693648815155,0.1298786848783493,-0.4610292613506317,-0.1805600821971893
1629724860571,0.0769945830106735,0.1396249532699585,-0.4626409113407135,-0.1981535404920578
1629724860670,0.085723303258419,0.1501166820526123,-0.4679341614246368,-0.2159596979618072
1629724860778,0.0859861448407173,0.157814010977745,-0.4718597531318664,-0.2312598377466201
1629724860865,0.0791299641132354,0.1615575551986694,-0.4695650041103363,-0.2427239865064621
1629724860972,0.0695266276597976,0.1636512875556945,-0.4588835835456848,-0.2532945275306701
1629724861092,0.0633738413453102,0.1635568588972091,-0.4464058876037597,-0.2667920887470245
1629724861152,0.0617168471217155,0.1632907688617706,-0.4405433237552643,-0.2821652293205261
1629724861274,0.0622489936649799,0.165823832154274,-0.4441041350364685,-0.2966961562633514
1629724861390,0.0647236853837966,0.1721793115139007,-0.4521703124046325,-0.3101867735385895
1629724861489,0.0700608417391777,0.1794351041316986,-0.4586171209812164,-0.3258330225944519
1629724861573,0.0799397677183151,0.1837935596704483,-0.4615145921707153,-0.3445385098457336
1629724861703,0.0999233499169349,0.1843231916427612,-0.4602958261966705,-0.3578871190547943
1629724861771,0.1262273490428924,0.1822787970304489,-0.4519043862819671,-0.3521303832530975
1629724861887,0.1487410366535186,0.1785901188850402,-0.4351684749126434,-0.32208913564682
1629724861971,0.156523585319519,0.1723828315734863,-0.4138626456260681,-0.2802364826202392
1629724862119,0.1471822708845138,0.1629295498132705,-0.3907182514667511,-0.2429512739181518
1629724862206,0.1322927176952362,0.1525672674179077,-0.3656774461269378,-0.2172045558691024
1629724940389,0.0,0.0,0.0,0.0
1629724940436,0.0,0.0,0.0,0.0
1629724940539,0.0,0.0,0.0,0.0
1629724940605,0.0,0.0,0.0,0.0
1629724940721,0.0,0.0,0.0,0.0
1629724940864,0.0,0.0,0.0,0.0
1629724940977,0.0,0.0,0.0,0.0
1629724941058,0.0,0.0,0.0,0.0
1629724941136,0.0,0.0,0.0,0.0
1629724941238,0.0,0.0,0.0,0.0
1629724941340,0.0,0.0,0.0,0.0
1629724941479,0.0,0.0,0.0,0.0
1629724941616,0.0,0.0,0.0,0.0
1629724941655,0.0,0.0,0.0,0.0
1629724941799,0.0,0.0,0.0,0.0
1629724941860,0.0,0.0,0.0,0.0
1629724941959,0.0,0.0,0.0,0.0
1629724942088,0.0,0.0,0.0,0.0
1629724942201,0.0,0.0,0.0,0.0
1629724942282,0.0,0.0,0.0,0.0
1629724942353,0.0,0.0,0.0,0.0
1629724942452,0.0,0.0,0.0,0.0
1629724942550,0.1714357584714889,0.1898021250963211,-0.5002403259277344,-0.2577210366725921
1629724942704,0.1768825352191925,0.1840278357267379,-0.5001795887947083,-0.2774196863174438
1629724942846,0.1785954535007476,0.1820541024208068,-0.4981062710285187,-0.2653547525405884
1629724942891,0.1833010762929916,0.1842063218355178,-0.4887635409832001,-0.2313846200704574
1629724942970,0.1927815526723861,0.1878002732992172,-0.4730501174926758,-0.1906844526529312
1629724943079,0.2091241478919983,0.1898704022169113,-0.4598240554332733,-0.1551118046045303
1629724943143,0.225228264927864,0.1898492127656936,-0.4566031694412231,-0.1308797597885131
1629724943306,0.2377505749464035,0.189825639128685,-0.4646733999252319,-0.1202071085572242
1629724943435,0.2471384704113006,0.1920073926448822,-0.47750985622406,-0.1216389760375022
1629724943488,0.2539024651050567,0.1963180750608444,-0.4868802726268768,-0.1313793063163757
1629724943570,0.2563318610191345,0.1997146755456924,-0.4881620705127716,-0.1435509175062179
1629724943690,0.2531392872333526,0.1996647715568542,-0.4812318086624145,-0.1520511358976364
1629724943771,0.2538604438304901,0.1989553123712539,-0.4662594795227051,-0.1604730486869812
1629724943904,0.2495116144418716,0.1977506726980209,-0.4542244076728821,-0.1605569273233413
1629724944008,0.2453586906194687,0.1997711807489395,-0.4494988620281219,-0.157548040151596
1629724944108,0.2392096072435379,0.2037076205015182,-0.453416645526886,-0.1591112911701202
1629724944223,0.23094342648983,0.2052175551652908,-0.4630140662193298,-0.1693688035011291
1629724944287,0.2194982767105102,0.2018036842346191,-0.4730978012084961,-0.1887363791465759
1629724944367,0.2037272155284881,0.1937498897314071,-0.4817577302455902,-0.2176189422607422
1629724944538,0.1849356740713119,0.1831135004758834,-0.4869948923587799,-0.2550422549247741
1629724944605,0.1671612858772277,0.1731540262699127,-0.4826896786689758,-0.295679897069931
1629724944739,0.1806648075580597,0.1662415415048599,-0.4653338193893432,-0.327748954296112
1629724944804,0.2467434704303741,0.161047488451004,-0.4395113289356231,-0.3390671610832214
1629724944939,0.3438147604465484,0.1530801057815551,-0.4155659675598144,-0.3276881873607635
1629724945040,0.4263873994350433,0.1385953575372696,-0.4000266492366791,-0.3054114580154419
1629724945229,0.4750800132751465,0.1188454627990722,-0.3948765993118286,-0.2865700423717499
1629724945277,0.4935488402843475,0.098805047571659,-0.4006637334823608,-0.2781628966331482
1629724945375,0.497098296880722,0.0802259445190429,-0.4165701568126678,-0.2716913819313049
1629724945422,0.4972080886363983,0.0608070492744445,-0.4357337653636932,-0.2546376287937164
1629724945556,0.4961864352226257,0.0387374386191368,-0.4469558894634247,-0.2214937359094619
1629724945710,0.4955143928527832,0.0168884210288524,-0.4434519410133362,-0.1799558699131012
1629724945785,0.4946747124195099,0.0025758554693311,-0.4271326959133148,-0.1417795866727829
1629724945883,0.4937025606632232,0.0006170918350107,-0.4070066213607788,-0.1131315380334854
1629724946023,0.4930927455425262,0.0096937092021107,-0.3898484408855438,-0.0914279371500015
1629724946089,0.4916418194770813,0.0248792581260204,-0.3802516162395477,-0.0722066387534141
1629724946221,0.4880006611347198,0.0419269986450672,-0.3810119032859802,-0.053724180907011
1629724946273,0.4707891047000885,0.0595429092645645,-0.3909637331962585,-0.040033470839262
1629724946395,0.4249987006187439,0.0790014490485191,-0.4045551121234894,-0.0360452756285667
1629724946524,0.3420464098453522,0.1011471077799797,-0.4141026139259338,-0.0435970537364482
1629724946569,0.2371551394462585,0.1243002861738205,-0.415555328130722,-0.0582295916974544
1629724946673,0.1496395617723465,0.1445958912372589,-0.4106790721416473,-0.0739227756857872
1629724946803,0.1130686104297638,0.1583622545003891,-0.4026642143726349,-0.0872761383652687
1629724946850,0.1117020025849342,0.1651026308536529,-0.3920833170413971,-0.1023205891251564
1629724946996,0.1123928055167198,0.1670884788036346,-0.3798772990703583,-0.1242944821715354
1629724947085,0.1073510944843292,0.1671408414840698,-0.3696546852588653,-0.1547869890928268
1629724947219,0.1015411093831062,0.1666622459888458,-0.3651814460754394,-0.1879721134901046
1629724947314,0.1052690967917442,0.1651459336280822,-0.3674758970737457,-0.2142894715070724
1629724947423,0.1201855093240737,0.1622514575719833,-0.371741384267807,-0.2271424978971481
1629724947438,0.1379923671483993,0.1592272669076919,-0.3711118400096893,-0.2303014397621154
1629724947589,0.1530626565217971,0.1590436846017837,-0.3627520799636841,-0.2327737808227539
1629724947668,0.1612017899751663,0.1624746620655059,-0.3507181107997894,-0.2430649101734161
1629724947796,0.1605543792247772,0.166002869606018,-0.3411792814731598,-0.2615244686603546
1629724947942,0.1522975713014602,0.1639744937419891,-0.337218701839447,-0.279746800661087
1629724947969,0.1387948542833328,0.154203400015831,-0.3387412130832672,-0.2856424450874328
1629724948056,0.1263639777898788,0.1407520920038223,-0.344325304031372,-0.2743957936763763
1629724948232,0.1184375211596489,0.1316269636154174,-0.3507875800132751,-0.2511345744132995
1629724948317,0.1136479899287223,0.1344173103570938,-0.3541323244571686,-0.2251781970262527
1629724948381,0.1107701510190963,0.1509215384721756,-0.3509985208511352,-0.1990171819925308
1629724948491,0.111373484134674,0.1756635457277298,-0.3431003093719482,-0.1713030636310577
1629724948574,0.1134426519274711,0.1998085677623748,-0.3345065116882324,-0.1425747573375702
1629724948700,0.1122030988335609,0.2174055427312851,-0.3285021781921386,-0.1166086420416832
1629724948839,0.1012450903654098,0.2269367575645446,-0.3267090320587158,-0.0978379175066948
1629724948917,0.0809498280286789,0.2292743325233459,-0.3312832713127136,-0.0863632559776306
1629724949058,0.0602240972220897,0.2258349061012268,-0.343787670135498,-0.0794252976775169
1629724949091,0.0478427372872829,0.2169339954853058,-0.3612069487571716,-0.0721176266670227
1629724949214,0.0460275933146476,0.2029896974563598,-0.3746171593666076,-0.0585445128381252
1629724949338,0.054223209619522,0.1855240911245346,-0.3771458268165588,-0.0356012806296348
1629724949456,0.0688720047473907,0.1680334657430648,-0.3702400028705597,-0.007263408973813
1629724949557,0.0850165411829948,0.1544730216264724,-0.358533650636673,0.0176411811262369
1629724949590,0.0977946668863296,0.146450012922287,-0.3445718884468078,0.033629760146141
1629724949702,0.1026742607355117,0.1425723582506179,-0.3295632898807525,0.0422497652471065
1629724949788,0.1044517159461975,0.1392825841903686,-0.3181033134460449,0.0476040728390216
1629724949924,0.1089351326227188,0.1323644071817398,-0.315431147813797,0.0499036088585853
1629724950070,0.1164577677845954,0.1196301728487014,-0.3196483254432678,0.047845471650362
1629724950172,0.1268042027950287,0.1032737493515014,-0.3236326873302459,0.0438443794846534
1629724950191,0.1408159434795379,0.0885938331484794,-0.3218789398670196,0.0418764315545558
1629724950302,0.1608704626560211,0.0797440707683563,-0.316196471452713,0.0459073595702648
1629724950423,0.1851004958152771,0.0766579434275627,-0.3105060756206512,0.0548640750348567
1629724950490,0.2078105211257934,0.0762131661176681,-0.3068976700305938,0.0640986263751983
1629724950605,0.2257062345743179,0.0756405889987945,-0.3061317205429077,0.0686710327863693
1629724950776,0.2375237047672271,0.0740187093615531,-0.3098596930503845,0.0660950988531112
1629724950876,0.2423202395439148,0.0732977390289306,-0.3193363845348358,0.0587679557502269
1629724950907,0.24021577835083,0.0762035921216011,-0.3334546685218811,0.0538996830582618
1629724951001,0.2305603176355362,0.0836961045861244,-0.3510263562202453,0.0566699616611003
1629724951115,0.2162252217531204,0.0934069901704788,-0.3723232746124267,0.0635619908571243
1629724951287,0.2011546790599823,0.1008421704173088,-0.3975875079631805,0.0662797391414642
1629724951320,0.1864043325185775,0.1022016629576683,-0.4220734238624573,0.0606748834252357
1629724951456,0.1716545224189758,0.0972041636705398,-0.4410932958126068,0.0499777272343635
1629724951520,0.1554384231567382,0.0893981978297233,-0.4575647711753845,0.0383433923125267
1629724951690,0.1382520645856857,0.0829417929053306,-0.4790599048137665,0.0247701704502105
1629724951753,0.1194687858223915,0.078938253223896,-0.5069703459739685,0.0069219321012496
1629724951846,0.1014650464057922,0.0759954825043678,-0.5315840840339661,-0.0160129833966493
1629724951956,0.0862656384706497,0.0734866559505462,-0.5416319966316223,-0.0410474650561809
1629724952055,0.0778605788946151,0.0723258852958679,-0.538327693939209,-0.0618952363729476
1629724952154,0.0752818807959556,0.0732757002115249,-0.533412516117096,-0.0727793276309967
1629724952273,0.071063719689846,0.0760719329118728,-0.5346832871437073,-0.0744763612747192
1629724952320,0.0611953996121883,0.0789087116718292,-0.5369318723678589,-0.0767411813139915
1629724952522,0.0446362979710102,0.0803227797150611,-0.5253157019615173,-0.0891742035746574
1629724952601,0.0287463627755641,0.0802952274680137,-0.4933747351169586,-0.1108339130878448
1629724952665,0.0184107068926095,0.0805643796920776,-0.4518547356128692,-0.1318528056144714
1629724952739,0.0178876370191574,0.0826786085963249,-0.4165728986263275,-0.1432912647724151
1629724952870,0.0282003413885831,0.0864749327301979,-0.3939292132854461,-0.1456105709075927
1629724952940,0.0472457073628902,0.0910649076104164,-0.3801535367965698,-0.1451622545719146
1629724953108,0.0719678401947021,0.0965239480137825,-0.3686754703521728,-0.1437945514917373
1629724953172,0.0980787426233291,0.1039279997348785,-0.3563352525234222,-0.1366169601678848
1629724953265,0.1214113980531692,0.1137048751115799,-0.34345543384552,-0.1196338310837745
1629724953344,0.1371412575244903,0.1245540007948875,-0.3313719928264618,-0.0962471142411232
1629724953472,0.1436177045106887,0.134841501712799,-0.3225098550319671,-0.0766363888978958
1629724953555,0.1366065293550491,0.1439660042524337,-0.3184970617294311,-0.0697657316923141
1629724953721,0.1185701414942741,0.1529562920331955,-0.3190431296825409,-0.0780835971236229
1629724953769,0.0993654131889343,0.1632030606269836,-0.3229508697986603,-0.0974363535642623
1629724953908,0.0867294073104858,0.1743667721748352,-0.3314203023910522,-0.1208907812833786
1629724953985,0.0851461142301559,0.1836926937103271,-0.3501831293106079,-0.1457272469997406
1629724954090,0.0892975106835365,0.1875616610050201,-0.3832256495952606,-0.1728355437517166
1629724954184,0.0928088724613189,0.1842132210731506,-0.4265992641448974,-0.1994710862636566
1629724954281,0.0895304381847381,0.1756062507629394,-0.4689144492149353,-0.217534139752388
1629724954414,0.0764693841338157,0.1667264699935913,-0.500774621963501,-0.2187036722898483
1629724954490,0.0555042028427124,0.1617467999458313,-0.520595133304596,-0.2042704373598098
1629724954622,0.0352407395839691,0.1611461788415908,-0.5294357538223267,-0.1844051331281662
1629724954702,0.0248258095234632,0.1614809334278106,-0.5266913771629333,-0.1703714728355407
1629724954789,0.0280869416892528,0.1585716903209686,-0.516218364238739,-0.1667190641164779
1629724954931,0.0402261801064014,0.1508861631155014,-0.5079054236412048,-0.17254139482975
1629724954999,0.0523033738136291,0.1402173340320587,-0.5081770420074463,-0.1807750910520553
1629724955139,0.0638398453593254,0.1305001378059387,-0.5138159394264221,-0.1839893460273742
1629724955229,0.0757463797926902,0.1242356970906257,-0.5148265957832336,-0.1802124977111816
1629724955316,0.0871143713593483,0.1196754202246666,-0.5061533451080322,-0.1694799959659576
1629724955406,0.0955644994974136,0.1131330281496048,-0.4907150864601135,-0.1516866087913513
1629724955526,0.0979896858334541,0.1030089408159256,-0.4729350507259369,-0.1276539713144302
1629724955632,0.0954346656799316,0.0910924449563026,-0.4549643993377685,-0.1009402200579643
1629724955721,0.0910317003726959,0.0797386169433593,-0.4375541806221008,-0.0785707905888557
1629724955829,0.0905618146061897,0.0704497322440147,-0.4198869168758392,-0.0653779134154319
1629724955862,0.0971639975905418,0.0632355138659477,-0.4021605849266052,-0.0632238760590553
1629724956003,0.1083105131983757,0.0569583289325237,-0.3869644701480865,-0.070607766509056
1629724956116,0.1151403039693832,0.0493520870804786,-0.3795558214187622,-0.0835522040724754
1629724956258,0.1102553158998489,0.0397582799196243,-0.3827651739120483,-0.0978682935237884
1629724956285,0.0930171012878418,0.0315970554947853,-0.3923308551311493,-0.1110778599977493
1629724956407,0.068366102874279,0.029540117830038,-0.3991958200931549,-0.1196105182170867
1629724956506,0.0468390025198459,0.0345203094184398,-0.3991169035434723,-0.1204854846000671
1629724956660,0.0360043756663799,0.0422213599085807,-0.3965522944927215,-0.1133177876472473
1629724956721,0.0371499918401241,0.0463415272533893,-0.399770587682724,-0.100771389901638
1629724956855,0.0459167584776878,0.0441959723830223,-0.4107461273670196,-0.0878906026482582
1629724956973,0.0574309006333351,0.0388394407927989,-0.4234980642795563,-0.0780243799090385
1629724957051,0.0717266425490379,0.0358399972319603,-0.4307744801044464,-0.0717814788222312
1629724957194,0.0918779373168945,0.0386689491569995,-0.4313072562217712,-0.0688184052705764
1629724957234,0.1187749505043029,0.0473469421267509,-0.4288865029811859,-0.0663375854492187
1629724957411,0.1441545933485031,0.0589049570262432,-0.4287216067314148,-0.0613201335072517
1629724957442,0.1607001572847366,0.0694272816181182,-0.4335947036743164,-0.0513738766312599
1629724957568,0.1686514765024185,0.0764804705977439,-0.4416856467723846,-0.0355418175458908
1629724957640,0.1725079417228698,0.0817703008651733,-0.4488478600978851,-0.0169847477227449
1629724957739,0.1782696545124054,0.0901817008852958,-0.4519369900226593,-0.0007110367296263
1629724957853,0.1865915209054947,0.1045356169342994,-0.454087883234024,0.0091647710651159
1629724957933,0.1938303411006927,0.1225225999951362,-0.4612019658088684,0.0107839088886976
1629724958089,0.1972916722297668,0.1387024521827697,-0.4746059775352478,0.0042950748465955
1629724958151,0.1939834654331207,0.150177001953125,-0.4886132180690765,-0.0094356220215559
1629724958258,0.1830364018678665,0.1585479229688644,-0.494109570980072,-0.0289859697222709
1629724958305,0.169169396162033,0.1666235029697418,-0.4850841164588928,-0.0525448322296142
1629724958455,0.1574885845184326,0.1746985763311386,-0.4611132144927978,-0.0788198560476303
1629724958636,0.151229903101921,0.1814471632242202,-0.4293631017208099,-0.1065617501735687
1629724958706,0.1476650536060333,0.1868019253015518,-0.3981817364692688,-0.1344796866178512
1629724958770,0.1399207115173339,0.1925970464944839,-0.3735207617282867,-0.1635298132896423
1629724958880,0.1310549527406692,0.1992911249399185,-0.356789231300354,-0.1964265704154968
1629724958939,0.1267300844192505,0.2048672288656234,-0.3446725606918335,-0.2360753118991851
1629724959063,0.1288412660360336,0.2071161866188049,-0.3343988358974457,-0.2839865088462829
1629724959204,0.136834517121315,0.2050380706787109,-0.3250809609889984,-0.3361256122589111
1629724959272,0.1427721828222274,0.1982716172933578,-0.3183144330978393,-0.3837625384330749
1629724959380,0.1419428884983062,0.1862822324037552,-0.3150477111339569,-0.417915016412735
1629724959412,0.1340935826301574,0.1691196709871292,-0.3139448165893554,-0.4356966912746429
1629724959577,0.1204540953040123,0.1484251767396927,-0.3109704554080963,-0.4406197667121887
1629724959624,0.11021089553833,0.1260900199413299,-0.3023033142089844,-0.4353863298892975
1629724959790,0.1124945506453514,0.1040036305785179,-0.2887672781944275,-0.4232164621353149
1629724959873,0.1288441270589828,0.085429348051548,-0.2761864066123962,-0.4105357527732849
1629724960001,0.153764009475708,0.0740698724985122,-0.2728651165962219,-0.402941346168518
1629724960186,0.1812557727098465,0.0712060183286666,-0.3013583421707153,-0.3959507346153259
1629724960203,0.1734445840120315,0.0705364793539047,-0.28235724568367,-0.4005030393600464
1629724960268,0.1799312829971313,0.0718713477253913,-0.3217174112796783,-0.3776116669178009
1629724960371,0.1740678399801254,0.0738392695784568,-0.3369259536266327,-0.34290811419487
1629724960466,0.164352536201477,0.0816181153059005,-0.347295731306076,-0.3008866906166076
1629724960566,0.1504197269678115,0.0962209478020668,-0.3566995561122894,-0.2649761438369751
1629724960726,0.1337077021598816,0.1131022348999977,-0.367134690284729,-0.2431440204381942
1629724960772,0.1203709170222282,0.1265722811222076,-0.3778775930404663,-0.2357108294963836
1629724960891,0.1158909052610397,0.1343657970428466,-0.3875387609004974,-0.2382711917161941
1629724961023,0.1207283586263656,0.1378501057624817,-0.3951493799686432,-0.2451581358909607
1629724961091,0.1356420218944549,0.1396418511867523,-0.4023146033287048,-0.2507915794849396
1629724961239,0.1564441323280334,0.1415695250034332,-0.4138771593570709,-0.2486367970705032
1629724961297,0.1740902513265609,0.1435077637434005,-0.4335381090641022,-0.2336674630641937
1629724961442,0.1801668405532837,0.1434003859758377,-0.4605600833892822,-0.2055840790271759
1629724961474,0.1726026535034179,0.1400886178016662,-0.4878380298614502,-0.1711334288120269
1629724961581,0.1582454890012741,0.1356317698955536,-0.5068932175636292,-0.140139490365982
1629724961731,0.1450072079896927,0.1336394250392913,-0.5145566463470459,-0.118663765490055
1629724961841,0.1357890963554382,0.1349344104528427,-0.5127864480018616,-0.1089651063084602
1629724961955,0.1275375336408615,0.1353452503681183,-0.502548098564148,-0.1104292795062065
1629724962004,0.1188435330986976,0.1298677623271942,-0.4847820699214935,-0.1209240406751632
1629724962067,0.1097977831959724,0.1179263666272163,-0.463629275560379,-0.1330586522817611
1629724962259,0.1025323569774627,0.1043129116296768,-0.4434734284877777,-0.1366942673921585
1629724962321,0.0987729877233505,0.0954678207635879,-0.4242607951164245,-0.1266776472330093
1629724962422,0.0981634706258773,0.0945907458662986,-0.404689073562622,-0.1079213693737983
1629724962507,0.099955141544342,0.1008310541510582,-0.3839887678623199,-0.0906908363103866
1629724962568,0.0971212163567543,0.1104960441589355,-0.3622646331787109,-0.0827385261654853
1629724962719,0.0844953283667564,0.1186372116208076,-0.337688684463501,-0.0878457054495811
1629724962842,0.0610159076750278,0.1215383931994438,-0.3089856505393982,-0.1061908826231956
1629724962956,0.0295105390250682,0.1183991879224777,-0.2802197933197021,-0.1353604197502136
1629724963033,-0.0019557867199182,0.1111959591507911,-0.2589968740940094,-0.1686040163040161
1629724963082,-0.0282584391534328,0.101176381111145,-0.2497358322143554,-0.1975194364786148
1629724963287,-0.0463715270161628,0.0867152214050293,-0.2514739036560058,-0.2196750789880752
1629724963316,-0.0554505847394466,0.0662815645337104,-0.261358380317688,-0.2383322268724441
1629724963440,-0.0597899109125137,0.0426655001938343,-0.2769460082054138,-0.2568838596343994
1629724963541,-0.0589342974126338,0.023341691121459,-0.2950909435749054,-0.2741801142692566
1629724963607,-0.0529938153922557,0.0150245735421776,-0.3110494315624237,-0.2914901077747345
1629724963756,-0.0475588627159595,0.0166629888117313,-0.322052389383316,-0.3161641359329223
1629724963848,-0.0481823459267616,0.0200069602578878,-0.3307357132434845,-0.3535773754119873
1629724963928,-0.0547549650073051,0.017279464751482,-0.3397094011306762,-0.3972776532173157
1629724964056,-0.0563990548253059,0.0063732317648828,-0.3492642045021057,-0.4274337589740753
1629724964166,-0.044324867427349,-0.0075205764733254,-0.3574488162994385,-0.425251305103302
1629724964266,-0.0241215527057647,-0.0154746761545538,-0.3644904196262359,-0.3919058442115783
1629724964345,-0.0070416387170553,-0.0121176587417721,-0.3730779588222503,-0.3453056216239929
1629724964475,0.0033508352935314,-0.0001343190815532,-0.383564829826355,-0.302530825138092
1629724964554,0.0067066149786114,0.0136672584339976,-0.3940065801143646,-0.2752337455749511
1629724964664,0.0067452136427164,0.024749893695116,-0.4022007882595062,-0.2658110558986664
1629724964729,0.0045942165888845,0.0338183715939521,-0.4076533019542694,-0.2695394158363342
1629724964856,-0.0006099678575992,0.0428974777460098,-0.4086876809597015,-0.2757419347763061
1629724964934,-0.0038859322667121,0.051590159535408,-0.4047159552574157,-0.2762954533100128
1629724965015,-0.0054227896034717,0.0583174526691436,-0.3974717259407043,-0.2696352899074554
1629724965104,-0.0079366546124219,0.063233658671379,-0.389848917722702,-0.2589072287082672
1629724965285,-0.0113960234448313,0.0690254569053649,-0.3825964033603668,-0.2452325373888015
1629724965351,-0.0162365138530731,0.078814797103405,-0.3732940256595611,-0.2304399609565735
1629724965436,-0.0254220645874738,0.0934853106737136,-0.3623662889003753,-0.2197050154209137
1629724965537,-0.0469808019697666,0.1103741079568862,-0.3540067970752716,-0.2171247601509094
1629724965666,-0.0852944627404213,0.1246883496642112,-0.3508062958717346,-0.220987781882286
1629724965756,-0.1349795460700988,0.132416769862175,-0.3508565425872803,-0.2237115800380706
1629724965869,-0.1784785389900207,0.132861778140068,-0.3517976999282837,-0.2198072224855423
1629724966024,-0.2062694132328033,0.1296105533838272,-0.3528420925140381,-0.2101026624441146
1629724966090,-0.2221081554889679,0.1271572858095169,-0.3516507148742676,-0.1961743533611297
1629724966256,-0.2281893789768219,0.1280266791582107,-0.3434024751186371,-0.1789621263742447
1629724966273,-0.2218137681484222,0.1321022659540176,-0.3255185782909393,-0.158636599779129
1629724966405,-0.1988528668880462,0.1383277326822281,-0.3043532073497772,-0.1385675817728042
1629724966489,-0.1658191531896591,0.1446714848279953,-0.2897284626960754,-0.118683785200119
1629724966584,-0.1376521289348602,0.1479606628417968,-0.2859492003917694,-0.0962228626012802
1629724966707,-0.1188392490148544,0.1449794769287109,-0.2914312183856964,-0.07153832167387
1629724966813,-0.1053059324622154,0.1346991509199142,-0.3020904958248138,-0.0480232015252113
1629724966835,-0.0890132039785385,0.119235023856163,-0.3148790895938873,-0.0260387901216745
1629724966960,-0.0581054724752903,0.1026127636432647,-0.3257187306880951,-0.0034367984626442
1629724967090,-0.013021221384406,0.089810587465763,-0.3300417065620422,0.0179499834775924
1629724967205,0.0344181470572948,0.0850361809134483,-0.3278922140598297,0.0315960347652435
1629724967349,0.0734416991472244,0.090910218656063,-0.324921578168869,0.0339707396924495
1629724967416,0.1018796265125274,0.1075895726680755,-0.3250179588794708,0.0286719985306262
1629724967523,0.1238924413919448,0.131038561463356,-0.3266314566135406,0.0217659194022417
1629724967588,0.1467979848384857,0.1535833179950714,-0.3275962769985199,0.0160567220300436
1629724967698,0.1704752892255783,0.1689251810312271,-0.329401820898056,0.0113237211480736
1629724967786,0.1916743367910385,0.1754454970359802,-0.3356898725032806,0.006860114634037
1629724967854,0.2067072838544845,0.1757250130176544,-0.3455277383327484,0.0022837135475128
1629724967990,0.2141908407211303,0.174191802740097,-0.3532975316047668,-0.0049680983647704
1629724968089,0.2187360972166061,0.1733685731887817,-0.3561441898345947,-0.0190455187112092
1629724968224,0.220181331038475,0.1732556670904159,-0.3554895222187042,-0.0399742648005485
1629724968307,0.2176785767078399,0.1721877604722976,-0.3554359376430511,-0.0652577653527259
1629724968492,0.2087414264678955,0.1687141507863998,-0.3587738573551178,-0.0946305021643638
1629724968542,0.1885661482810974,0.1623974740505218,-0.3678677380084991,-0.1273659467697143
1629724968657,0.1595890372991562,0.1531901061534881,-0.3838600218296051,-0.1573278158903122
1629724968686,0.1276116818189621,0.1408569067716598,-0.4054504632949829,-0.176107719540596
1629724968751,0.1005429923534393,0.1237273439764976,-0.427500307559967,-0.1830100119113922
1629724968954,0.0804226025938987,0.0990145653486251,-0.4428744614124298,-0.1835659742355346
1629724969004,0.0636292919516563,0.0655585825443267,-0.4477246701717376,-0.1790084391832351
1629724969099,0.0419832356274127,0.0279789250344038,-0.4440481960773468,-0.1671299636363983
1629724969291,0.0124473553150892,-0.0046914280392229,-0.4364787936210632,-0.1499597281217575
1629724969310,-0.0277276076376438,-0.0260678883641958,-0.4276371598243713,-0.134597048163414
1629724969378,-0.0754979848861694,-0.0370470024645328,-0.418055772781372,-0.1247729733586311
1629724969574,-0.1263419687747955,-0.0419371724128723,-0.4070256948471069,-0.1196952611207962
1629724969618,-0.1776691526174545,-0.042584840208292,-0.3917577564716339,-0.1144623681902885
1629724969697,-0.2174415439367294,-0.0384419076144695,-0.3690472245216369,-0.103336364030838
1629724969892,-0.2428767830133438,-0.0274942591786384,-0.340467095375061,-0.0839481055736541
1629724969945,-0.2492519170045852,-0.0085113979876041,-0.3128687739372253,-0.0608972012996673
1629724969969,-0.236307606101036,0.0170639846473932,-0.2908720374107361,-0.0445039458572864
1629724970154,-0.2161012142896652,0.0431793592870235,-0.272767961025238,-0.0418399758636951
1629724970289,-0.1941614001989364,0.0625682920217514,-0.2553901672363281,-0.0500255934894084
1629724970321,-0.1733415275812149,0.0734762549400329,-0.2397693395614624,-0.0598463863134384
1629724970435,-0.1559716165065765,0.0801023244857788,-0.229208618402481,-0.0648405700922012
1629724970540,-0.1419374346733093,0.0875706300139427,-0.2246856391429901,-0.0681845545768737
1629724970603,-0.1302683651447296,0.097129188477993,-0.2233668565750122,-0.0766499936580658
1629724970774,-0.1173707023262977,0.1075303927063942,-0.2225392460823059,-0.0916304141283035
1629724970883,-0.0954703316092491,0.1185182482004165,-0.2219277769327163,-0.1053795218467712
1629724970948,-0.0635313540697097,0.1298668086528778,-0.2228773236274719,-0.1094892397522926
1629724971012,-0.0246880054473876,0.1394419372081756,-0.226815715432167,-0.1029811576008796
1629724971092,0.0160130802541971,0.1453625410795211,-0.2354561686515808,-0.0919016748666763
1629724971289,0.0533669851720333,0.1482312977313995,-0.2504894733428955,-0.084328293800354
1629724971373,0.0820780098438263,0.1493350118398666,-0.2691110074520111,-0.0851813629269599
1629724971447,0.0976397469639778,0.1479995846748352,-0.2831539511680603,-0.0931904539465904
1629724971539,0.0995466485619545,0.1427412629127502,-0.2856099307537079,-0.0993747562170028
1629724971656,0.0934750735759735,0.134780004620552,-0.2806128263473511,-0.0917060226202011
1629724971790,0.0872320383787155,0.12774758040905,-0.2780848443508148,-0.0683594644069671
1629724971853,0.0858932584524154,0.1234707310795784,-0.2841420173645019,-0.0407063253223896
1629724971995,0.0916932970285415,0.1218971014022827,-0.2985554039478302,-0.0208727344870567
1629724972091,0.104870893061161,0.1232040524482727,-0.3182567358016968,-0.0113557949662208
1629724972213,0.1248673200607299,0.1265439987182617,-0.3403936922550201,-0.0065495357848703
1629724972358,0.1443133503198623,0.1281142979860305,-0.3617349565029144,-0.0024123576004058
1629724972404,0.1562725305557251,0.1232599169015884,-0.3780027627944946,-0.0006626776303164
1629724972456,0.1580973714590072,0.1111597418785095,-0.3860125839710235,-0.0047589023597538
1629724972638,0.1493300646543502,0.0959575027227401,-0.3858825266361236,-0.0143179195001721
1629724972685,0.1344109922647476,0.0815384462475776,-0.3811192512512207,-0.0249404218047857
1629724972748,0.1134494021534919,0.0686173662543296,-0.3754536211490631,-0.0332343950867652
1629724972938,0.0932318493723869,0.0572703182697296,-0.3715517818927765,-0.0357065014541149
1629724972958,0.0841530933976173,0.050282672047615,-0.3717465400695801,-0.0300543643534183
1629724973073,0.0881549566984176,0.0499733090400695,-0.3783576190471649,-0.0201183836907148
1629724973214,0.0959968715906143,0.0543013736605644,-0.3904875516891479,-0.0166350677609443
1629724973334,0.0962299928069114,0.0596849992871284,-0.4021769762039184,-0.0278808791190385
1629724973380,0.0838149785995483,0.0656201690435409,-0.4030089378356933,-0.0514305159449577
1629724973472,0.0603578388690948,0.0719191282987594,-0.3891550004482269,-0.0770024731755256
1629724973538,0.02901566401124,0.0769237279891967,-0.3674386143684387,-0.0945069342851638
1629724973673,-0.0099377669394016,0.0807522535324096,-0.3472894430160522,-0.1007229760289192
1629724973904,-0.0500404462218284,0.087026298046112,-0.3330632150173187,-0.0944613516330719
1629724973924,-0.0796572044491767,0.0981041565537452,-0.3242785036563873,-0.0775881633162498
1629724973985,-0.0943671911954879,0.1116157323122024,-0.3192103803157806,-0.0555424615740776
1629724974063,-0.0934094786643982,0.1233909353613853,-0.3178111016750335,-0.0366621650755405
1629724974234,-0.0867530778050422,0.1323981583118438,-0.3199298977851867,-0.0277718883007764
1629724974336,-0.0806110948324203,0.1392587125301361,-0.3254078030586242,-0.0306619349867105
1629724974461,-0.0796540901064872,0.1424996852874755,-0.3342754244804382,-0.0416094847023487
1629724974519,-0.0886150300502777,0.139352798461914,-0.3443607687950134,-0.0512861907482147
1629724974585,-0.1055915579199791,0.1294284015893936,-0.3512849509716034,-0.0488879829645156
1629724974741,-0.1211993172764778,0.1170259788632392,-0.3515561521053314,-0.0321354493498802
1629724974774,-0.1273173540830612,0.1079586073756218,-0.3475490212440491,-0.0100479461252689
1629724974907,-0.1160755008459091,0.1044005528092384,-0.3451766073703766,0.0071090599521994
1629724975020,-0.0866776257753372,0.1038141921162605,-0.3460454642772674,0.0157865677028894
1629724975114,-0.0494240224361419,0.1020421385765075,-0.3474560678005218,0.0172698162496089
1629724975176,-0.0174285694956779,0.0975529924035072,-0.3472391664981842,0.0133971413597464
1629724975291,0.0048312065191566,0.0925212278962135,-0.3461422920227051,0.0048316442407667
1629724975351,0.017311068251729,0.0902886986732482,-0.3448624014854431,-0.0061915921978652
1629724975465,0.0247582178562879,0.0918163210153579,-0.3448285758495331,-0.0164284110069274
1629724975691,0.0292833894491195,0.0949394926428794,-0.3478662073612213,-0.0218440163880586
1629724975721,0.0294051598757505,0.0965305268764495,-0.354134738445282,-0.0203397832810878
1629724975840,0.0279039815068244,0.0953281447291374,-0.3608455061912536,-0.0120711904019117
1629724975919,0.0253959950059652,0.092236541211605,-0.3647341132164001,-0.0015506636118516
1629724975997,0.0229800827801227,0.0884044393897056,-0.3680378198623657,0.0041251704096794
1629724976088,0.0238548442721366,0.0848022624850273,-0.3766606450080871,-0.0004559007356874
1629724976261,0.0280522610992193,0.0822415724396705,-0.39366015791893,-0.0136336609721183
1629724976310,0.0344320908188819,0.0820188373327255,-0.4155158996582031,-0.0265877041965723
1629724976442,0.0350506827235221,0.0851502418518066,-0.4364441633224487,-0.032635647803545
1629724976518,0.0246790274977684,0.0905614048242569,-0.4548140466213226,-0.0334900021553039
1629724976624,0.0064365551806986,0.0951706543564796,-0.4719003736972809,-0.0336978770792484
1629724976715,-0.008954738266766,0.0956692025065422,-0.4863714575767517,-0.0332826524972915
1629724976854,-0.0162870306521654,0.0898385271430015,-0.4942485094070434,-0.031382467597723
1629724976995,-0.0160081032663583,0.078357845544815,-0.4954296052455902,-0.0305392146110534
1629724977034,-0.0133957210928201,0.0648968741297721,-0.4913456737995147,-0.0345510356128215
1629724977179,-0.0159534662961959,0.0536635071039199,-0.4825145602226257,-0.0443288944661617
1629724977284,-0.0230898708105087,0.0476020909845829,-0.4715632498264313,-0.056921899318695
1629724977348,-0.0318131856620311,0.0473183915019035,-0.4623494446277618,-0.0690732970833778
1629724977460,-0.0374849215149879,0.0535531714558601,-0.4560770094394684,-0.080286368727684
1629724977568,-0.0375597886741161,0.0674186125397682,-0.449430912733078,-0.092821218073368
1629724977687,-0.034898605197668,0.0867771357297897,-0.4393701255321502,-0.1093479543924331
1629724977767,-0.0345818288624286,0.1057470515370369,-0.4283544421195984,-0.131135419011116
1629724977838,-0.0366418696939945,0.1176105961203575,-0.4207481145858764,-0.1560072302818298
1629724977919,-0.0387723408639431,0.1183727160096168,-0.4185699820518493,-0.1787321120500564
1629724978102,-0.0438727661967277,0.1097322031855583,-0.418447196483612,-0.1937045902013778
1629724978149,-0.0543406531214714,0.0986488312482833,-0.4141039848327636,-0.2014955580234527
1629724978273,-0.0693655163049697,0.0930480733513832,-0.4021876454353332,-0.2094389051198959
1629724978302,-0.0871533378958702,0.0955825522541999,-0.3871833384037018,-0.2230108380317688
1629724978505,-0.1087905466556549,0.1018558740615844,-0.3792256116867065,-0.2405857145786285
1629724978568,-0.1369946748018264,0.1068120151758194,-0.3845144510269165,-0.2558160424232483
1629724978673,-0.1625497788190841,0.1092567071318626,-0.4000495672225952,-0.2634885609149933
1629724978806,-0.1769387125968933,0.1094446256756782,-0.4166498482227325,-0.2643365859985351
1629724978837,-0.1773188710212707,0.1072456538677215,-0.426939994096756,-0.2634292840957641
1629724979038,-0.1726823449134826,0.1020670235157013,-0.4314853549003601,-0.265073150396347
1629724979077,-0.173559159040451,0.093433104455471,-0.4357024729251861,-0.2706595063209533
1629724979240,-0.182753637433052,0.0815537273883819,-0.4425833821296692,-0.2773828506469726
1629724979342,-0.1992479115724563,0.067162774503231,-0.4498475193977356,-0.2798188924789428
1629724979439,-0.2162040919065475,0.0528811477124691,-0.4540051519870758,-0.273930013179779
1629724979464,-0.2252741008996963,0.0434146225452423,-0.4533691704273224,-0.2590357363224029
1629724979608,-0.2176388502120971,0.0415003262460231,-0.449131429195404,-0.2408435940742492
1629724979640,-0.1957920491695404,0.0450249761343002,-0.4457883834838867,-0.2264093160629272
1629724979733,-0.1718995720148086,0.0484887547791004,-0.4498985707759857,-0.2210823744535446
1629724979971,-0.149589255452156,0.0482471510767936,-0.4659387767314911,-0.2248465865850448
1629724980040,-0.1299515217542648,0.045785367488861,-0.489734947681427,-0.2309931814670562
1629724980140,-0.1098312363028526,0.0444732494652271,-0.5093818306922913,-0.2297240495681762
1629724980208,-0.0904348865151405,0.045169610530138,-0.5165917277336121,-0.2166744321584701
1629724980323,-0.0734686776995658,0.0472836159169673,-0.5132024884223938,-0.1966470032930374
1629724980372,-0.0557939186692237,0.050264224410057,-0.5060282945632935,-0.1768103539943695
1629724980509,-0.0311096478253602,0.053082138299942,-0.4984299540519714,-0.1608085185289383
1629724980639,-0.0024412269704043,0.0543926618993282,-0.4892738759517669,-0.1470084637403488
1629724980672,0.023474795743823,0.0543943680822849,-0.477357268333435,-0.1332167536020279
1629724980823,0.0420805849134922,0.055022869259119,-0.4639989137649536,-0.1210002675652504
1629724980858,0.0493364371359348,0.0567843802273273,-0.4521713554859161,-0.1157984659075737
1629724980947,0.048001941293478,0.057274542748928,-0.4444066882133484,-0.1228092163801193
1629724981143,0.0409442745149135,0.0544593594968318,-0.4431991577148437,-0.1410600394010543
1629724981211,0.0319639816880226,0.0489799976348876,-0.4480122327804565,-0.1619321554899215
1629724981267,0.0239322558045387,0.0429481975734233,-0.4544035792350769,-0.1733255535364151
1629724981372,0.0188942067325115,0.0383847765624523,-0.4568192064762115,-0.1696003079414367
1629724981467,0.0163600202649831,0.0368773341178894,-0.4532741606235504,-0.1570516973733902
1629724981589,0.0172222964465618,0.0397425405681133,-0.4475648701190948,-0.1458227336406707
1629724981718,0.019779909402132,0.0484441183507442,-0.4438958466053009,-0.1390108168125152
1629724981821,0.0210535246878862,0.0629814863204956,-0.4435060024261474,-0.1312316060066223
1629724982013,0.0045153629034757,0.1003372073173523,-0.449831873178482,-0.09239511936903
1629724982013,0.0167002771049737,0.0811866223812103,-0.4455665647983551,-0.1155168041586875
1629724982106,-0.0101559944450855,0.1190114542841911,-0.4563369750976562,-0.070120021700859
1629724982181,-0.0217105932533741,0.1364449113607406,-0.4644777178764343,-0.0567294396460056
1629724982298,-0.027277709916234,0.1523327976465225,-0.4696862995624542,-0.053239032626152
1629724982420,-0.0262528788298368,0.1661500930786132,-0.4668803215026855,-0.0545974001288414
1629724982527,-0.0230937842279672,0.1771584600210189,-0.45597043633461,-0.0539289191365242
1629724982641,-0.0222835261374712,0.1852042824029922,-0.4426433742046356,-0.0484709069132804
1629724982719,-0.0250975340604782,0.1899009644985199,-0.432467520236969,-0.0415084399282932
1629724982873,-0.0300222057849168,0.1903737485408783,-0.4266042411327362,-0.0370138399302959
1629724982930,-0.0386906005442142,0.1853679418563842,-0.4209948778152466,-0.0374171137809753
1629724983031,-0.049587070941925,0.1742067784070968,-0.4116969108581543,-0.0416079573333263
1629724983111,-0.0610736459493637,0.1575820744037628,-0.3990435302257538,-0.0486909113824367
1629724983274,-0.0695953220129013,0.1376612782478332,-0.3854652047157287,-0.0569793954491615
1629724983301,-0.0721984654664993,0.1159680262207984,-0.3728156983852386,-0.0654032379388809
1629724983489,-0.0705068185925483,0.0928670465946197,-0.3612914681434631,-0.0758555978536605
1629724983601,-0.0706634745001792,0.068271204829216,-0.3514386713504791,-0.0903123989701271
1629724983634,-0.072907269001007,0.0429627522826194,-0.3443557322025299,-0.1071182265877723
1629724983743,-0.0734140574932098,0.0188958477228879,-0.3388369679450989,-0.1174065172672271
1629724983836,-0.0643727481365203,-0.0025418302975594,-0.3322876989841461,-0.1123994588851928
1629724983938,-0.0436558797955513,-0.0206885002553462,-0.3231931328773498,-0.0940977558493614
1629724984039,-0.0193198844790458,-0.0341221988201141,-0.313523530960083,-0.0738743245601654
1629724984173,0.0036306150723248,-0.0413259826600551,-0.306283175945282,-0.0599301680922508
1629724984255,0.0219998117536306,-0.0414785034954547,-0.3020131289958954,-0.0516835413873195
1629724984328,0.0341777727007865,-0.0349000953137874,-0.2992504239082336,-0.0447634495794773
1629724984411,0.04856888204813,-0.0225871056318283,-0.2972924709320068,-0.0345261879265308
1629724984553,0.0636140704154968,-0.0105085335671901,-0.2972892820835113,-0.0240451507270336
1629724984609,0.0751145780086517,0.0047563933767378,-0.3008696138858795,-0.0140579808503389
1629724984812,0.0807419642806053,0.0177156738936901,-0.3088919520378113,-0.0071335760876536
1629724984856,0.0826199501752853,0.0258184354752302,-0.3203982710838318,-0.0066557270474731
1629724984955,0.0857432037591934,0.0307375472038984,-0.3324169218540191,-0.0121318222954869
1629724985183,0.0966920033097267,0.0357860773801803,-0.3377545475959778,-0.0171039290726184
1629724985195,0.1142695844173431,0.0414030812680721,-0.3210136294364929,-0.0127570061013102
1629724985243,0.1343899369239807,0.0456920191645622,-0.2706152200698852,-0.0004977819044142
1629724985440,0.1487835198640823,0.0508372001349926,-0.1140821129083633,-0.0037370435893535
1629724985441,0.1487835198640823,0.0479797981679439,-0.1952910721302032,0.0062603214755654
1629724985611,0.1487835198640823,0.5169071555137634,-0.0418716743588447,0.1328942477703094
1629724985667,0.1487835198640823,0.5841376781463623,0.014191411435604,0.227583959698677
1629724985759,0.1487835198640823,0.5841376781463623,0.0518071129918098,0.2964754700660705
1629724985857,0.3944007158279419,0.5841376781463623,0.0720418468117713,0.3598589897155761
1629724985987,0.3944007158279419,0.5841376781463623,0.079304352402687,0.368105411529541
1629724986089,0.3944007158279419,0.5841376781463623,0.0803542286157608,0.368105411529541
1629724986205,0.3944007158279419,0.5841376781463623,0.0807378739118576,0.368105411529541
1629724986323,0.3944007158279419,0.5841376781463623,0.0866928622126579,0.368105411529541
1629724986402,0.3944007158279419,0.5841376781463623,0.1065563783049583,0.368105411529541
1629724986443,0.3944007158279419,0.5841376781463623,0.1457266062498092,0.368105411529541
1629724986653,0.3944007158279419,0.5841376781463623,0.1952481567859649,0.368105411529541
1629724986741,0.3944007158279419,0.5841376781463623,0.2364126592874527,0.368105411529541
1629724986802,0.3944007158279419,0.5841376781463623,0.2538633346557617,0.368105411529541
1629724986930,0.3944007158279419,0.5841376781463623,0.2440937906503677,0.368105411529541
1629724986972,0.3944007158279419,0.5841376781463623,0.2122170031070709,0.368105411529541
1629724987168,0.3944007158279419,0.5841376781463623,0.1673786789178848,0.3540768921375274
1629724987234,0.3944007158279419,0.5841376781463623,0.1440669596195221,0.3540768921375274
1629724987282,0.3944007158279419,0.5841376781463623,0.1295375823974609,0.3540768921375274
1629724987374,0.3944007158279419,0.5841376781463623,0.1303397268056869,0.3540768921375274
1629724987524,0.3944007158279419,0.5841376781463623,0.146865963935852,0.3540768921375274
1629724987568,0.3944007158279419,0.5841376781463623,0.1740553975105285,0.3540768921375274
1629724987724,0.3944007158279419,0.5841376781463623,0.2072978466749191,0.3540768921375274
1629724987819,0.3944007158279419,0.5841376781463623,0.2403188347816467,0.3540768921375274
1629724987884,0.3944007158279419,0.5841376781463623,0.2611027956008911,0.3540768921375274
1629724988024,0.3944007158279419,0.5841376781463623,0.2507906258106231,0.3540768921375274
1629724988106,0.3944007158279419,0.5841376781463623,0.193012848496437,0.3540768921375274
1629724988219,0.3944007158279419,0.5841376781463623,0.0778530016541481,0.3540768921375274
1629724988308,0.3944007158279419,0.5841376781463623,0.0778530016541481,0.3540768921375274
1629724988421,0.3944007158279419,0.5841376781463623,0.0778530016541481,0.3540768921375274
1629724988482,0.3944007158279419,0.5841376781463623,0.0778530016541481,0.3540768921375274
1629724988640,0.3944007158279419,0.5841376781463623,0.0778530016541481,0.3540768921375274
1629724988740,0.3944007158279419,0.5841376781463623,0.0778530016541481,0.3540768921375274
1629724988803,0.3944007158279419,0.5841376781463623,0.0778530016541481,0.3540768921375274
1629724988889,0.3944007158279419,0.5841376781463623,0.0778530016541481,0.3540768921375274
1629724988991,0.3944007158279419,0.5841376781463623,0.0778530016541481,0.3540768921375274
1629724989136,0.3944007158279419,0.5841376781463623,0.0778530016541481,0.3540768921375274
1629724989232,0.3944007158279419,0.5841376781463623,0.0778530016541481,0.3540768921375274
1629724989303,0.3944007158279419,0.5841376781463623,0.0778530016541481,0.3540768921375274
1629724989426,0.3944007158279419,0.5841376781463623,0.0778530016541481,0.3540768921375274
1629724989515,0.3944007158279419,0.5841376781463623,0.0778530016541481,0.3540768921375274
1629724989623,0.3944007158279419,0.5841376781463623,0.0778530016541481,0.3540768921375274
1629724989736,0.3944007158279419,0.5841376781463623,0.0778530016541481,0.3540768921375274
1629724989832,0.3944007158279419,0.5841376781463623,0.0778530016541481,0.3540768921375274
1629724989944,0.3944007158279419,0.5841376781463623,0.0778530016541481,0.3540768921375274
1629724990043,0.3944007158279419,0.5841376781463623,0.0778530016541481,0.3540768921375274
1629724990169,0.3944007158279419,0.5841376781463623,0.0778530016541481,0.3540768921375274
1629724990264,0.3944007158279419,0.5841376781463623,0.0778530016541481,0.3540768921375274
1629724990374,0.3944007158279419,0.5841376781463623,0.0778530016541481,0.3540768921375274
1629724990513,0.3944007158279419,0.5631586313247681,0.0778530016541481,0.3540768921375274
1629724990537,0.3944007158279419,0.60637366771698,0.0778530016541481,0.3540768921375274
1629724990615,0.3944007158279419,0.6258575916290283,0.0778530016541481,0.3540768921375274
1629724990731,0.3944007158279419,0.6344215869903564,0.0778530016541481,0.3540768921375274
1629724990902,0.3944007158279419,0.631040632724762,0.449590116739273,0.3540768921375274
1629724990934,0.3944007158279419,0.6256809234619141,0.4281407296657562,0.3540768921375274
1629724991074,0.3944007158279419,0.6247722506523132,0.4141661822795868,0.3540768921375274
1629724991189,0.3944007158279419,0.6192630529403687,0.4201822280883789,0.5724960565567017
1629724991222,0.3944007158279419,0.6090356707572937,0.4147210121154785,0.5877047777175903
1629724991391,0.3944007158279419,0.6040921807289124,0.3719168901443481,0.5847563147544861
1629724991438,0.3944007158279419,0.5897560715675354,0.3313243389129638,0.5685680508613586
1629724991571,0.3944007158279419,0.5780616402626038,0.3131575584411621,0.544886589050293
1629724991664,0.3944007158279419,0.5667708516120911,0.3073094487190246,0.5215967297554016
1629724991726,0.3944007158279419,0.5615158081054688,0.305484265089035,0.4967559576034546
1629724991891,0.3944007158279419,0.5620418787002563,0.3028055429458618,0.4701163172721863
1629724991940,0.3944007158279419,0.5515910387039185,0.301679253578186,0.4444092512130737
1629724992108,0.3944007158279419,0.5317168831825256,0.3057752549648285,0.4214566051959991
1629724992224,0.3944007158279419,0.5121240019798279,0.3134912252426147,0.402794748544693
1629724992286,0.3944007158279419,0.4950707852840423,0.3257381319999695,0.3902225494384765
1629724992439,0.3944007158279419,0.4883577227592468,0.3397178053855896,0.3787150681018829
1629724992473,0.3944007158279419,0.4895319044589996,0.3474640548229217,0.3620017766952514
1629724992567,0.3944007158279419,0.4831505715847015,0.3538490533828735,0.3344078660011291
1629724992722,0.3944007158279419,0.4786279499530792,0.3490446805953979,0.2922157347202301
1629724992858,0.3944007158279419,0.4744980633258819,0.3476326763629913,0.2501278519630432
1629724992886,0.3944007158279419,0.471390038728714,0.3490068018436432,0.2142182439565658
1629724992964,0.3944007158279419,0.4795824289321899,0.3582503199577331,0.1946940720081329
1629724993106,0.3944007158279419,0.4898372292518616,0.3720701336860657,0.1962215602397918
1629724993206,0.3944007158279419,0.4947949051856994,0.3838746547698974,0.2033261805772781
1629724993414,0.3944007158279419,0.4975284337997436,0.3959249258041382,0.2184846401214599
1629724993415,0.3944007158279419,0.4945246875286102,0.4148561954498291,0.2290331721305847
1629724993514,0.3944007158279419,0.4916895627975464,0.4335106313228607,0.244115874171257
1629724993592,0.3944007158279419,0.4986622929573059,0.4498148262500763,0.2609886825084686
1629724993724,0.3944007158279419,0.5087598562240601,0.4599186778068542,0.2766935527324676
1629724993790,0.3944007158279419,0.5188885927200317,0.4583498537540436,0.2867938578128814
1629724993934,0.3944007158279419,0.5216857194900513,0.4528612196445465,0.2910372316837311
1629724994032,0.3944007158279419,0.5148231387138367,0.4426933228969574,0.2915456295013428
1629724994110,0.3944007158279419,0.5107296109199524,0.4332437813282013,0.2884134948253631
1629724994189,0.3944007158279419,0.5056139230728149,0.430845558643341,0.2955743670463562
1629724994295,0.3944007158279419,0.504000723361969,0.4341793656349182,0.308042049407959
1629724994445,0.3944007158279419,0.5069913268089294,0.4424225687980652,0.3307883143424988
1629724994555,0.3944007158279419,0.5050793290138245,0.4439924955368042,0.3307883143424988
1629724994673,0.3944007158279419,0.5020993947982788,0.441563218832016,0.3307883143424988
1629724994804,0.3944007158279419,0.4833191335201263,0.4243979454040527,0.3307883143424988
1629724994808,0.3944007158279419,0.4965463578701019,0.434682160615921,0.3307883143424988
1629724995005,0.3944007158279419,0.4728912115097046,0.4124562740325928,0.3307883143424988
1629724995022,0.3944007158279419,0.464874804019928,0.3987494707107544,0.3307883143424988
1629724995104,0.3944007158279419,0.4560674726963043,0.378971129655838,0.3307883143424988
1629724995290,0.3944007158279419,0.4501358866691589,0.3603658974170685,0.2697438597679138
1629724995336,0.3944007158279419,0.4386458396911621,0.34541916847229,0.2573793530464172
1629724995408,0.3944007158279419,0.4299143552780151,0.3376102447509765,0.2427415996789932
1629724995591,0.3944007158279419,0.4260059297084808,0.3452512323856354,0.2349852174520492
1629724995641,0.3944007158279419,0.4232875406742096,0.3566467761993408,0.2357675284147262
1629724995753,0.3944007158279419,0.4306968152523041,0.3664749264717102,0.2347757518291473
1629724995873,0.3944007158279419,0.4375998973846435,0.3683840036392212,0.2235941290855407
1629724995924,0.3944007158279419,0.4417082369327545,0.3603401184082031,0.2067962884902954
1629724996035,0.3944007158279419,0.4442724883556366,0.3571498394012451,0.1897413283586502
1629724996097,0.3944007158279419,0.4439993798732757,0.3584215939044952,0.1791118830442428
1629724996248,0.3944007158279419,0.447873592376709,0.3683148324489593,0.1789730638265609
1629724996390,0.3944007158279419,0.4599122703075409,0.3819026052951813,0.1834134459495544
1629724996431,0.3944007158279419,0.4683026075363159,0.3859927356243133,0.1848712563514709
1629724996523,0.3944007158279419,0.4694561064243316,0.3847078680992126,0.1813526302576065
1629724996690,0.3944007158279419,0.465051919221878,0.3799175322055816,0.1743767708539962
1629724996738,0.3944007158279419,0.4550002515316009,0.3740888833999634,0.1748062670230865
1629724996800,0.3944007158279419,0.4483419060707092,0.3738446533679962,0.1830302029848098
1629724996982,0.3944007158279419,0.4423616230487823,0.3720917105674743,0.1974921524524688
1629724997031,0.3944007158279419,0.4356307983398437,0.3650916218757629,0.2114362269639969
1629724997156,0.3944007158279419,0.4249469041824341,0.3525483012199402,0.2194356024265289
1629724997243,0.3944007158279419,0.40585857629776,0.3338044285774231,0.2274862229824066
1629724997338,0.3944007158279419,0.3905666172504425,0.3159621357917785,0.2395917773246765
1629724997459,0.3944007158279419,0.3783618509769439,0.3004818558692932,0.2533169090747833
1629724997599,0.3944007158279419,0.3729274868965149,0.2855641841888428,0.269819051027298
1629724997678,0.3944007158279419,0.3769469559192657,0.2735233604907989,0.2829505801200866
1629724997758,0.3944007158279419,0.3711755275726318,0.2541748583316803,0.2901133298873901
1629724997901,0.3944007158279419,0.3599016368389129,0.2361595779657364,0.2939485907554626
1629724997964,0.3944007158279419,0.3461760878562927,0.2327819168567657,0.2971987426280975
1629724997994,0.3944007158279419,0.333762377500534,0.2467234581708908,0.3045637011528015
1629724998189,0.3944007158279419,0.324535459280014,0.2829646170139313,0.3133693039417267
1629724998249,0.3944007158279419,0.3171712458133697,0.3234568238258362,0.3174606263637543
1629724998413,0.3944007158279419,0.3106449544429779,0.3639775216579437,0.3189053535461426
1629724998475,0.3944007158279419,0.3044604957103729,0.3996657133102417,0.3140448629856109
1629724998625,0.3944007158279419,0.2997314631938934,0.4314843714237213,0.3037022352218628
1629724998628,0.3944007158279419,0.3099798560142517,0.4597626030445099,0.2936583161354065
1629724998785,0.3944007158279419,0.3350507915019989,0.478502482175827,0.2936583161354065
1629724998889,0.3944007158279419,0.3350507915019989,0.4943486452102661,0.2936583161354065
1629724998972,0.3944007158279419,0.3350507915019989,0.5057299137115479,0.2936583161354065
1629724999172,0.3944007158279419,0.3350507915019989,0.5188612937927246,0.2936583161354065
1629724999185,0.3944007158279419,0.3350507915019989,0.5144037008285522,0.2936583161354065
1629724999270,0.3944007158279419,0.5855164527893066,0.5190361142158508,0.2824071645736694
1629724999427,0.3944007158279419,0.5815848112106323,0.5137202143669128,0.2511042654514313
1629724999477,0.3944007158279419,0.5790221095085144,0.5056480169296265,0.2329002916812896
1629724999625,0.3944007158279419,0.5703105926513672,0.4937135577201843,0.2329002916812896
1629724999707,0.3944007158279419,0.5589302778244019,0.4783637225627899,0.2329002916812896
1629724999820,0.3944007158279419,0.5556677579879761,0.460203617811203,0.2329002916812896
1629724999906,0.3944007158279419,0.5617131590843201,0.4358251094818115,0.2329002916812896
1629724999989,0.3944007158279419,0.5791102647781372,0.4131348431110382,0.2329002916812896
1629725000107,0.3944007158279419,0.5791102647781372,0.389720469713211,0.2329002916812896
1629725000186,0.3944007158279419,0.5791102647781372,0.374698132276535,0.2329002916812896
1629725000389,0.3944007158279419,0.5791102647781372,0.3694515228271484,0.2329002916812896
1629725000543,0.3944007158279419,0.5791102647781372,0.3637020885944366,0.2329002916812896
1629725000631,0.3944007158279419,0.5742624402046204,0.3587228059768677,0.190301775932312
1629725000658,0.3944007158279419,0.5718830823898315,0.3503310680389404,0.1630173325538635
1629725000812,0.3944007158279419,0.5771423578262329,0.342951625585556,0.1630173325538635
1629725000892,0.3944007158279419,0.5703088641166687,0.3434414863586426,0.1630173325538635
1629725000925,0.3944007158279419,0.5622411370277405,0.3487190008163452,0.1630173325538635
1629725001019,0.3944007158279419,0.5471740961074829,0.3527338802814483,0.1630173325538635
1629725001084,0.3944007158279419,0.5441965460777283,0.3566469550132751,0.1630173325538635
1629725001251,0.3944007158279419,0.5458582043647766,0.3486254513263702,0.1630173325538635
1629725001297,0.3944007158279419,0.5349925756454468,0.3362530171871185,0.1630173325538635
1629725001477,0.3944007158279419,0.5032011270523071,0.322540134191513,0.3797620832920074
1629725001535,0.3944007158279419,0.4361425340175628,0.3028459250926971,0.3538292944431305
1629725001610,0.3944007158279419,0.4184831082820892,0.2848558127880096,0.3394425511360168
1629725001944,0.3944007158279419,0.4094020426273346,0.2347988486289978,0.3362315893173218
1629725001998,0.3944007158279419,0.4172399044036865,0.2166981697082519,0.3421613276004791
1629725002027,0.3944007158279419,0.4259924590587616,0.2101606875658035,0.3595565557479858
1629725002139,0.3944007158279419,0.4320065379142761,0.2122687697410583,0.3926651179790497
1629725002320,0.3944007158279419,0.4345064461231231,0.2203936576843261,0.4369040727615356
1629725002373,0.3944007158279419,0.4271442294120788,0.2339910864830017,0.4770352840423584
1629725002483,0.3944007158279419,0.4240168333053589,0.2515561580657959,0.5050246715545654
1629725002544,0.3944007158279419,0.4279943108558655,0.2663838267326355,0.516065239906311
1629725002627,0.3944007158279419,0.4306048452854156,0.2725915908813476,0.5158557295799255
1629725002725,0.3944007158279419,0.4294816553592682,0.2743717730045318,0.5153132081031799
1629725002815,0.3944007158279419,0.4292330145835876,0.2733306586742401,0.5136336088180542
1629725002893,0.3944007158279419,0.4320861995220184,0.2797091007232666,0.5124037265777588
1629725003154,0.3944007158279419,0.4395652413368225,0.2918181717395782,0.5090295672416687
1629725003184,0.3944007158279419,0.4490216374397278,0.3016394674777984,0.5076862573623657
1629725003233,0.3944007158279419,0.4563354253768921,0.3071243464946747,0.5063251256942749
1629725003310,0.3944007158279419,0.4598764181137085,0.3094959259033203,0.506588876247406
1629725003400,0.3944007158279419,0.4507500529289245,0.306738406419754,0.5041954517364502
1629725003525,0.3944007158279419,0.439717561006546,0.3069755434989929,0.4957900643348694
1629725003721,0.3944007158279419,0.4295410513877868,0.3127089440822601,0.484237402677536
1629725003740,0.3944007158279419,0.4207138121128082,0.3156775832176208,0.4547967314720154
1629725003861,0.3944007158279419,0.4153989553451538,0.3153226375579834,0.4103496372699737
1629725003991,0.3944007158279419,0.4058996737003326,0.304293155670166,0.3578446507453918
1629725004095,0.3944007158279419,0.3952502012252807,0.289005696773529,0.3147135376930237
1629725004132,0.3944007158279419,0.3878421783447265,0.2788534164428711,0.2646040618419647
1629725004291,0.3944007158279419,0.3911297917366028,0.2771013379096985,0.2337161004543304
1629725004374,0.3944007158279419,0.4028669893741607,0.2833304107189178,0.2215068340301513
1629725004491,0.3944007158279419,0.418605774641037,0.2863276898860931,0.2149763405323028
1629725004615,0.3944007158279419,0.4325056374073028,0.2850233614444732,0.2168362736701965
1629725004823,0.3944007158279419,0.4359920620918274,0.2827926278114319,0.2153501808643341
1629725004890,0.3944007158279419,0.4297183752059936,0.2793394029140472,0.2123307883739471
1629725004941,0.3944007158279419,0.4285004138946533,0.2789038717746734,0.1971912831068039
1629725005000,0.3944007158279419,0.4341159164905548,0.2871049046516418,0.176075279712677
1629725005064,0.3944007158279419,0.4403853118419647,0.2911894023418426,0.1470309644937515
1629725005156,0.3944007158279419,0.4478462338447571,0.2894943654537201,0.1470309644937515
1629725005316,0.3944007158279419,0.4582171142101288,0.2853887379169464,0.1470309644937515
1629725005343,0.3944007158279419,0.4686405062675476,0.2725888192653656,0.1470309644937515
1629725005478,0.3944007158279419,0.4857341051101684,0.2665521800518036,0.1470309644937515
1629725005589,0.3944007158279419,0.5042566657066345,0.265323132276535,0.1470309644937515
1629725005672,0.3944007158279419,0.5156237483024597,0.2632502913475036,0.1619182676076889
1629725005824,0.3944007158279419,0.5168949365615845,0.2641273140907287,0.1778443604707718
1629725005868,0.3944007158279419,0.4573621451854706,0.2591489255428314,0.191341146826744
1629725005948,0.3944007158279419,0.3849978446960449,0.2769454717636108,0.191341146826744
1629725006105,0.3944007158279419,0.2916228473186493,0.2866456806659698,0.191341146826744
1629725006169,0.3944007158279419,0.1982273757457733,0.2837818562984466,0.191341146826744
1629725006366,0.3944007158279419,0.1336560249328613,0.293124794960022,0.191341146826744
1629725006413,0.3944007158279419,0.1306786984205246,0.3071229159832001,0.191341146826744
1629725006572,0.3944007158279419,0.136155754327774,0.2968250513076782,0.3425462543964386
1629725006658,0.3944007158279419,0.1427787393331527,0.2868330776691437,0.3268965482711792
1629725006735,0.3944007158279419,0.1577150225639343,0.271051675081253,0.3070203065872192
1629725006884,0.3944007158279419,0.1710852980613708,0.2539397776126861,0.2859311997890472
1629725006915,0.3944007158279419,0.180249884724617,0.2389607578516006,0.2653396427631378
1629725007057,0.3944007158279419,0.1890390515327453,0.2359439730644226,0.2559089660644531
1629725007123,0.3944007158279419,0.1919894963502884,0.243949294090271,0.2562119364738464
1629725007187,0.3944007158279419,0.1993401795625686,0.2574882507324219,0.2654957175254822
1629725007284,0.3944007158279419,0.2126478105783462,0.2706738710403442,0.2748363614082336
1629725007453,0.3944007158279419,0.2326112538576126,0.2728761732578277,0.284306913614273
1629725007515,0.3944007158279419,0.2685434818267822,0.2644422948360443,0.2967436909675598
1629725007593,0.3944007158279419,0.3143322169780731,0.2583919465541839,0.3071674108505249
1629725007671,0.3944007158279419,0.3605112135410309,0.2573534846305847,0.30872642993927
1629725007776,0.3944007158279419,0.4026285707950592,0.2620860040187835,0.3175837397575378
1629725007921,0.3944007158279419,0.4364976584911346,0.2718966901302337,0.3347761929035187
1629725008085,0.3944007158279419,0.4685139656066894,0.2940193116664886,0.3607756793498993
1629725008147,0.3944007158279419,0.4976911842823028,0.3236908912658691,0.3952821791172027
1629725008196,0.3944007158279419,0.5169371366500854,0.3505031764507293,0.4236944913864136
1629725008290,0.3944007158279419,0.5312192440032959,0.3730369508266449,0.4456115067005157
1629725008426,0.3944007158279419,0.5406927466392517,0.3967201709747314,0.4608741104602813
1629725008536,0.3944007158279419,0.5485497713088989,0.4183746576309204,0.4653447270393371
1629725008624,0.3944007158279419,0.5571310520172119,0.4353893101215362,0.463301420211792
1629725008763,0.3944007158279419,0.5610074400901794,0.4424995183944702,0.4533818662166595
1629725008809,0.3944007158279419,0.561251699924469,0.4386266767978668,0.4589892029762268
1629725008892,0.3944007158279419,0.5584657192230225,0.4384698569774627,0.4642370939254761
1629725009002,0.3944007158279419,0.5470755696296692,0.4386580288410187,0.4667791724205017
1629725009270,0.3944007158279419,0.5333015322685242,0.4407326281070709,0.4698338210582733
1629725009418,0.3944007158279419,0.516825795173645,0.44110968708992,0.4744784832000732
1629725009448,0.3944007158279419,0.4978589415550232,0.4321695864200592,0.4749990403652191
1629725009526,0.3944007158279419,0.4599117040634155,0.396811306476593,0.4482844471931457
1629725009530,0.3944007158279419,0.4819738566875458,0.418877363204956,0.47034552693367
1629725009620,0.3944007158279419,0.4346642196178436,0.3674692213535309,0.3977358937263489
1629725009736,0.3944007158279419,0.4122188687324524,0.3461264967918396,0.3392567038536072
1629725009848,0.3944007158279419,0.3902398943901062,0.3269210457801819,0.273320198059082
1629725009971,0.3944007158279419,0.3731071949005127,0.3054112493991852,0.273320198059082
1629725010023,0.3944007158279419,0.353273868560791,0.2754070162773132,0.273320198059082
1629725010135,0.3944007158279419,0.32953941822052,0.2374145537614822,0.273320198059082
1629725010226,0.3944007158279419,0.3109039962291717,0.2084676027297973,0.273320198059082
1629725010340,0.3944007158279419,0.2973896563053131,0.195556178689003,0.273320198059082
1629725010457,0.3944007158279419,0.2895734310150146,0.1874410361051559,0.273320198059082
1629725010551,0.3944007158279419,0.2891488969326019,0.1832080632448196,0.280888170003891
1629725010665,0.3944007158279419,0.2830348610877991,0.16928631067276,0.2700285315513611
1629725010773,0.3944007158279419,0.2749213576316833,0.1542229652404785,0.2659151554107666
1629725010836,0.3944007158279419,0.2601042687892914,0.1450429111719131,0.2709530591964721
1629725010992,0.3944007158279419,0.2449728697538375,0.1477954387664795,0.2821011543273926
1629725011089,0.3944007158279419,0.2367569506168365,0.1644176393747329,0.2951384484767914
1629725011152,0.3944007158279419,0.2362899482250213,0.1844114810228347,0.2971277236938476
1629725011292,0.3944007158279419,0.2449269443750381,0.2007612735033035,0.2915201187133789
1629725011371,0.3944007158279419,0.256885677576065,0.2094500511884689,0.2776898741722107
1629725011448,0.3944007158279419,0.271984189748764,0.2154682427644729,0.2666967511177063
1629725011571,0.3944007158279419,0.2865135073661804,0.223829373717308,0.2637328505516052
1629725011672,0.3944007158279419,0.301475316286087,0.2347842454910278,0.2677479386329651
1629725011753,0.3944007158279419,0.312050998210907,0.2467190325260162,0.2743054032325744
1629725011904,0.3944007158279419,0.3194698393344879,0.2569854259490967,0.2733913958072662
1629725011969,0.3944007158279419,0.3221948742866516,0.2592012882232666,0.2707237601280212
1629725012032,0.3944007158279419,0.3178903460502624,0.2578615844249725,0.2619090676307678
1629725012239,0.3944007158279419,0.3170678317546844,0.2618745565414428,0.2581861615180969
1629725012256,0.3944007158279419,0.320566862821579,0.2701127827167511,0.2589413523674011
1629725012510,0.3944007158279419,0.3338865637779236,0.2864716947078705,0.2617161870002746
1629725012556,0.3944007158279419,0.3457459807395935,0.2920867800712585,0.2611104249954223
1629725012640,0.3944007158279419,0.3554043173789978,0.2880406081676483,0.2523919939994812
1629725012670,0.3944007158279419,0.3549226224422455,0.2771821320056915,0.2437166720628738
1629725012873,0.3944007158279419,0.3455305695533752,0.2642217874526977,0.238987922668457
1629725012906,0.3944007158279419,0.3353931307792663,0.2677540183067322,0.2494169622659683
1629725012993,0.3944007158279419,0.3249974548816681,0.2772623896598816,0.2653876841068268
1629725013173,0.3944007158279419,0.3296744525432586,0.2923194468021393,0.2810853123664856
1629725013199,0.3944007158279419,0.3477916717529297,0.3020144999027252,0.2863647639751434
1629725013269,0.3944007158279419,0.3718402981758117,0.3004964292049408,0.2788451313972473
1629725013391,0.3944007158279419,0.3906123340129852,0.2971634864807129,0.2766050994396209
1629725013546,0.3944007158279419,0.4026323854923248,0.2955175340175628,0.2815335988998413
1629725013640,0.3944007158279419,0.4079899489879608,0.2973963022232055,0.2932750880718231
1629725013760,0.3944007158279419,0.4133133888244629,0.3074716031551361,0.3081688284873962
1629725013773,0.3944007158279419,0.4098730385303497,0.3025796711444855,0.3036998212337494
