timestamp,TP9,AF7,AF8,TP10
1631106796174,0.5963433384895325,0.084348477423191,0.3359288573265075,0.4903349578380584
1631106796267,0.5948513150215149,0.0694906190037727,0.3489584624767303,0.4889612197875976
1631106796361,0.588781476020813,0.058713212609291,0.3601543605327606,0.4872445166110992
1631106796455,0.576835572719574,0.053092110902071,0.3719444870948791,0.4821913242340088
1631106796533,0.5619873404502869,0.0502776578068733,0.3857737183570862,0.474210262298584
1631106796611,0.5471283793449402,0.0479335896670818,0.401712566614151,0.465874433517456
1631106796783,0.5331392288208008,0.045279212296009,0.4168818295001983,0.4583423137664795
1631106796876,0.5114584565162659,0.041127223521471,0.4282112419605255,0.4519443213939667
1631106796970,0.4814436733722687,0.0369231589138507,0.4368855655193329,0.4484068155288696
1631106797064,0.4471892416477203,0.036204170435667,0.4461460411548614,0.4516328275203705
1631106797142,0.4223500192165375,0.0408501364290714,0.4555240571498871,0.4617559015750885
1631106797251,0.4137468636035919,0.0457295775413513,0.4578449726104736,0.4736360907554626
1631106797376,0.4009918570518493,0.0439357347786426,0.4460846185684204,0.4836382269859314
1631106797501,0.3893104791641235,0.0357444211840629,0.4215639233589172,0.4854746162891388
1631106797595,0.3756591975688934,0.0297148395329713,0.3930616378784179,0.4904868900775909
1631106797658,0.3617057800292969,0.035357791930437,0.3693136274814605,0.4998917281627655
1631106797767,0.350380003452301,0.0515869036316871,0.3528700768947601,0.5130210518836975
1631106797861,0.3485950529575348,0.0687051936984062,0.3409038484096527,0.5284751653671265
1631106797986,0.3588918447494507,0.0772762447595596,0.3295142352581024,0.5444130897521973
1631106798079,0.3774488568305969,0.0756537541747093,0.3158037066459656,0.5432794690132141
1631106798160,0.4028559923171997,0.0702401250600814,0.2989861965179443,0.5272658467292786
1631106798285,0.4314978122711181,0.0691170692443847,0.2818450331687927,0.5022771954536438
1631106798363,0.4730826020240783,0.0748978108167648,0.2666107714176178,0.4768563508987427
1631106798457,0.4730826020240783,0.0822943076491355,0.2499553859233856,0.4561460018157959
1631106798613,0.4730826020240783,0.0848541781306266,0.2271668314933776,0.4375407695770263
1631106798691,0.4730826020240783,0.0821813344955444,0.199426382780075,0.4144424200057983
1631106798800,0.4730826020240783,0.079376496374607,0.1756144762039184,0.3839508295059204
1631106798879,0.6855924129486084,0.0801554545760154,0.1660102903842926,0.3466399312019348
1631106798988,0.65324866771698,0.0820621624588966,0.1723217815160751,0.3398308753967285
1631106799066,0.6306276917457581,0.080008864402771,0.1869298219680786,0.3365830779075622
1631106799191,0.6153836250305176,0.0701186656951904,0.1990870982408523,0.3376638293266296
1631106799300,0.601437509059906,0.0537669174373149,0.2011837065219879,0.3429205119609833
1631106799394,0.585564374923706,0.0375372879207134,0.192398726940155,0.3532242476940155
1631106799488,0.5716565251350403,0.0294826459139585,0.178414449095726,0.3546298444271087
1631106799582,0.5639321804046631,0.0304176080971956,0.1654610782861709,0.3735525012016296
1631106799675,0.5629071593284607,0.0324666574597358,0.1550429165363311,0.3978621363639831
1631106799816,0.5643824934959412,0.0279177110642194,0.1453954726457595,0.4187163710594177
1631106799910,0.5632005333900452,0.019195307046175,0.1389102935791015,0.4371747076511383
1631106800019,0.5585144758224487,0.0167072340846061,0.1451256275177002,0.4585759043693542
1631106800113,0.538733184337616,0.0287611559033393,0.1684148758649826,0.483697235584259
1631106800225,0.5285388231277466,0.0551687926054,0.2009543925523758,0.5087060928344727
1631106800287,0.5420210361480713,0.0903478935360908,0.2328328639268875,0.5304240584373474
1631106800443,0.57668536901474,0.1279312819242477,0.259951114654541,0.5482470989227295
1631106800538,0.6149594783782959,0.1615319848060608,0.2826544940471649,0.5620144009590149
1631106800600,0.6398366093635559,0.1850171536207199,0.3011723160743713,0.5713034868240356
1631106800693,0.6470490097999573,0.1965388506650924,0.3148657083511352,0.5773683786392212
1631106800803,0.6442083716392517,0.1994665563106537,0.3245202600955963,0.5833430886268616
1631106800881,0.6410828828811646,0.1987752020359039,0.3328074216842651,0.5909352898597717
1631106801021,0.6420348882675171,0.1974281370639801,0.3421583175659179,0.5977092981338501
1631106801115,0.6445052027702332,0.1959268897771835,0.3529504537582397,0.6006711721420288
1631106801196,0.6504462361335754,0.1948089748620987,0.3648586571216583,0.5992385149002075
1631106801321,0.6553093791007996,0.195450946688652,0.3774054646492004,0.6003305912017822
1631106801399,0.6631909608840942,0.1978847831487655,0.3907083570957184,0.6021372675895691
1631106801509,0.6761634349822998,0.1994794458150863,0.403268814086914,0.6004725694656372
1631106801650,0.6900417804718018,0.1957625746726989,0.4130344688892364,0.5936223864555359
1631106801743,0.6960999965667725,0.1818465739488601,0.420455127954483,0.5842556953430176
1631106801868,0.6819989681243896,0.1551026403903961,0.4278075993061065,0.576472818851471
1631106801915,0.638829231262207,0.1187576577067375,0.4366730749607086,0.5732174515724182
1631106802040,0.5672470927238464,0.0835388153791427,0.4460706710815429,0.5769598484039307
1631106802165,0.4879143834114074,0.0636736527085304,0.4536841213703155,0.5905733704566956
1631106802303,0.4409428834915161,0.0647360756993293,0.4579459428787231,0.6141307950019836
1631106802367,0.4409428834915161,0.0799989327788353,0.4590734541416168,0.6141307950019836
1631106802459,0.4409428834915161,0.0993983671069145,0.4579490423202514,0.6141307950019836
1631106802570,0.4409428834915161,0.1174326911568641,0.455051064491272,0.6141307950019836
1631106802640,0.4409428834915161,0.1331408619880676,0.4510875344276428,0.6141307950019836
1631106802781,0.4409428834915161,0.1460687667131424,0.4468494057655334,0.6321958303451538
1631106802859,0.4409428834915161,0.1543017476797104,0.4431967139244079,0.6544370651245117
1631106802939,0.4409428834915161,0.1560060083866119,0.4399259686470032,0.671776294708252
1631106803030,0.6103651523590088,0.1515990197658538,0.4366221129894256,0.6803138256072998
1631106803157,0.6308218836784363,0.1449219286441803,0.4336520731449127,0.6813157796859741
1631106803237,0.6240490078926086,0.1426147222518921,0.4309092462062835,0.6759131550788879
1631106803346,0.6126302480697632,0.148638978600502,0.4256365299224853,0.6654434204101562
1631106803470,0.6162931323051453,0.1599563211202621,0.4140323400497436,0.6534205675125122
1631106803565,0.6389935612678528,0.1684029549360275,0.3949586749076843,0.6455819010734558
1631106803660,0.6697312593460083,0.1678930222988128,0.3723056614398956,0.6443819999694824
1631106803751,0.6938218474388123,0.1590125560760498,0.3525501787662506,0.6468119025230408
1631106803840,0.7037453055381775,0.1474456340074539,0.3401650786399841,0.6470735669136047
1631106803934,0.7184644937515259,0.1392112076282501,0.3366331756114959,0.6408801078796387
1631106804091,0.7257875800132751,0.134211927652359,0.3425786793231964,0.6362568736076355
1631106804155,0.7118760347366333,0.1272018849849701,0.3574489951133728,0.6304675340652466
1631106804264,0.6996755599975586,0.1133483722805976,0.3781926035881042,0.6207007169723511
1631106804373,0.6903921961784363,0.0943275317549705,0.3997477889060974,0.6074907183647156
1631106804450,0.6810243725776672,0.0773190483450889,0.4161679148674011,0.5957921743392944
1631106804546,0.672814130783081,0.0683905035257339,0.4232998490333557,0.5905972123146057
1631106804685,0.6708293557167053,0.0663742125034332,0.4236530661582947,0.5916631817817688
1631106804782,0.6746478080749512,0.0648897588253021,0.4268949031829834,0.5947070121765137
1631106804871,0.6780575513839722,0.0597579702734947,0.4421479701995849,0.5959163904190063
1631106804973,0.6728651523590088,0.0529836155474185,0.4682216942310333,0.5928914546966553
1631106805090,0.6539350748062134,0.0501043200492858,0.4978627264499664,0.5826014876365662
1631106805153,0.6221862435340881,0.0539189279079437,0.5276373028755188,0.5633447170257568
1631106805296,0.5865312218666077,0.0615193210542202,0.5574173331260681,0.5380153059959412
1631106805374,0.5590506196022034,0.0663714408874511,0.5843545794487,0.5137512683868408
1631106805483,0.5441980957984924,0.0632274001836776,0.6036902666091919,0.4960994720458984
1631106805577,0.5366401672363281,0.0552512630820274,0.6133995652198792,0.4837329983711242
1631106805671,0.5292854905128479,0.0534298121929168,0.6152128577232361,0.4728583693504333
1631106805775,0.5211902856826782,0.0665812194347381,0.6114522218704224,0.4636171758174896
1631106805900,0.5128229856491089,0.0893682017922401,0.6028704643249512,0.4565386474132538
1631106805993,0.5025564432144165,0.1073942631483078,0.5912455916404724,0.4470828473567962
1631106806103,0.4873718023300171,0.1108430922031402,0.5800831913948059,0.4290948510169983
1631106806197,0.4678169786930084,0.1005254611372947,0.5703561902046204,0.4020135402679443
1631106806274,0.4483253359794616,0.0837997049093246,0.5589082837104797,0.3736888170242309
1631106806418,0.4358653724193573,0.069513663649559,0.5427575707435608,0.3540692925453186
1631106806496,0.4361592829227447,0.0654112920165062,0.5236510038375854,0.3477078676223755
1631106806621,0.4485390782356262,0.0742235630750656,0.5047000050544739,0.3529002368450165
1631106806731,0.4687967002391815,0.0900778472423553,0.4843862056732178,0.365138977766037
1631106806793,0.4912715852260589,0.1031919494271278,0.4592070579528808,0.379043698310852
1631106806887,0.5107809901237488,0.1082648411393165,0.4322006404399872,0.3902002274990082
1631106806996,0.523980975151062,0.106858991086483,0.41194549202919,0.3962350487709045
1631106807121,0.530314028263092,0.101959116756916,0.4041885733604431,0.3979982733726501
1631106807230,0.5320218801498413,0.0929261371493339,0.4085458815097809,0.3975477814674377
1631106807309,0.531172513961792,0.0795899555087089,0.422586441040039,0.394936054944992
1631106807407,0.52934330701828,0.0683382526040077,0.4450122117996216,0.3877610266208648
1631106807485,0.5276386737823486,0.0683014020323753,0.4713477194309234,0.3748698830604553
1631106807579,0.5284392833709717,0.0827091261744499,0.4946644306182861,0.3591460287570953
1631106807735,0.5332779884338379,0.1068615391850471,0.5106686949729919,0.3444580733776092
1631106807829,0.5413036942481995,0.1325595825910568,0.5182674527168274,0.3320528864860534
1631106807923,0.5482264161109924,0.1518575996160507,0.5179194808006287,0.3204080462455749
1631106808001,0.5496836304664612,0.1585323810577392,0.5108445882797241,0.3080821931362152
1631106808126,0.5465665459632874,0.1512671411037445,0.4993323087692261,0.2954213321208954
1631106808204,0.5422991514205933,0.1358561515808105,0.4865629374980926,0.2898378372192383
1631106808345,0.5383998155593872,0.1225099563598632,0.4755142033100128,0.3053961992263794
1631106808425,0.5330933332443237,0.1182243227958679,0.4668912291526794,0.3516310155391693
1631106808566,0.5254319310188293,0.1218075230717659,0.4603394567966461,0.4191266298294067
1631106808666,0.5190857648849487,0.1260029077529907,0.4540669918060303,0.4862404465675354
1631106808713,0.5206061005592346,0.1248698234558105,0.4450506865978241,0.5370535850524902
1631106808822,0.533764660358429,0.116892971098423,0.4304724633693695,0.5689494609832764
1631106808962,0.5538149476051331,0.1047099456191062,0.4085162281990051,0.5884634256362915
1631106809059,0.5724633932113647,0.0930099040269851,0.3803028464317322,0.6033916473388672
1631106809139,0.5837365388870239,0.0846335068345069,0.3499838411808014,0.6172243356704712
1631106809233,0.5867380499839783,0.0782768055796623,0.3224333524703979,0.6290909051895142
1631106809358,0.5847938656806946,0.0727186501026153,0.3005780875682831,0.6379257440567017
1631106809436,0.5821790099143982,0.0701261684298515,0.2838315367698669,0.6451153755187988
1631106809547,0.5794253945350647,0.0732863694429397,0.2690265774726867,0.65323406457901
1631106809665,0.574333667755127,0.0800908207893371,0.2548982203006744,0.6637440323829651
1631106809740,0.5644746422767639,0.0850193202495575,0.242965891957283,0.6733732223510742
1631106809838,0.5530322194099426,0.0839342698454856,0.2345971912145614,0.6744914054870605
1631106809954,0.5479258894920349,0.0773345977067947,0.2287504076957702,0.6597687602043152
1631106810032,0.5541077852249146,0.0707350075244903,0.2219475656747818,0.6287471055984497
1631106810170,0.5669832825660706,0.0721318572759628,0.2120873034000396,0.5909268856048584
1631106810264,0.5777143836021423,0.0857333615422248,0.1998243927955627,0.5614250898361206
1631106810405,0.5802266597747803,0.1063932701945304,0.1894674748182296,0.5495308041572571
1631106810467,0.5751161575317383,0.1243827193975448,0.1869063526391983,0.5515198707580566
1631106810577,0.5650072693824768,0.1346251964569091,0.1948675662279129,0.5571354627609253
1631106810670,0.5521920919418335,0.1395812034606933,0.2108461707830429,0.5594305992126465
1631106810795,0.5387206673622131,0.143638327717781,0.228680819272995,0.560586154460907
1631106810876,0.5273860692977905,0.1473209857940673,0.2437634319067001,0.5682897567749023
1631106810970,0.5193270444869995,0.1477161049842834,0.2573939561843872,0.5862919092178345
1631106811064,0.514569103717804,0.1420231759548187,0.2762411236763,0.6092740297317505
1631106811176,0.512954592704773,0.1302442401647567,0.3046139180660248,0.6276757717132568
1631106811254,0.5162981748580933,0.1148869842290878,0.3384273946285248,0.6361576318740845
1631106811364,0.5244268178939819,0.099247433245182,0.3687194287776947,0.6362786889076233
1631106811473,0.5350479483604431,0.0860925242304802,0.389626145362854,0.6331658363342285
1631106811598,0.5477910041809082,0.0762768536806106,0.4014750123023987,0.6301876306533813
1631106811678,0.5650158524513245,0.0694955959916114,0.4088369607925415,0.6269310116767883
1631106811757,0.5862806439399719,0.0651732310652732,0.4168378412723541,0.6222296953201294
1631106811855,0.6062605977058411,0.0642950013279914,0.4261990487575531,0.6172531247138977
1631106811998,0.619625985622406,0.0669479295611381,0.4331834614276886,0.6164881587028503
1631106812087,0.6268948912620544,0.0705775097012519,0.4337557852268219,0.6242495775222778
1631106812199,0.6320345997810364,0.0721257999539375,0.4276248514652252,0.640612006187439
1631106812277,0.6370931267738342,0.0709689334034919,0.4180213212966919,0.6604959964752197
1631106812370,0.6394757628440857,0.0710465237498283,0.4075049161911011,0.6765580177307129
1631106812464,0.6363111734390259,0.0798938795924186,0.3949519395828247,0.6837066411972046
1631106812605,0.6280635595321655,0.101693220436573,0.3762036859989166,0.6815441250801086
1631106812712,0.619199275970459,0.1321640759706497,0.3481777310371399,0.6740472316741943
1631106812796,0.6129235625267029,0.1616561412811279,0.3133009076118469,0.6665564775466919
1631106812932,0.6089279055595398,0.184776946902275,0.2790006995201111,0.6629077196121216
1631106812994,0.6050624847412109,0.2028344124555587,0.2529152333736419,0.6632536053657532
1631106813102,0.5989856123924255,0.2179754972457885,0.238877534866333,0.6654577851295471
1631106813212,0.5891442894935608,0.2291935980319976,0.2348183393478393,0.6669971942901611
1631106813323,0.5759347677230835,0.2359471470117569,0.2324800044298172,0.6658903360366821
1631106813418,0.5626118779182434,0.2412497401237487,0.2228948771953582,0.6609829664230347
1631106813494,0.55333012342453,0.2498783320188522,0.2039914429187774,0.6521070003509521
1631106813589,0.5511818528175354,0.2644535303115845,0.1834427565336227,0.6437382102012634
1631106813680,0.5571423172950745,0.2837170660495758,0.1698575466871261,0.6464473605155945
1631106813805,0.5696989893913269,0.3051238059997558,0.1640749871730804,0.6678504943847656
1631106813917,0.5852575898170471,0.3250505030155182,0.1648379266262054,0.7026912569999695
1631106814023,0.5991087555885315,0.3379964828491211,0.1772780269384384,0.7367274761199951
1631106814102,0.6171869039535522,0.3402833342552185,0.208525002002716,0.7365122437477112
1631106814186,0.6357693076133728,0.333183228969574,0.2545362114906311,0.7408092021942139
1631106814280,0.6507918238639832,0.3219603300094604,0.3011825978755951,0.7508693933486938
1631106814448,0.6595918536186218,0.3111349046230316,0.3356266319751739,0.765831470489502
1631106814537,0.661701500415802,0.3010978698730469,0.353467732667923,0.7848048210144043
1631106814626,0.6587480306625366,0.3073619604110718,0.3559531271457672,0.807924747467041
1631106814702,0.6530829071998596,0.3133141994476318,0.3472127020359039,0.8360788822174072
1631106814826,0.6453984975814819,0.3195500373840332,0.3336982429027557,0.8700129985809326
1631106814917,0.635912299156189,0.3247146010398865,0.3227425217628479,0.9101317524909972
1631106815041,0.6273853182792664,0.3256070613861084,0.3183052837848663,0.9567739367485046
1631106815135,0.6225373148918152,0.3187595307826996,0.3238953351974487,1.007488489151001
1631106815235,0.6225373148918152,0.3009836673736572,0.332253634929657,1.007488489151001
1631106815307,0.6225373148918152,0.2688194513320923,0.3431362211704254,1.007488489151001
1631106815399,0.6225373148918152,0.2198269069194793,0.3559846580028534,1.007488489151001
1631106815492,0.6225373148918152,0.1564219295978546,0.3647463023662567,1.007488489151001
1631106815649,0.6225373148918152,0.0862389653921127,0.3580710887908935,1.007488489151001
1631106815742,0.6225373148918152,0.0862389653921127,0.3271114230155945,1.007488489151001
1631106815820,0.6225373148918152,0.0862389653921127,0.2718752920627594,1.007488489151001
1631106815945,0.6225373148918152,0.0862389653921127,0.207193911075592,1.007488489151001
1631106816055,0.6225373148918152,0.0862389653921127,0.1592214256525039,1.007488489151001
1631106816122,0.6225373148918152,0.0862389653921127,0.1485180854797363,1.007488489151001
1631106816247,0.6225373148918152,0.0862389653921127,0.1485180854797363,1.007488489151001
1631106816362,0.6225373148918152,0.0862389653921127,0.1485180854797363,1.007488489151001
1631106816477,0.6225373148918152,0.0862389653921127,0.1485180854797363,1.007488489151001
1631106816555,0.6225373148918152,0.0862389653921127,0.1485180854797363,1.007488489151001
1631106816633,0.6225373148918152,0.0862389653921127,0.1485180854797363,1.007488489151001
1631106816728,0.6225373148918152,0.0862389653921127,0.1485180854797363,1.007488489151001
1631106816854,0.6225373148918152,0.0862389653921127,0.1485180854797363,1.007488489151001
1631106816978,0.6225373148918152,0.0862389653921127,0.2585754990577698,1.007488489151001
1631106817068,0.4813011586666107,0.2217601239681244,0.3033683001995086,1.007488489151001
1631106817145,0.4783415496349334,0.2354158014059066,0.3193046748638153,0.4283106327056885
1631106817240,0.4735557734966278,0.237375795841217,0.3145934641361236,0.3999492228031158
1631106817347,0.4620743095874786,0.236172541975975,0.304472953081131,0.3779565691947937
1631106817477,0.4488045871257782,0.2375289499759674,0.3012718260288238,0.3572176694869995
1631106817572,0.4426083564758301,0.2385388612747192,0.3062531650066376,0.338698148727417
1631106817664,0.4491931796073913,0.2328175753355026,0.3131017684936523,0.3283913433551788
1631106817774,0.4660485982894897,0.2189933806657791,0.3173620402812958,0.3323218524456024
1631106817856,0.485711932182312,0.2013666927814483,0.3190620839595794,0.3489989638328552
1631106817950,0.5021307468414307,0.1847574859857559,0.3189743161201477,0.3694177865982055
1631106818106,0.5139422416687012,0.1706546545028686,0.3167042136192322,0.3864322006702423
1631106818200,0.5226708650588989,0.1575115621089935,0.3257180154323578,0.3992691040039062
1631106818278,0.5254198312759399,0.1455933153629303,0.3307195007801056,0.410674124956131
1631106818401,0.5307843685150146,0.1269195228815078,0.3304343819618225,0.4089035391807556
1631106818475,0.5388690829277039,0.1051590517163276,0.3255444765090942,0.4189362227916717
1631106818567,0.5509028434753418,0.0851421803236007,0.3198597729206085,0.4370737969875335
1631106818723,0.566970705986023,0.0695226639509201,0.3183675408363342,0.4591212868690491
1631106818874,0.5839084982872009,0.0571083649992942,0.3212508857250213,0.486085295677185
1631106818890,0.595117449760437,0.0437130071222782,0.3235642313957214,0.4990091919898987
1631106818999,0.6096083521842957,0.0248002000153064,0.3203182220458984,0.5150865316390991
1631106819077,0.6237608790397644,0.0019527497934177,0.3146017789840698,0.5340973138809204
1631106819186,0.6331494450569153,-0.0164756141602993,0.3098460435867309,0.5532861948013306
1631106819314,0.6357602477073669,-0.0229806341230869,0.3055922389030456,0.5682276487350464
1631106819423,0.633216917514801,-0.0191970989108085,0.3026923537254333,0.5763055086135864
1631106819509,0.6294732093811035,-0.0120739005506038,0.3012894988059997,0.5798318386077881
1631106819591,0.6273742318153381,-0.005050491541624,0.3030184507369995,0.5837864279747009
1631106819686,0.6270365715026855,0.0054587977938354,0.3082585036754608,0.5908633470535278
1631106819790,0.6309588551521301,0.0263012405484914,0.3139394521713257,0.5994595885276794
1631106819930,0.6460332870483398,0.0562570095062255,0.3149636387825012,0.6069967746734619
1631106820008,0.6460332870483398,0.0835611745715141,0.3081096410751343,0.6069967746734619
1631106820118,0.6460332870483398,0.1698232293128967,0.2535809874534607,0.6069967746734619
1631106820180,0.6460332870483398,0.2105769366025924,0.1994202584028244,0.6069967746734619
1631106820274,0.6460332870483398,0.2262734621763229,0.166767731308937,0.6069967746734619
1631106820402,0.6460332870483398,0.2285481542348861,0.1731259375810623,0.6069967746734619
1631106820542,0.3066236972808838,0.1919397562742233,0.2157179713249206,0.4493075907230377
1631106820620,0.294921875,0.1604964286088943,0.2605272829532623,0.4567838311195373
1631106820713,0.3029240369796753,0.1369215548038482,0.2933902144432068,0.464957058429718
1631106820824,0.3158308863639831,0.1210316866636276,0.3079140782356262,0.4673813581466675
1631106820917,0.3220779001712799,0.1121405214071273,0.3125355541706085,0.4626488089561462
1631106821004,0.3213197886943817,0.1097411066293716,0.3120255768299103,0.4626488089561462
1631106821148,0.3236936926841736,0.111365906894207,0.3065015375614166,0.4626488089561462
1631106821257,0.3364491164684295,0.1130983084440231,0.2953912615776062,0.4626488089561462
1631106821323,0.3579128086566925,0.1127416864037513,0.2822422981262207,0.4626488089561462
1631106821417,0.382813811302185,0.1112253740429878,0.2729997932910919,0.4626488089561462
1631106821511,0.4066372513771057,0.111292764544487,0.2710579335689544,0.4917270243167877
1631106821605,0.4256676137447357,0.0943268835544586,0.2911692261695862,0.5059510469436646
1631106821761,0.4375264048576355,0.0867839157581329,0.316590279340744,0.5167256593704224
1631106821855,0.4482443928718567,0.0873008370399475,0.3421110212802887,0.5152572989463806
1631106821964,0.4573818743228912,0.0918434634804725,0.3610880076885223,0.5055997371673584
1631106822105,0.4640067517757416,0.0982753932476043,0.3681073784828186,0.4919264316558838
1631106822153,0.465908795595169,0.1060574278235435,0.3652812540531158,0.4764966666698456
1631106822246,0.4602300822734833,0.1141724064946174,0.3596265912055969,0.4604743719100952
1631106822371,0.4493348598480224,0.1223803237080574,0.3565040826797485,0.4488154649734497
1631106822481,0.438746690750122,0.1316149681806564,0.3557725846767425,0.4445487558841705
1631106822590,0.4314727187156677,0.1408092379570007,0.3575492203235626,0.4396561086177826
1631106822653,0.4231172502040863,0.1509373635053634,0.3645957708358764,0.4339980185031891
1631106822770,0.4077882468700409,0.1635540276765823,0.3784024715423584,0.4265676736831665
1631106822833,0.3847510516643524,0.1792933195829391,0.3943372070789337,0.4175713956356048
1631106823005,0.3561592400074005,0.1946459412574768,0.4049701988697052,0.4088588654994964
1631106823051,0.3249202072620392,0.2057920098304748,0.4061826765537262,0.3772524893283844
1631106823176,0.2951877117156982,0.2122665345668792,0.3970534205436706,0.3568305969238281
1631106823254,0.2717186510562897,0.2164619415998459,0.3779420256614685,0.3533955812454223
1631106823348,0.2570827305316925,0.2214215397834777,0.3512663245201111,0.3672665357589721
1631106823426,0.2483569979667663,0.2299699187278747,0.3224955797195434,0.3886648416519165
1631106823567,0.2436713129281997,0.242082417011261,0.299799382686615,0.4048302769660949
1631106823661,0.2425629049539566,0.2539015412330627,0.2872432768344879,0.4089815616607666
1631106823801,0.2459794580936432,0.2594966292381286,0.2835856080055237,0.4040453433990478
1631106823895,0.2528806924819946,0.2564453482627868,0.2863747477531433,0.3955526649951935
1631106823974,0.262722760438919,0.2471381574869156,0.2946242988109588,0.3882629573345184
1631106824051,0.2777822911739349,0.2374537736177444,0.3079539239406585,0.3858269155025482
1631106824208,0.3033830225467682,0.2298034578561782,0.3249397873878479,0.3914102911949157
1631106824286,0.3408984243869781,0.222971886396408,0.3426326215267181,0.4068020284175873
1631106824379,0.3829464614391327,0.2141254544258117,0.358091801404953,0.4310759603977203
1631106824489,0.4209803640842438,0.202657088637352,0.3699053227901459,0.4603343307971954
1631106824551,0.4519212543964386,0.1888000667095184,0.3783507645130157,0.4894120097160339
1631106824660,0.4792617857456207,0.1725447177886963,0.3852877914905548,0.5139352679252625
1631106824801,0.5075610876083374,0.1547659635543823,0.3929917514324188,0.5317105054855347
1631106824910,0.53616863489151,0.1382796317338943,0.4023783802986145,0.5428008437156677
1631106824989,0.5611541271209717,0.1237957179546356,0.4130535125732422,0.5500568747520447
1631106825067,0.5801830887794495,0.1094969511032104,0.4223050773143768,0.5576865077018738
1631106825179,0.5938537120819092,0.0955599471926689,0.4272527694702148,0.5677999258041382
1631106825257,0.6049895882606506,0.0873759388923645,0.4261922836303711,0.5783288478851318
1631106825408,0.615608274936676,0.0884906947612762,0.420151025056839,0.5859491229057312
1631106825486,0.6253760457038879,0.0963304415345192,0.4116956293582916,0.588796854019165
1631106825595,0.6318838596343994,0.1062013879418373,0.4018687307834625,0.5878600478172302
1631106825720,0.6311876773834229,0.1149235591292381,0.3891335129737854,0.5856570601463318
1631106825783,0.6206223964691162,0.1199791356921196,0.3717725574970245,0.583203136920929
1631106825892,0.6007431149482727,0.1190843433141708,0.3515554070472717,0.5784562230110168
1631106826001,0.576298713684082,0.114290066063404,0.3332799077033996,0.5681897401809692
1631106826126,0.5529288053512573,0.1111756488680839,0.3203231990337372,0.5513337254524231
1631106826208,0.5310124158859253,0.1128575205802917,0.3116414248943329,0.5290607810020447
1631106826333,0.505973756313324,0.1167970970273017,0.3034358322620392,0.5030376315116882
1631106826395,0.4750019609928131,0.1198240965604782,0.2933667600154876,0.4745170772075653
1631106826505,0.4419473111629486,0.1246020421385765,0.2810288965702057,0.4480019509792328
1631106826614,0.4121660888195038,0.1366362869739532,0.2686255872249603,0.4311212003231048
1631106826708,0.3890287578105926,0.1585547029972076,0.2593206763267517,0.4286834895610809
1631106826817,0.3726504743099212,0.1879459172487259,0.255680114030838,0.4378103613853454
1631106826942,0.3631601631641388,0.2194275707006454,0.256115198135376,0.4502391219139099
1631106826989,0.3600422739982605,0.2463255673646927,0.2563276886940002,0.4602159857749939
1631106827083,0.3594956398010254,0.2632765769958496,0.2517242729663849,0.4671429693698883
1631106827242,0.3580622673034668,0.2698172926902771,0.2419596761465072,0.4717427492141723
1631106827336,0.3570010662078857,0.27126345038414,0.2317527830600738,0.4735633730888366
1631106827445,0.3639850616455078,0.2749761641025543,0.22767274081707,0.4727620780467987
1631106827508,0.3838444948196411,0.2844530045986175,0.2340928465127945,0.4705722332000732
1631106827617,0.410696268081665,0.2973501086235046,0.2503564357757568,0.4679827690124511
1631106827711,0.4353097677230835,0.3091381788253784,0.2712653875350952,0.466359794139862
1631106827851,0.4564136266708374,0.3178457617759704,0.2904438078403473,0.4681858420372009
1631106827945,0.482957512140274,0.3227148950099945,0.3038778901100158,0.47654789686203
1631106828039,0.5177854299545288,0.3222044706344604,0.3115908205509186,0.4894887804985046
1631106828196,0.5531184077262878,0.3137406706809997,0.316488653421402,0.4995229244232178
1631106828229,0.5691244006156921,0.2958627045154571,0.3209464848041534,0.4972423613071441
1631106828401,0.5842540264129639,0.282961755990982,0.3245226144790649,0.4892750084400177
1631106828464,0.5965679883956909,0.2647344768047333,0.3254071176052093,0.48165363073349
1631106828589,0.605289876461029,0.2442420572042465,0.3274078965187073,0.4801478981971741
1631106828698,0.6134671568870544,0.2258163690567016,0.3303243517875671,0.4832331538200378
1631106828838,0.6268573999404907,0.2126704603433609,0.335162878036499,0.4843674302101135
1631106828917,0.6483557820320129,0.2045227140188217,0.3416914939880371,0.4797018468379974
1631106828963,0.6733855605125427,0.1982641667127609,0.3475126922130584,0.4718329608440399
1631106829121,0.6934647560119629,0.1888559758663177,0.3479779064655304,0.4683600664138794
1631106829198,0.7057362794876099,0.1726045757532119,0.3393772542476654,0.4773519933223724
1631106829292,0.7170774936676025,0.1513301730155944,0.3229498267173767,0.5003350973129272
1631106829403,0.7170774936676025,0.1301035583019256,0.305847704410553,0.5003350973129272
1631106829478,0.7170774936676025,0.1301035583019256,0.4118234515190124,0.5003350973129272
1631106829572,0.7170774936676025,0.1301035583019256,0.537808895111084,0.5003350973129272
1631106829694,0.7170774936676025,0.1301035583019256,0.6416107416152954,0.5003350973129272
1631106829758,0.7170774936676025,0.1301035583019256,0.7096738219261169,0.5003350973129272
1631106829927,0.3961401283740997,0.3687855005264282,0.7555745840072632,0.5003350973129272
1631106830005,0.3774262070655823,0.409819096326828,0.805953860282898,0.7096787691116333
1631106830052,0.3555200397968292,0.4409482479095459,0.8217244744300842,0.6990822553634644
1631106830130,0.3396369516849518,0.4541094303131103,0.8432579636573792,0.6865982413291931
1631106830383,0.3364880383014679,0.4507434964179992,0.8580326437950134,0.6749030947685242
1631106830414,0.3520158529281616,0.4383517503738403,0.8664371371269226,0.6670448184013367
1631106830492,0.3820209801197052,0.4246220588684082,0.8742110729217529,0.6649535298347473
1631106830554,0.4169169664382934,0.4130910336971283,0.8817444443702698,0.6672072410583496
1631106830679,0.4477525949478149,0.4049323499202728,0.8850515484809875,0.6705813407897949
1631106830758,0.4725385904312134,0.3996144533157348,0.8816232085227966,0.6730124950408936
1631106830945,0.4929044842720032,0.3959669172763824,0.8731175661087036,0.674670934677124
1631106830992,0.5091158747673035,0.3932465612888336,0.8700239062309265,0.6766403913497925
1631106831086,0.5274243354797363,0.397439569234848,0.8620267510414124,0.679340124130249
1631106831181,0.5434550642967224,0.4075609743595123,0.8611165881156921,0.6811268925666809
1631106831308,0.5645653009414673,0.4236181080341339,0.8647981286048889,0.6806484460830688
1631106831386,0.596332311630249,0.4414588510990143,0.8737567663192749,0.6783234477043152
1631106831542,0.635082483291626,0.4574484229087829,0.8805441856384277,0.6771208643913269
1631106831667,0.6727094650268555,0.4711785316467285,0.8779217600822449,0.6788893938064575
1631106831745,0.7050976157188416,0.4852407574653625,0.8663853406906128,0.6838719844818115
1631106831839,0.7323391437530518,0.5011266469955444,0.8529646992683411,0.6940165162086487
1631106831901,0.7538344860076904,0.5166260600090027,0.8397725224494934,0.7133389115333557
1631106831979,0.7678070664405823,0.5282402634620667,0.8194289207458496,0.7436397671699524
1631106832167,0.7752228379249573,0.5345718860626221,0.7857919931411743,0.7816054821014404
1631106832229,0.7823208570480347,0.5367875695228577,0.7434967160224915,0.8188324570655823
1631106832354,0.7940420508384705,0.5376152992248535,0.7434967160224915,0.8481073379516602
1631106832385,0.8091626763343811,0.5381937026977539,0.7434967160224915,0.8671776056289673
1631106832526,0.8231329917907715,0.5374776721000671,0.7434967160224915,0.8788363337516785
1631106832651,0.8342791199684143,0.5348249673843384,0.7434967160224915,0.8870691657066345
1631106832760,0.8436138033866882,0.5304949283599854,0.7434967160224915,0.893593966960907
1631106832807,0.8503415584564209,0.525575578212738,0.924271821975708,0.8983675241470337
1631106832948,0.8520802855491638,0.5202561020851135,0.910180926322937,0.9028425812721252
1631106833057,0.8484927415847778,0.5138615369796753,0.912807285785675,0.9092755913734436
1631106833151,0.8426370620727539,0.5073913931846619,0.922368347644806,0.9170288443565368
1631106833182,0.8370896577835083,0.5032087564468384,0.9276329278945924,0.9221819639205932
1631106833310,0.8331547975540161,0.5031242370605469,0.9246035814285278,0.9206939339637756
1631106833420,0.8322101831436157,0.5069724321365356,0.9151164889335632,0.9091832637786864
1631106833529,0.8360844850540161,0.5141178965568542,0.9023846983909608,0.8856507539749146
1631106833607,0.8431130051612854,0.5261837840080261,0.8886387944221497,0.8506181836128235
1631106833701,0.8459535241127014,0.5442890524864197,0.875514805316925,0.8102988600730896
1631106833779,0.8384472727775574,0.5656789541244507,0.8633995056152344,0.775546133518219
1631106833920,0.8205741047859192,0.5851264595985413,0.8520219326019287,0.7561625242233276
1631106834029,0.7981861233711243,0.5991853475570679,0.8236954808235168,0.7524214386940002
1631106834123,0.7782228589057922,0.6064967513084412,0.7981055378913879,0.7567501664161682
1631106834216,0.7647015452384949,0.6064584851264954,0.7745120525360107,0.7614275217056274
1631106834310,0.7587969899177551,0.5989384055137634,0.7514896392822266,0.7632814645767212
1631106834404,0.7604183554649353,0.5856142044067383,0.7257519364356995,0.7601364850997925
1631106834545,0.7680542469024658,0.5693116188049316,0.6935030221939087,0.7497718930244446
1631106834638,0.7666726112365723,0.5513497591018677,0.6547302007675171,0.7421422004699707
1631106834748,0.7667005658149719,0.5310630202293396,0.6142714023590088,0.7364566326141357
1631106834857,0.7653975486755371,0.5078149437904358,0.5777547955513,0.7378615736961365
1631106834919,0.758965253829956,0.483509749174118,0.5489532947540283,0.7472296357154846
1631106835029,0.7450277209281921,0.4733980000019073,0.5304101705551147,0.762199342250824
1631106835153,0.7249533534049988,0.4615373611450195,0.5142621994018555,0.7806547284126282
1631106835247,0.706480860710144,0.4420517981052398,0.497601568698883,0.8008473515510559
1631106835343,0.6998391151428223,0.410675048828125,0.4787262380123138,0.818950891494751
1631106835436,0.7127613425254822,0.3711892962455749,0.4571670293807983,0.8277109265327454
1631106835530,0.7467602491378784,0.3344030976295471,0.4378050863742828,0.8202129006385803
1631106835608,0.7948101162910461,0.2893532514572143,0.4290405213832855,0.7930172681808472
1631106835764,0.7948101162910461,0.2522217929363251,0.4358527660369873,0.7930172681808472
1631106835843,0.7948101162910461,0.2232242822647094,0.4548390805721283,0.7930172681808472
1631106835952,0.7948101162910461,0.2039287984371185,0.4745395481586456,0.7930172681808472
1631106836046,0.7948101162910461,0.1936219632625579,0.4840259552001953,0.7930172681808472
1631106836155,0.7948101162910461,0.1899841725826263,0.4840259552001953,0.7930172681808472
1631106836249,0.7948101162910461,0.1914365142583847,0.4840259552001953,0.7930172681808472
1631106836392,0.7948101162910461,0.1958970874547958,0.4840259552001953,0.489468902349472
1631106836470,0.814195990562439,0.1983892619609832,0.4840259552001953,0.487464427947998
1631106836548,0.7827221155166626,0.1976221948862075,0.4840259552001953,0.4949151575565338
1631106836658,0.7609108686447144,0.1946068555116653,0.4746914803981781,0.5054813623428345
1631106836751,0.748714029788971,0.1920512616634369,0.4457119405269623,0.5142974257469177
1631106836830,0.7455464601516724,0.1917550861835479,0.4310506284236908,0.5181185603141785
1631106836986,0.7507126331329346,0.1946556717157364,0.4248456358909607,0.5157466530799866
1631106837064,0.7603259682655334,0.200919359922409,0.4222244322299957,0.5082597136497498
1631106837173,0.7700751423835754,0.2158907204866409,0.4246023893356323,0.5003852844238281
1631106837251,0.7790750861167908,0.233411967754364,0.4354849457740783,0.4978881180286407
1631106837379,0.7898797988891602,0.2453615218400955,0.4541073441505432,0.5027754902839661
1631106837488,0.8035450577735901,0.2467221021652221,0.4743663966655731,0.5027754902839661
1631106837598,0.8161675930023193,0.2371678948402404,0.4915940463542938,0.4943209290504455
1631106837676,0.8167737722396851,0.2195873707532882,0.5038897395133972,0.495469182729721
1631106837801,0.8119992017745972,0.1997842788696289,0.5110219120979309,0.5181630849838257
1631106837879,0.806269645690918,0.1836996972560882,0.5096818208694458,0.5343993902206421
1631106837957,0.8029195666313171,0.1766104996204376,0.5071993470191956,0.5427699089050293
1631106838050,0.8009459376335144,0.1790098845958709,0.5076420307159424,0.5440006852149963
1631106838200,0.7973656058311462,0.1864410042762756,0.5112882256507874,0.5421370267868042
1631106838298,0.7910479307174683,0.1950866132974624,0.5141408443450928,0.5390933156013489
1631106838376,0.7955417037010193,0.2031941711902618,0.5125026702880859,0.5381451845169067
1631106838485,0.7959674596786499,0.208378404378891,0.5052469372749329,0.5433834791183472
1631106838579,0.7922340631484985,0.2077863812446594,0.5116826295852661,0.5579082369804382
1631106838657,0.7858226299285889,0.2013485431671142,0.5165309309959412,0.5791218876838684
1631106838813,0.7767510414123535,0.1930261105298996,0.5160033702850342,0.5984864830970764
1631106838923,0.7602970004081726,0.1869179010391235,0.5067800283432007,0.6072022318840027
1631106839001,0.7293892502784729,0.1858468353748321,0.4893510043621063,0.6072022318840027
1631106839094,0.6828779578208923,0.1922839283943176,0.4658388197422027,0.6072022318840027
1631106839204,0.6327383518218994,0.2082738578319549,0.4385222196578979,0.6072022318840027
1631106839297,0.5908652544021606,0.2304216027259826,0.4095895290374756,0.6072022318840027
1631106839438,0.5659713745117188,0.2524290680885315,0.3806140720844269,0.6072022318840027
1631106839516,0.5659713745117188,0.2675890624523163,0.353712648153305,0.6072022318840027
1631106839641,0.5659713745117188,0.2744075953960418,0.3294489681720733,0.6072022318840027
1631106839719,0.5659713745117188,0.275969386100769,0.3294489681720733,0.6072022318840027
1631106839813,0.5659713745117188,0.2742072343826294,0.3294489681720733,0.6072022318840027
1631106839891,0.5659713745117188,0.2742072343826294,0.3294489681720733,0.6072022318840027
1631106840031,0.5659713745117188,0.2742072343826294,0.3294489681720733,0.6072022318840027
1631106840141,0.5659713745117188,0.2742072343826294,0.3294489681720733,0.6072022318840027
1631106840203,0.5659713745117188,0.2742072343826294,0.3294489681720733,0.6072022318840027
1631106840300,0.5659713745117188,0.2742072343826294,0.3294489681720733,0.6072022318840027
1631106840409,0.5659713745117188,0.2742072343826294,0.3294489681720733,0.6072022318840027
1631106840503,0.5659713745117188,0.2742072343826294,0.3294489681720733,0.6072022318840027
1631106840644,0.5659713745117188,0.2742072343826294,0.3294489681720733,0.6072022318840027
1631106840737,0.5659713745117188,0.2742072343826294,0.3294489681720733,0.6072022318840027
1631106840831,0.5659713745117188,0.2742072343826294,0.3294489681720733,0.6072022318840027
1631106840940,0.5659713745117188,0.3829264044761657,0.3294489681720733,0.6072022318840027
1631106841018,0.5659713745117188,0.360410213470459,0.3294489681720733,0.6072022318840027
1631106841097,0.5659713745117188,0.3498765826225281,0.5306329131126404,0.6072022318840027
1631106841237,0.5659713745117188,0.3401481211185455,0.5552677512168884,0.6072022318840027
1631106841381,0.5659713745117188,0.3266555368900299,0.5735299587249756,0.6072022318840027
1631106841412,0.5659713745117188,0.310878723859787,0.5794388055801392,0.6072022318840027
1631106841521,0.5659713745117188,0.2961304187774658,0.5776436924934387,0.6072022318840027
1631106841631,0.5659713745117188,0.2528916001319885,0.5764318108558655,0.6072022318840027
1631106841709,0.5659713745117188,0.1950936019420623,0.5813050866127014,0.6072022318840027
1631106841849,0.5659713745117188,0.1950936019420623,0.5931494832038879,0.6072022318840027
1631106841959,0.5659713745117188,0.1950936019420623,0.6076575517654419,0.6072022318840027
1631106842037,0.5659713745117188,0.1950936019420623,0.6169577240943909,0.6072022318840027
1631106842146,0.5659713745117188,0.1709086000919342,0.6159570813179016,0.6072022318840027
1631106842257,0.5659713745117188,0.1469552963972091,0.6047762632369995,0.6072022318840027
1631106842336,0.5659713745117188,0.129006877541542,0.5869935154914856,0.6072022318840027
1631106842477,0.5659713745117188,0.1070162057876586,0.5732894539833069,0.6072022318840027
1631106842571,0.5419067144393921,0.0788084343075752,0.5607143640518188,0.6072022318840027
1631106842664,0.5419067144393921,0.0453877858817577,0.5438042283058167,0.6072022318840027
1631106842758,0.6379173398017883,0.0111434627324342,0.5199002027511597,0.6072022318840027
1631106842836,0.7058511972427368,-0.0194254517555236,0.4930176436901092,0.6660937666893005
1631106842914,0.7389109134674072,-0.0474686548113822,0.4720555245876312,0.6745310425758362
1631106843149,0.7473934292793274,-0.0770005360245704,0.4647687673568725,0.6609510779380798
1631106843180,0.7475218176841736,-0.1089886128902435,0.4691234529018402,0.6363657712936401
1631106843291,0.7495811581611633,-0.1382298767566681,0.4736804068088531,0.6088871359825134
1631106843354,0.7523033022880554,-0.1269669085741043,0.466610312461853,0.5811286568641663
1631106843463,0.7521571516990662,-0.1057234108448028,0.4442297518253326,0.5553411245346069
1631106843541,0.7482507824897766,-0.0754608586430549,0.4150334894657135,0.5348346829414368
1631106843682,0.7413398623466492,-0.0335709638893604,0.3928045928478241,0.5209681391716003
1631106843807,0.7447684407234192,0.0081407725811004,0.386581540107727,0.5030313730239868
1631106843901,0.7435932755470276,0.0402639657258987,0.3960286974906921,0.491730272769928
1631106843963,0.7387425899505615,0.0628112703561782,0.4148012399673462,0.4901663959026336
1631106844072,0.7278579473495483,0.0795972347259521,0.4369306862354278,0.4926943182945251
1631106844166,0.709197461605072,0.0923114940524101,0.4604451954364776,0.4986693263053894
1631106844275,0.6748446226119995,0.1006536781787872,0.4853717386722564,0.4914734363555908
1631106844404,0.6350173950195312,0.106043130159378,0.5082874298095703,0.4864320456981659
1631106844482,0.6046028137207031,0.1126095578074455,0.5230674743652344,0.4909594655036926
1631106844575,0.5898953676223755,0.1248082667589187,0.5244404077529907,0.503515362739563
1631106844685,0.5827109217643738,0.1448692381381988,0.5125976204872131,0.5170676708221436
1631106844779,0.5720970034599304,0.1718408316373825,0.4935416877269745,0.5286398530006409
1631106844904,0.5569208860397339,0.1997898072004318,0.4747129082679748,0.5403967499732971
1631106844997,0.5416855812072754,0.2194850295782089,0.4609995782375335,0.556679368019104
1631106845090,0.5317655801773071,0.2249878048896789,0.4539676010608673,0.5733540654182434
1631106845190,0.5229167342185974,0.2171359360218048,0.4530571401119232,0.5886427164077759
1631106845303,0.519504189491272,0.2028439491987228,0.4550547301769256,0.5936365723609924
1631106845381,0.5362786054611206,0.1900183707475662,0.4544898867607116,0.5931724309921265
1631106845506,0.551386833190918,0.1822249442338943,0.4472710192203522,0.5871230959892273
1631106845616,0.5614650845527649,0.1799446940422058,0.4339102208614349,0.5756562352180481
1631106845678,0.5676707625389099,0.1820985227823257,0.416725605726242,0.5587255358695984
1631106845803,0.5699032545089722,0.1871006339788437,0.3969936668872833,0.532934844493866
1631106845881,0.5660273432731628,0.1928202807903289,0.3757378458976745,0.4943455755710602
1631106845991,0.5560986995697021,0.197141021490097,0.3550952672958374,0.4434684514999389
1631106846147,0.5436182022094727,0.1967725604772567,0.3380008637905121,0.3903938829898834
1631106846225,0.533979058265686,0.1869268268346786,0.3253591358661651,0.3493340611457824
1631106846321,0.5308039784431458,0.1647812128067016,0.316330075263977,0.3263115286827087
1631106846425,0.5342239141464233,0.1343031227588653,0.3103270232677459,0.313909113407135
1631106846504,0.5415744781494141,0.1068108081817627,0.3066151142120361,0.3206530809402466
1631106846582,0.5491612553596497,0.0907714515924453,0.3025313913822174,0.3279246985912323
1631106846754,0.5611501336097717,0.0839737728238105,0.2950921058654785,0.3444785177707672
1631106846846,0.574433445930481,0.0793282911181449,0.2844460308551788,0.3655866980552673
1631106846922,0.5825436115264893,0.0739077404141426,0.2730380892753601,0.3990953862667084
1631106847018,0.595085859298706,0.0690812766551971,0.2619291841983795,0.4303717017173767
1631106847097,0.611202597618103,0.0649803429841995,0.2482043653726577,0.4509795010089874
1631106847237,0.6298299431800842,0.0610883608460426,0.2313336879014969,0.4624461531639099
1631106847347,0.6509556770324707,0.0577361099421978,0.2170347869396209,0.4693697392940521
1631106847456,0.673500657081604,0.0543202087283134,0.2127755582332611,0.4739028513431549
1631106847534,0.6942905187606812,0.0482946932315826,0.2175888419151306,0.4777924418449402
1631106847613,0.7093053460121155,0.0384340696036815,0.222101405262947,0.4813766181468963
1631106847704,0.7155470848083496,0.0284943282604217,0.2192479819059372,0.4837918579578399
1631106847812,0.7124024629592896,0.0239167548716068,0.2090774774551391,0.4842963218688965
1631106847986,0.7014357447624207,0.0250025615096092,0.1966112107038498,0.4833686053752899
1631106848033,0.6855202913284302,0.0272471997886896,0.1877060532569885,0.4819507598876953
1631106848157,0.6676361560821533,0.0282641947269439,0.1857228130102157,0.4772224128246307
1631106848236,0.6492451429367065,0.0297386739403009,0.1907092183828354,0.462760180234909
1631106848333,0.6309062242507935,0.0324201211333274,0.2007029950618744,0.4344938993453979
1631106848411,0.6116635203361511,0.0317904874682426,0.2134645283222198,0.3961280584335327
1631106848564,0.5918785929679871,0.0232725143432617,0.2278260886669159,0.3579318523406982
1631106848672,0.5730849504470825,0.0086280917748808,0.2428530752658844,0.3289801180362701
1631106848748,0.5545149445533752,-0.0066671655513346,0.2544265389442444,0.3099952042102813
1631106848844,0.5310715436935425,-0.0192283000797033,0.2576985657215118,0.2975980639457702
1631106848919,0.4977525174617767,-0.0281336810439825,0.2511470019817352,0.2906326353549957
1631106849014,0.455334722995758,-0.031083483248949,0.2401450127363205,0.2881114780902862
1631106849155,0.4130721986293793,-0.0232394076883792,0.2340166270732879,0.2882128059864044
1631106849265,0.3816793859004974,-0.0032926830463111,0.2375447452068328,0.2873746156692505
1631106849343,0.3658529222011566,0.0226775910705328,0.2466129064559936,0.2825607061386108
1631106849468,0.3622398972511291,0.0453778952360153,0.2537378668785095,0.2749711275100708
1631106849560,0.3639849424362182,0.0595486313104629,0.2546481192111969,0.2688470482826233
1631106849637,0.3654429912567138,0.0677013024687767,0.2494955658912658,0.2686561644077301
1631106849782,0.3611167073249817,0.0797096937894821,0.2403143942356109,0.2735621333122253
1631106849888,0.3501372039318084,0.1039333641529083,0.2289522588253021,0.2795122861862182
1631106849982,0.3369460105895996,0.1392163187265396,0.2168194651603698,0.2818605601787567
1631106850059,0.3291887640953064,0.1754802018404007,0.2044848203659057,0.278666079044342
1631106850153,0.3287141323089599,0.202357530593872,0.191706970334053,0.2704906463623047
1631106850247,0.3322367966175079,0.2160705029964447,0.1781586855649948,0.2600740194320678
1631106850387,0.3369141817092895,0.2198039889335632,0.1651405841112136,0.2514459192752838
1631106850481,0.3433405756950378,0.2197614312171936,0.1551631242036819,0.2489399909973144
1631106850557,0.3520702719688415,0.2212791740894317,0.148022785782814,0.2549024820327759
1631106850667,0.3601091802120209,0.224514439702034,0.1411103904247284,0.2654387652873993
1631106850740,0.3649027645587921,0.2256484031677246,0.1353087723255157,0.2763354778289795
1631106850849,0.3665293455123901,0.222289502620697,0.1377080827951431,0.2874458432197571
1631106850989,0.3663600385189056,0.2178407907485962,0.1530637890100479,0.2996850907802582
1631106851113,0.3660119771957397,0.2185286730527877,0.1760740280151367,0.3109265565872192
1631106851188,0.3653714954853058,0.2248265296220779,0.1955650895833969,0.3160580396652221
1631106851251,0.365653932094574,0.2286532521247863,0.2054482698440551,0.3127991557121277
1631106851373,0.3662892878055572,0.2221137732267379,0.2071730345487594,0.3044600486755371
1631106851467,0.3647800087928772,0.2054266631603241,0.2057546228170395,0.2981034517288208
1631106851621,0.3579656183719635,0.1873106807470321,0.2057583481073379,0.2993659973144531
1631106851702,0.3458535075187683,0.1771539151668548,0.2093635648488998,0.3090502321720123
1631106851821,0.3325038254261017,0.1768955439329147,0.2160218060016632,0.323540985584259
1631106851883,0.3241517543792724,0.1812334060668945,0.2222850471735,0.3392342925071716
1631106851976,0.322983980178833,0.1828283369541168,0.2237279117107391,0.3526969850063324
1631106852069,0.3267706632614136,0.1775323003530502,0.2178934067487716,0.3593584299087524
1631106852212,0.3310778439044952,0.1664629131555557,0.2047611474990844,0.3563357293605804
1631106852306,0.3343265354633331,0.1543608456850052,0.184262603521347,0.344681829214096
1631106852399,0.3381214141845703,0.1433723419904709,0.155814066529274,0.3292746245861053
1631106852508,0.3470570147037506,0.1296962201595306,0.1212978437542915,0.314737856388092
1631106852600,0.3634132742881775,0.1073812842369079,0.0872000902891159,0.3037641942501068
1631106852663,0.383715808391571,0.0764643922448158,0.064782865345478,0.2982308864593506
1631106852836,0.4016590714454651,0.0454230010509491,0.0598923936486244,0.2977025210857391
1631106852928,0.414777398109436,0.0245593693107366,0.0672457069158554,0.2986955046653747
1631106853007,0.4229790866374969,0.016230272129178,0.0753144174814224,0.2993194758892059
1631106853084,0.42670539021492,0.0148396799340844,0.0749347209930419,0.3009834885597229
1631106853206,0.4263837039470672,0.0148956179618835,0.0637032762169838,0.3053116500377655
1631106853283,0.4251141250133514,0.0165952574461698,0.0457960925996303,0.3118665814399719
1631106853425,0.4260771572589874,0.0229293592274189,0.0290516447275877,0.3180124461650848
1631106853535,0.4330552220344543,0.0368161126971244,0.0223764348775148,0.3212765753269195
1631106853627,0.4465706348419189,0.0568850859999656,0.0302753038704395,0.3215263783931732
1631106853720,0.4644857048988342,0.0779057443141937,0.0499372109770774,0.321472018957138
1631106853828,0.4815353453159332,0.0939045622944831,0.0749165192246437,0.3237378895282745
1631106853891,0.4921496212482452,0.1027295142412185,0.0985782295465469,0.3269411623477936
1631106854048,0.4924864470958709,0.1069767549633979,0.1158643066883087,0.3270861208438873
1631106854111,0.4915404915809631,0.1098925024271011,0.1247331202030181,0.3221786320209503
1631106854207,0.4882997274398803,0.1121604740619659,0.124231718480587,0.3122516870498657
1631106854317,0.4863428473472595,0.1125528737902641,0.1141701340675354,0.3139235377311706
1631106854407,0.488178551197052,0.1089238300919532,0.095796138048172,0.3191437125205993
1631106854545,0.4949894547462463,0.099620908498764,0.07468943297863,0.3256920278072357
1631106854654,0.5067488551139832,0.0842490121722221,0.0628070831298828,0.3285738527774811
1631106854794,0.5246015787124634,0.0643188059329986,0.0699944868683815,0.324361115694046
1631106854853,0.5466439127922058,0.04268329590559,0.0961980000138282,0.3123447299003601
1631106854947,0.5694052577018738,0.0219173356890678,0.1320464015007019,0.3155456483364105
1631106855043,0.586268424987793,0.0038509685546159,0.1667263507843017,0.3063896596431732
1631106855135,0.5894821882247925,-0.0103741893544793,0.1927815675735473,0.2903271615505218
1631106855328,0.5894821882247925,-0.0192359667271375,0.2067503482103347,0.2770215570926666
1631106855375,0.5894821882247925,-0.0206277295947074,0.2095224857330322,0.2740841805934906
1631106855445,0.5894821882247925,-0.0141059271991252,0.2061774879693985,0.2841447293758392
1631106855539,0.5894821882247925,-0.0028175292536616,0.202645793557167,0.308191180229187
1631106855633,0.5894821882247925,0.0079147089272737,0.2023619562387466,0.3418381214141845
1631106855726,0.6436315178871155,0.0154667049646377,0.2047713547945022,0.3808816969394684
1631106855898,0.6112614274024963,0.0201180800795555,0.2079415768384933,0.3920881748199463
1631106855979,0.588750958442688,0.0238367151468992,0.2111188471317291,0.3984935581684112
1631106856057,0.5760820508003235,0.0268908087164163,0.2134962379932403,0.4021260440349579
1631106856167,0.5760820508003235,0.0275148730725049,0.2124197036027908,0.4021260440349579
1631106856244,0.5760820508003235,0.0244647748768329,0.2051047086715698,0.4021260440349579
1631106856334,0.5760820508003235,0.0198180172592401,0.1919682174921035,0.4021260440349579
1631106856486,0.5760820508003235,0.0177779383957386,0.1747190058231353,0.3958077430725097
1631106856580,0.5760820508003235,0.0188632272183895,0.1554826498031616,0.3972766101360321
1631106856674,0.5760820508003235,0.0173142682760953,0.1376800537109375,0.4084621071815491
1631106856752,0.5760820508003235,0.0066372286528348,0.1264826208353042,0.4272677600383758
1631106856845,0.5760820508003235,-0.0078745773062109,0.1251212656497955,0.4488861262798309
1631106856954,0.5486240386962891,-0.02944852784276,0.1301709413528442,0.4669645726680755
1631106857085,0.5119581818580627,-0.0529907010495662,0.135791078209877,0.475174069404602
1631106857155,0.479710191488266,-0.0543932989239692,0.1367071121931076,0.4723940789699554
1631106857264,0.479710191488266,-0.0438179448246955,0.1317951083183288,0.4723940789699554
1631106857358,0.479710191488266,-0.0317563712596893,0.1241215318441391,0.4723940789699554
1631106857441,0.479710191488266,-0.0259433947503566,0.1181274577975273,0.4723940789699554
1631106857550,0.479710191488266,-0.0237009711563587,0.1174007207155227,0.4723940789699554
1631106857687,0.479710191488266,-0.0184637140482664,0.1228834241628646,0.4723940789699554
1631106857812,0.479710191488266,-0.0070235962048172,0.1331581026315689,0.4723940789699554
1631106857906,0.479710191488266,0.0051086242310702,0.14341402053833,0.5040557384490967
1631106858000,0.479710191488266,0.0113064050674438,0.1500983834266662,0.4991604387760162
1631106858080,0.479710191488266,0.0120361307635903,0.1533270329236984,0.4988515377044678
1631106858160,0.479710191488266,0.0164260119199752,0.1567549258470535,0.5003883242607117
1631106858304,0.479710191488266,0.0306789893656969,0.1634257137775421,0.4961831569671631
1631106858414,0.479710191488266,0.0405727438628673,0.1737323552370071,0.4961831569671631
1631106858509,0.479710191488266,0.0493473336100578,0.1891685724258422,0.4961831569671631
1631106858587,0.479710191488266,0.0493473336100578,0.2124130427837371,0.4961831569671631
1631106858681,0.479710191488266,0.0455131717026233,0.2430875152349472,0.4961831569671631
1631106858790,0.479710191488266,0.0396171398460865,0.2550700902938843,0.4961831569671631
1631106858915,0.479710191488266,0.0359452217817306,0.2718584537506103,0.4961831569671631
1631106858993,0.479710191488266,0.0382126681506633,0.2909461557865143,0.4961831569671631
1631106859089,0.479710191488266,0.0450933761894702,0.3096741735935211,0.4802350401878357
1631106859225,0.479710191488266,0.0533851124346256,0.3258449137210846,0.4794074296951294
1631106859305,0.479710191488266,0.0608249828219413,0.3382728397846222,0.4835233390331268
1631106859444,0.479710191488266,0.0704649910330772,0.347774863243103,0.4881652295589447
1631106859555,0.479710191488266,0.0870203375816345,0.3580273985862732,0.4881652295589447
1631106859622,0.479710191488266,0.1109621077775955,0.3426250219345093,0.4881652295589447
1631106859716,0.479710191488266,0.1109621077775955,0.3344217538833618,0.4881652295589447
1631106859825,0.479710191488266,0.1109621077775955,0.3285944163799286,0.4881652295589447
1631106859903,0.479710191488266,0.1109621077775955,0.3209215402603149,0.4881652295589447
1631106860012,0.479710191488266,0.1109621077775955,0.3091822564601898,0.4881652295589447
1631106860156,0.5103420615196228,0.2704334557056427,0.2887293696403503,0.6608805060386658
1631106860219,0.516444981098175,0.2645676434040069,0.2549797594547272,0.636751651763916
1631106860328,0.5234260559082031,0.2618834376335144,0.2553687393665313,0.6125290989875793
1631106860422,0.5213634371757507,0.2610562443733215,0.2457354217767715,0.5902971625328064
1631106860530,0.5085892677307129,0.2584301829338074,0.2326126396656036,0.5679309964179993
1631106860601,0.4892584979534149,0.2512159049510956,0.2217658162117004,0.5442137718200684
1631106860748,0.4688281118869781,0.239433467388153,0.2168361395597458,0.5208327770233154
1631106860855,0.452520489692688,0.2258427143096923,0.2201266139745712,0.4992011487483978
1631106860917,0.4449032545089721,0.2147658020257949,0.2295329868793487,0.4795668423175812
1631106861042,0.4455306828022003,0.2083902060985565,0.2386862337589264,0.462130606174469
1631106861124,0.4477399587631225,0.2054670751094818,0.249680146574974,0.4465687870979309
1631106861223,0.4442680180072784,0.2034518271684646,0.247879609465599,0.4320149719715118
1631106861363,0.421731948852539,0.1978612840175628,0.237315684556961,0.3950609266757965
1631106861453,0.3979879021644592,0.1861504316329956,0.2241586446762085,0.3535183072090149
1631106861549,0.3749482333660126,0.1722150892019271,0.2101907283067703,0.313379555940628
1631106861638,0.3499988615512848,0.1582307666540146,0.1940608322620391,0.2808481156826019
1631106861726,0.3195365369319916,0.1423484086990356,0.1761025786399841,0.2576054632663727
1631106861823,0.2856300473213196,0.1219974532723426,0.1606553643941879,0.2422218173742294
1631106861970,0.2570925652980804,0.0972690731287002,0.1522186249494552,0.237461656332016
1631106862065,0.2418659329414367,0.0713854953646659,0.1518889218568802,0.2475451380014419
1631106862144,0.2396534979343414,0.0492968745529651,0.1562574356794357,0.2710252702236175
1631106862243,0.2408855557441711,0.0350972935557365,0.1582531780004501,0.2743430733680725
1631106862352,0.2407176941633224,0.0272471643984317,0.14949432015419,0.2802765667438507
1631106862431,0.2301385849714279,0.0208114124834537,0.1281948089599609,0.2882604598999023
1631106862573,0.2028244137763977,0.0124527430161833,0.104456178843975,0.2976829707622528
1631106862653,0.1631278395652771,-0.0019024534849449,0.0973171293735504,0.3088001012802124
1631106862775,0.1281836926937103,-0.0203886162489652,0.1174257099628448,0.3233008086681366
1631106862855,0.1162595376372337,-0.0405162423849105,0.153992623090744,0.341504693031311
1631106862951,0.1269897073507309,-0.0607733353972435,0.1877888739109039,0.3608582019805908
1631106863044,0.1452015042304992,-0.0809094607830047,0.2087641656398773,0.3793197870254516
1631106863207,0.1629681438207626,-0.0993919298052787,0.2184842228889465,0.3996557891368866
1631106863291,0.1821177303791046,-0.1127017140388488,0.2244953513145446,0.427295982837677
1631106863354,0.1821177303791046,-0.0729412734508514,0.2305663079023361,0.427295982837677
1631106863494,0.1821177303791046,-0.0307326521724462,0.2353247851133346,0.427295982837677
1631106863557,0.1821177303791046,0.0198234356939792,0.2358885109424591,0.427295982837677
1631106863665,0.1821177303791046,0.076128102838993,0.2314316481351852,0.427295982837677
1631106863806,0.1821177303791046,0.1292294710874557,0.2244729995727539,0.427295982837677
1631106863934,0.6821308732032776,0.1731171607971191,0.2203812897205352,0.5934643745422363
1631106863980,0.6966210603713989,0.2035346627235412,0.2221484780311584,0.5913051962852478
1631106864073,0.6950744390487671,0.1980538964271545,0.22605961561203,0.569023609161377
1631106864157,0.6835073232650757,0.1873152256011963,0.2220773845911026,0.5399964451789856
1631106864251,0.6679324507713318,0.1777137517929077,0.2018217593431472,0.5196723341941833
1631106864405,0.6530945301055908,0.1741335093975067,0.1663628965616226,0.515121579170227
1631106864515,0.6425294280052185,0.1761655062437057,0.1270456612110138,0.524287223815918
1631106864593,0.6356261968612671,0.17925925552845,0.0991620793938636,0.5384191274642944
1631106864700,0.6274062991142273,0.1790163964033126,0.0912874862551689,0.5494396090507507
1631106864778,0.6135810613632202,0.1739396452903747,0.0995023399591445,0.5543475151062012
1631106864888,0.5950508117675781,0.1680463105440139,0.1174153685569763,0.5555394887924194
1631106865012,0.5761294364929199,0.1613929271697998,0.1395797282457351,0.5561107397079468
1631106865106,0.5625094175338745,0.1534305065870285,0.161253347992897,0.5589883327484131
1631106865189,0.5410746932029724,0.142924427986145,0.1804315447807312,0.553996741771698
1631106865283,0.5120118260383606,0.1302174478769302,0.199719026684761,0.5384445786476135
1631106865362,0.4794535636901855,0.1177728027105331,0.2221057265996933,0.5181377530097961
1631106865485,0.4493361711502075,0.1078469529747963,0.2456530630588531,0.5045920610427856
1631106865611,0.4258214831352234,0.1005162373185157,0.2662810385227203,0.5045292377471924
1631106865750,0.4111877977848053,0.0940649360418319,0.2824356257915497,0.5123192667961121
1631106865828,0.4051672518253326,0.0868860036134719,0.2970166504383087,0.5161144137382507
1631106865943,0.4045282006263733,0.0775285884737968,0.3127370178699493,0.509321928024292
1631106866021,0.4015339910984039,0.0677725598216056,0.3289134502410888,0.4935387372970581
1631106866099,0.3909888565540313,0.0672660544514656,0.3419105410575866,0.4763794541358948
1631106866209,0.3765003681182861,0.086300291121006,0.3484460711479187,0.4655593931674957
1631106866352,0.365809828042984,0.1228372007608413,0.3475075960159302,0.4635043144226074
1631106866430,0.3623730838298797,0.1623783409595489,0.339939147233963,0.4666748046875
1631106866523,0.3644583821296692,0.191123217344284,0.3287337124347687,0.4683226644992828
1631106866634,0.3725248873233795,0.2046277672052383,0.3182137012481689,0.4666322469711303
1631106866728,0.3887030780315399,0.206768587231636,0.3114986717700958,0.4657205939292907
1631106866851,0.4084335267543793,0.2034035772085189,0.3062929213047027,0.4703927636146545
1631106866915,0.4238264560699463,0.1986887007951736,0.296734482049942,0.4798606634140014
1631106867038,0.4318174719810486,0.19588503241539,0.2817298173904419,0.4875195026397705
1631106867164,0.4360423684120178,0.19942007958889,0.2667692601680755,0.4881766736507416
1631106867227,0.4393641948699951,0.212449237704277,0.2600091695785522,0.4824818670749664
1631106867335,0.4403486847877502,0.2319977134466171,0.263264387845993,0.4765220284461975
1631106867444,0.4358751177787781,0.2507005035877228,0.2710248529911041,0.4738441109657287
1631106867533,0.427437961101532,0.2629278600215912,0.27665576338768,0.4719667434692383
1631106867627,0.4209658801555633,0.2652322649955749,0.2790509462356567,0.4660009443759918
1631106867715,0.422276109457016,0.2557695806026459,0.2824628949165344,0.4541598558425903
1631106867820,0.4333072602748871,0.2348258793354034,0.2911773920059204,0.4394993782043457
1631106867913,0.4513098895549774,0.2077690809965133,0.3038490116596222,0.4253455698490143
1631106868060,0.4718921482563019,0.1851443797349929,0.3140113949775696,0.4151766896247864
1631106868164,0.493207037448883,0.1759343743324279,0.3164368867874145,0.4058496952056885
1631106868255,0.516423761844635,0.1803370118141174,0.3109838664531708,0.4001332521438598
1631106868369,0.542111873626709,0.1907011419534683,0.3019884526729584,0.3944556415081024
1631106868431,0.5664939880371094,0.1995616853237152,0.294780284166336,0.3845260739326477
1631106868541,0.5837745666503906,0.2058056592941284,0.2919318377971649,0.3720334768295288
1631106868681,0.590605616569519,0.2116683721542358,0.2921120822429657,0.3629471957683563
1631106868744,0.5891693234443665,0.2165819406509399,0.2908861637115478,0.4302586317062378
1631106868837,0.5959572196006775,0.2094186246395111,0.2838699519634247,0.4438836872577667
1631106868962,0.6058058738708496,0.1992851644754409,0.2705051600933075,0.4618312418460846
1631106869040,0.6204989552497864,0.1909817457199096,0.2570963203907013,0.4824713766574859
1631106869140,0.6394279599189758,0.1855269968509674,0.2504740953445434,0.5073004364967346
1631106869285,0.6598760485649109,0.1811019480228424,0.2501936852931976,0.539212167263031
1631106869379,0.679530680179596,0.1790996938943863,0.2398815900087356,0.539212167263031
1631106869472,0.6976363658905029,0.1839293092489242,0.2256537228822708,0.539212167263031
1631106869550,0.7140196561813354,0.1956368833780288,0.2139777988195419,0.539212167263031
1631106869660,0.7238251566886902,0.2072456628084182,0.211952656507492,0.539212167263031
1631106869754,0.716191828250885,0.2121904045343399,0.2203395813703537,0.539212167263031
1631106869910,0.6807298064231873,0.2134150713682174,0.2343717664480209,0.539212167263031
1631106869988,0.6807298064231873,0.2134150713682174,0.2490317821502685,0.539212167263031
1631106870097,0.6807298064231873,0.2134150713682174,0.2602505981922149,0.539212167263031
1631106870178,0.6807298064231873,0.2134150713682174,0.2643169164657593,0.539212167263031
1631106870272,0.6807298064231873,0.2134150713682174,0.2608994245529175,0.539212167263031
1631106870366,0.6807298064231873,0.2134150713682174,0.258054256439209,0.539212167263031
1631106870491,0.6807298064231873,0.2134150713682174,0.258054256439209,0.539212167263031
1631106870584,0.6807298064231873,0.2134150713682174,0.258054256439209,0.539212167263031
1631106870694,0.6807298064231873,0.2134150713682174,0.258054256439209,0.539212167263031
1631106870787,0.6807298064231873,0.2134150713682174,0.258054256439209,0.539212167263031
1631106870912,0.6807298064231873,0.2134150713682174,0.258054256439209,0.539212167263031
1631106870975,0.6807298064231873,0.2134150713682174,0.258054256439209,0.539212167263031
1631106871085,0.6807298064231873,0.1711325347423553,0.258054256439209,0.539212167263031
1631106871209,0.5673531889915466,0.1773761361837387,0.4367567896842956,0.539212167263031
1631106871319,0.5910912156105042,0.1898670941591262,0.4125345349311828,0.539212167263031
1631106871397,0.5910912156105042,0.2081268429756164,0.3911692500114441,0.539212167263031
1631106871522,0.5910912156105042,0.2210554331541061,0.3698408305644989,0.539212167263031
1631106871584,0.5910912156105042,0.2239962071180343,0.3495276868343353,0.539212167263031
1631106871740,0.5910912156105042,0.2206848114728927,0.3369492888450622,0.539212167263031
1631106871825,0.5910912156105042,0.2206848114728927,0.3369492888450622,0.539212167263031
1631106871919,0.5910912156105042,0.2206848114728927,0.3369492888450622,0.539212167263031
1631106871997,0.5910912156105042,0.2206848114728927,0.3369492888450622,0.539212167263031
1631106872107,0.5910912156105042,0.2206848114728927,0.3369492888450622,0.539212167263031
1631106872219,0.5910912156105042,0.2206848114728927,0.3369492888450622,0.539212167263031
1631106872328,0.5910912156105042,0.2336290180683136,0.3295297622680664,0.539212167263031
1631106872406,0.594679594039917,0.2279371321201324,0.3053898811340332,0.539212167263031
1631106872516,0.594679594039917,0.225239023566246,0.2859275341033935,0.539212167263031
1631106872594,0.594679594039917,0.2287207394838333,0.2748294472694397,0.539212167263031
1631106872719,0.594679594039917,0.2325557917356491,0.2694615423679352,0.539212167263031
1631106872797,0.594679594039917,0.225688636302948,0.2649565637111664,0.539212167263031
1631106872937,0.594679594039917,0.2034894227981567,0.2611221969127655,0.539212167263031
1631106873031,0.1986769139766693,0.1737994998693466,0.2645455002784729,0.5193475484848022
1631106873141,0.2131353467702865,0.1468347162008285,0.2825261950492859,0.4984910488128662
1631106873203,0.2265982776880264,0.1255020201206207,0.3110112249851227,0.4846983850002289
1631106873312,0.2300006449222564,0.1139313653111457,0.3363640010356903,0.4734268188476562
1631106873390,0.2227230221033096,0.1048048734664917,0.3538293242454529,0.4681107997894287
1631106873547,0.2096297442913055,0.0958899036049842,0.3586175441741943,0.4738715291023254
1631106873672,0.1984941214323043,0.0854152590036392,0.3532721996307373,0.4860424101352691
1631106873719,0.1930939853191375,0.0724095776677131,0.3438418209552765,0.4941872656345367
1631106873844,0.1951280534267425,0.057315494865179,0.3413865268230438,0.4932854473590851
1631106873937,0.2047327607870102,0.0375023297965526,0.3417907357215881,0.4879390597343445
1631106874015,0.2259265333414077,0.0098802438005805,0.3461293280124664,0.4889126718044281
1631106874140,0.2590234875679016,-0.0230417642742395,0.3526295125484466,0.5021072030067444
1631106874250,0.3012441396713257,-0.057183239609003,0.3576736748218536,0.512669563293457
1631106874328,0.3459251821041107,-0.0874420404434204,0.3593447804450989,0.5389235615730286
1631106874468,0.3837766647338867,-0.1102034971117973,0.3579980134963989,0.569336473941803
1631106874562,0.4132142066955566,-0.1232944279909133,0.3525428175926208,0.5930315852165222
1631106874640,0.4379264712333679,-0.1232429519295692,0.3388679027557373,0.6054081320762634
1631106874781,0.4611683189868927,-0.1081405282020568,0.3137124478816986,0.6083558201789856
1631106874875,0.4849640130996704,-0.0836698338389396,0.2793787717819214,0.6065186858177185
1631106874953,0.5069318413734436,-0.0592913217842578,0.2442736327648162,0.6012141108512878
1631106875046,0.5232152342796326,-0.0407154001295566,0.2186215072870254,0.5897067189216614
1631106875138,0.5311872363090515,-0.0275945663452148,0.2066493183374405,0.5725407004356384
1631106875219,0.5321236848831177,-0.0171142946928739,0.2038017660379409,0.5554977655410767
1631106875391,0.5291591882705688,-0.0064265532419085,0.2004764974117279,0.5430691242218018
1631106875500,0.52574622631073,0.0066726189106702,0.1879274249076843,0.5326361656188965
1631106875579,0.5214242339134216,0.0238742548972368,0.1625036001205444,0.5153062343597412
1631106875703,0.5160208940505981,0.0455591939389705,0.128346562385559,0.4835391044616699
1631106875766,0.514035701751709,0.0688720718026161,0.0955667048692703,0.4362152516841888
1631106875844,0.5198545455932617,0.0898057520389556,0.0719412043690681,0.3772960901260376
1631106875971,0.5305169820785522,0.1072726473212242,0.0576564818620681,0.3147601187229156
1631106876081,0.5385728478431702,0.1230926364660263,0.0497139655053615,0.2592477202415466
1631106876209,0.5388687252998352,0.1366942524909973,0.0466013066470623,0.2195053100585937
1631106876318,0.5318764448165894,0.1437839865684509,0.046425711363554,0.1967033296823501
1631106876365,0.5213835835456848,0.1407235413789749,0.0460092388093471,0.1846470385789871
1631106876474,0.5111780166625977,0.130754679441452,0.0422337315976619,0.177137404680252
1631106876584,0.5051015615463257,0.1225386932492256,0.0331467911601066,0.1733913421630859
1631106876677,0.505318820476532,0.1233698278665542,0.0183800496160984,0.1753990054130554
1631106876787,0.5104158520698547,0.1333393007516861,0.0007396469591185,0.1844158172607422
1631106876880,0.5169207453727722,0.1465951800346374,-0.0139216603711247,0.1992010623216629
1631106876974,0.5207893252372742,0.1555142551660537,-0.0201233085244894,0.2151108384132385
1631106877068,0.5195009112358093,0.1543980240821838,-0.0195134822279214,0.2276771068572998
1631106877199,0.5105716586112976,0.1407695859670639,-0.0185886621475219,0.2372539788484573
1631106877339,0.4902139902114868,0.1177136525511741,-0.0220606923103332,0.2475243210792541
1631106877402,0.4563700258731842,0.092221662402153,-0.0281135812401771,0.2594204843044281
1631106877464,0.4136305749416351,0.0689046159386634,-0.0326295234262943,0.2703333497047424
1631106877574,0.3732025325298309,0.0453293472528457,-0.0357831008732318,0.2779069244861603
1631106877699,0.3460631370544433,0.0173797737807035,-0.0416628941893577,0.2835049331188202
1631106877808,0.3341974020004272,-0.0137541452422738,-0.0490248166024684,0.2908239364624023
1631106877886,0.3294302225112915,-0.0409140028059482,-0.047693945467472,0.3042517900466919
1631106877995,0.3244489431381225,-0.061396799981594,-0.0278501398861408,0.325772225856781
1631106878089,0.3166764974594116,-0.0819487795233726,0.0099345613270998,0.3508898317813873
1631106878183,0.3086118698120117,-0.1116867959499359,0.0550651513040065,0.3709278106689453
1631106878277,0.3032768070697784,-0.1521185338497162,0.0958006680011749,0.3796813189983368
1631106878417,0.2993043065071106,-0.19780033826828,0.1251274794340133,0.378470778465271
1631106878511,0.2952730655670166,-0.2382332533597946,0.1422398537397384,0.3744445145130157
1631106878620,0.2937310338020324,-0.2621069252490997,0.1515831649303436,0.3737602829933166
1631106878714,0.2995468974113464,-0.259890615940094,0.158893197774887,0.3758372068405151
1631106878792,0.3136700987815857,-0.2339237481355667,0.1673505455255508,0.3762276172637939
1631106878901,0.3313386142253876,-0.1987476050853729,0.1767926961183548,0.3723707497119903
1631106879011,0.3463215231895447,-0.1665978133678436,0.1861000955104828,0.3655759990215301
1631106879153,0.3536576628684997,-0.1400625109672546,0.1942414343357086,0.3593294620513916
1631106879217,0.3496057689189911,-0.1181130036711692,0.2006596475839615,0.3536901473999023
1631106879295,0.334683209657669,-0.101963497698307,0.2043877243995666,0.3454193770885467
1631106879389,0.3150060474872589,-0.0937713310122489,0.2022543400526046,0.3309764862060547
1631106879498,0.3016931712627411,-0.0898369997739791,0.1905195862054824,0.3092943429946899
1631106879623,0.3042773902416229,-0.0810950770974159,0.1671548336744308,0.2835288345813751
1631106879733,0.3239695131778717,-0.0598553493618965,0.1345213204622268,0.2580243349075317
1631106879826,0.353347897529602,-0.0281151346862316,0.0987933203577995,0.2358872294425964
1631106879920,0.3817049562931061,0.003927628044039,0.0661983788013458,0.2173848897218704
1631106880014,0.4010390043258667,0.0276580452919006,0.0402090810239315,0.2009091228246688
1631106880092,0.4095112085342407,0.0408992879092693,0.0220131818205118,0.185372844338417
1631106880264,0.4107432961463928,0.0466470718383789,0.0117766968905925,0.1724303215742111
1631106880342,0.4093793034553528,0.0484128408133983,0.0083526726812124,0.1646071970462799
1631106880436,0.4072939455509186,0.0469954349100589,0.0078705167397856,0.1618834137916565
1631106880545,0.4046217501163482,0.0415703877806663,0.006096757017076,0.1617719829082489
1631106880623,0.4029957056045532,0.032656155526638,0.0025174350012093,0.1620112359523773
1631106880701,0.406760036945343,0.0233138650655746,0.0019538861233741,0.1653235107660293
1631106880826,0.4181272685527801,0.0193356983363628,0.0093236090615391,0.173759326338768
1631106880967,0.4338030219078064,0.0257966164499521,0.0249289907515048,0.1849109083414077
1631106881060,0.446530669927597,0.0417499169707298,0.0441223308444023,0.19470776617527
1631106881170,0.4506059288978576,0.0590342804789543,0.0608437918126583,0.2035584300756454
1631106881248,0.4447658956050873,0.0675085484981536,0.0707932338118553,0.216592252254486
1631106881326,0.4354678988456726,0.0632629245519638,0.072588562965393,0.2361596971750259
1631106881470,0.4362179636955261,0.0534046739339828,0.0677216053009033,0.2587934732437134
1631106881564,0.4281323254108429,0.0486520566046237,0.0598939359188079,0.2723585665225982
1631106881642,0.4276660084724426,0.0520631819963455,0.0519473142921924,0.2876240313053131
1631106881751,0.4292184114456177,0.0573886036872863,0.0455615557730197,0.3029528260231018
1631106881845,0.4262540340423584,0.0592577531933784,0.0410828478634357,0.3161796331405639
1631106881939,0.4206889569759369,0.0614096075296402,0.0378651805222034,0.3261663317680359
1631106882079,0.4207064509391784,0.0679352059960365,0.0320291854441165,0.3335854709148407
1631106882173,0.4310369491577148,0.0801758170127868,0.0260634012520313,0.3404062688350677
1631106882267,0.4461979269981384,0.0954177975654602,0.0193568542599678,0.3474180102348327
1631106882360,0.4573259055614471,0.109012521803379,0.0066848616115748,0.3552798628807068
1631106882454,0.4636352360248565,0.1169721335172653,-0.0179729759693145,0.36469566822052
1631106882548,0.4748756885528564,0.1163146495819091,-0.0549742132425308,0.3769930899143219
1631106882673,0.4748756885528564,0.1071357354521751,-0.0965464040637016,0.3769930899143219
1631106882798,0.4748756885528564,0.1460244208574295,0.12665855884552,0.3769930899143219
1631106882891,0.4748756885528564,0.2035004794597625,0.2839409708976745,0.3769930899143219
1631106882985,0.4748756885528564,0.279654860496521,0.3987985253334045,0.3769930899143219
1631106883063,0.4748756885528564,0.360374391078949,0.4828649461269378,0.3769930899143219
1631106883173,0.618261456489563,0.4266043603420257,0.5369042158126831,0.3769930899143219
1631106883313,0.617794394493103,0.4656050503253937,0.6004256010055542,0.3769930899143219
1631106883376,0.5962453484535217,0.4380196630954742,0.6768637299537659,0.3769930899143219
1631106883457,0.5647408962249756,0.4011985063552856,0.6768637299537659,0.3769930899143219
1631106883598,0.5341702103614807,0.3675470054149627,0.6529842019081116,0.3769930899143219
1631106883692,0.5092159509658813,0.3423068225383758,0.6296834945678711,0.3769930899143219
1631106883785,0.4886382222175598,0.3267283141613006,0.6022648215293884,0.761134684085846
1631106883895,0.4701917767524719,0.3214302361011505,0.5752233862876892,0.7343508005142212
1631106884004,0.4540502727031708,0.3248578011989593,0.5567099452018738,0.7171094417572021
1631106884129,0.4414324760437011,0.3312559425830841,0.5487865209579468,0.705342173576355
1631106884194,0.4331695139408111,0.333996057510376,0.5469427108764648,0.6962894201278687
1631106884287,0.4286287426948547,0.3295921683311462,0.5283558368682861,0.6901957392692566
1631106884350,0.4202864468097687,0.3148723840713501,0.5027967095375061,0.6853907108306885
1631106884522,0.4034025967121124,0.2897705435752868,0.4729987680912018,0.6577414274215698
1631106884616,0.3731928169727325,0.2561081647872925,0.4457709193229675,0.6263710856437683
1631106884694,0.3342830240726471,0.2215649634599685,0.4443223774433136,0.5919586420059204
1631106884787,0.3008450865745544,0.1986718028783798,0.4486495852470398,0.575646698474884
1631106884881,0.2875010967254638,0.1921096444129943,0.4546672701835632,0.5649681687355042
1631106885006,0.2863000035285949,0.1943554431200027,0.4574941098690033,0.5649681687355042
1631106885146,0.2907465994358063,0.194443941116333,0.4496804773807525,0.5649681687355042
1631106885243,0.2953796684741974,0.1890051513910293,0.443348616361618,0.5649681687355042
1631106885321,0.3001302480697632,0.1790887117385864,0.4441799223423004,0.5577309131622314
1631106885383,0.3071329295635223,0.1662671864032745,0.4496397674083709,0.552501916885376
1631106885493,0.3158115744590759,0.1524515002965927,0.452438473701477,0.5444637537002563
1631106885602,0.3231852352619171,0.1400958150625229,0.4503028094768524,0.5329287052154541
1631106885743,0.3252569437026977,0.1310456246137619,0.4463798999786377,0.5176558494567871
1631106885821,0.3192770183086395,0.1194527745246887,0.4446309506893158,0.4938833117485046
1631106885915,0.3045398592948913,0.1165384128689765,0.4460113942623138,0.4578050374984741
1631106886008,0.2844584584236145,0.1118950769305229,0.4476152658462524,0.4163112640380859
1631106886118,0.2844584584236145,0.1108185052871704,0.4455393254756927,0.4163112640380859
1631106886214,0.2844584584236145,0.1152590587735176,0.4370649755001068,0.4163112640380859
1631106886339,0.2844584584236145,0.12602099776268,0.4233022332191467,0.4163112640380859
1631106886432,0.2844584584236145,0.143841877579689,0.4097699820995331,0.4163112640380859
1631106886526,0.6609593629837036,0.1671694219112396,0.4018492102622986,0.4163112640380859
1631106886636,0.6774377822875977,0.1920200586318969,0.3982803225517273,0.7449635863304138
1631106886729,0.6785181760787964,0.2121393829584121,0.3936067521572113,0.7435147166252136
1631106886807,0.6678703427314758,0.2233631610870361,0.3865464031696319,0.7224279642105103
1631106886948,0.6507650017738342,0.2229495793581009,0.3825007081031799,0.691142201423645
1631106887026,0.6296043395996094,0.2097034752368927,0.3852336704730987,0.6589988470077515
1631106887151,0.6047823429107666,0.1855959147214889,0.3896714448928833,0.6327953338623047
1631106887247,0.5785184502601624,0.1570383012294769,0.3875488340854645,0.615936815738678
1631106887325,0.5535865426063538,0.1366695165634155,0.3759171068668365,0.6071478128433228
1631106887419,0.5318089723587036,0.1169293522834777,0.3585997223854065,0.6018126606941223
1631106887575,0.51310133934021,0.1042337119579315,0.34212327003479,0.5951682329177856
1631106887653,0.4974319040775299,0.0916312560439109,0.3321848809719085,0.585017740726471
1631106887747,0.4800158441066742,0.0767060965299606,0.3319304585456848,0.5732660889625549
1631106887840,0.4592787623405456,0.0576811879873275,0.339107483625412,0.5595923066139221
1631106887934,0.4311480820178985,0.0342858731746673,0.3470531105995178,0.5462130308151245
1631106888028,0.3946597874164581,0.0091062225401401,0.3511130809783935,0.5358734130859375
1631106888184,0.359555572271347,-0.0126095507293939,0.3537327647209167,0.5319396257400513
1631106888262,0.3405233025550842,-0.0258511006832122,0.361621230840683,0.5375718474388123
1631106888340,0.3413518071174621,-0.0289006438106298,0.3757747113704681,0.5328989028930664
1631106888466,0.3555910885334015,-0.0224967766553163,0.3907126784324646,0.5397135019302368
1631106888543,0.3515812754631042,-0.0100136548280715,0.4018050134181976,0.5536606311798096
1631106888653,0.3567918241024017,0.0059565040282905,0.4095989465713501,0.5690630674362183
1631106888762,0.3700689077377319,0.0238749925047159,0.4165380597114563,0.5811771154403687
1631106888887,0.3880839943885803,0.0440635457634925,0.4238592982292175,0.58861243724823
1631106888949,0.4079007506370544,0.0668772980570793,0.4315584301948547,0.594505786895752
1631106889043,0.4293185174465179,0.0894409045577049,0.4395563006401062,0.6057595014572144
1631106889170,0.4521529376506805,0.1066568046808242,0.4457551836967468,0.6296783089637756
1631106889264,0.4739574491977691,0.1140942648053169,0.4461050927639007,0.6433538794517517
1631106889374,0.4644609987735748,0.1117870658636093,0.4384778439998626,0.6401203870773315
1631106889499,0.4685561954975128,0.1041707471013069,0.4247424602508545,0.6110214591026306
1631106889592,0.4909819960594177,0.0990519002079963,0.4090150892734527,0.5481154322624207
1631106889670,0.5228171348571777,0.1047569066286087,0.3944176137447357,0.4492603540420532
1631106889749,0.5489456653594971,0.1241239160299301,0.3795280456542969,0.3209367096424103
1631106889842,0.5665908455848694,0.1523987203836441,0.3609643578529358,0.3325137495994568
1631106889983,0.5790470838546753,0.1803387850522995,0.3365587890148163,0.3593029975891113
1631106890092,0.5943486094474792,0.2010731250047683,0.3067953288555145,0.3866356909275055
1631106890217,0.6006385684013367,0.212279126048088,0.2747747898101806,0.4040048122406006
1631106890280,0.5990773439407349,0.2155882269144058,0.2449766844511032,0.4098733365535736
1631106890373,0.5923932790756226,0.2143162786960601,0.2218405157327652,0.4070352017879486
1631106890452,0.5840693712234497,0.2130807638168335,0.2081044316291809,0.3991630375385284
1631106890608,0.57625412940979,0.2151134461164474,0.2052293568849563,0.3899266421794891
1631106890702,0.5712453722953796,0.219702810049057,0.2149220108985901,0.3841385841369629
1631106890811,0.5710232257843018,0.2257764935493469,0.2367416620254516,0.3766002953052521
1631106890889,0.5877748727798462,0.2324363887310028,0.2646046876907348,0.3762092292308807
1631106890967,0.6001163125038147,0.2376044690608978,0.2903650999069214,0.3820759952068329
1631106891076,0.6061352491378784,0.2368827760219574,0.3085532784461975,0.3931494653224945
1631106891205,0.6042922735214233,0.2236098349094391,0.3191656768321991,0.4069569706916809
1631106891315,0.5957460403442383,0.2153452485799789,0.3302345871925354,0.4193473160266876
1631106891393,0.5819525122642517,0.1949222832918167,0.3385993242263794,0.4218490421772003
1631106891518,0.5638786554336548,0.1664924770593643,0.3470562100410461,0.4092666208744049
1631106891596,0.54273521900177,0.1378509551286697,0.3563393652439117,0.3828946053981781
1631106891674,0.5224306583404541,0.1179616302251815,0.3671514987945556,0.3513599932193756
1631106891815,0.5088128447532654,0.1117512434720993,0.3812347650527954,0.32469043135643
1631106891908,0.5061765909194946,0.1157908588647842,0.3838680386543274,0.311283528804779
1631106892033,0.5061765909194946,0.1112346425652504,0.3760093152523041,0.311283528804779
1631106892112,0.5061765909194946,0.0788143500685691,0.3605124354362488,0.311283528804779
1631106892192,0.5061765909194946,0.0314914062619209,0.3387471437454223,0.311283528804779
1631106892302,0.5061765909194946,-0.0022111046127974,0.3139527440071106,0.311283528804779
1631106892426,0.5061765909194946,-0.0010975463083013,0.2910958230495453,0.311283528804779
1631106892567,0.5061765909194946,0.0267081595957279,0.2745904326438904,0.311283528804779
1631106892645,0.6092119812965393,0.0599800013005733,0.2682657837867737,0.311283528804779
1631106892723,0.6288415789604187,0.0928950309753418,0.2725158929824829,0.6594153046607971
1631106892833,0.6213218569755554,0.0952677503228187,0.2769703865051269,0.6880667805671692
1631106892895,0.6005299687385559,0.0964348316192627,0.2919542491436004,0.713933527469635
1631106893036,0.5805478096008301,0.0965720266103744,0.3035500943660736,0.7283793091773987
1631106893145,0.5675398111343384,0.0946866795420646,0.3103410303592682,0.7307726740837097
1631106893258,0.5598423480987549,0.0904724076390266,0.3147858679294586,0.7229949831962585
1631106893320,0.5530130863189697,0.0835397243499755,0.3194499611854553,0.7084183096885681
1631106893429,0.5457950830459595,0.0735349878668785,0.3330987393856048,0.6919088363647461
1631106893523,0.5410056710243225,0.0610409677028656,0.3591233491897583,0.6781906485557556
1631106893648,0.5398275256156921,0.0555436871945858,0.392056405544281,0.6693564653396606
1631106893742,0.5400192141532898,0.0538279078900814,0.4235992133617401,0.664351761341095
1631106893836,0.5455192923545837,0.0505058616399765,0.4448044896125793,0.6615173816680908
1631106893930,0.5429474115371704,0.0429778695106506,0.4518695175647735,0.6596379280090332
1631106894039,0.5289013981819153,0.0343883633613586,0.4502666890621185,0.6638149619102478
1631106894101,0.5074173212051392,0.0298982337117195,0.4497442245483398,0.6710265874862671
1631106894245,0.490130752325058,0.0300856046378612,0.4538620412349701,0.6752264499664307
1631106894339,0.482793390750885,0.0312927439808845,0.4581911861896515,0.6660394072532654
1631106894479,0.4852738082408905,0.0293532293289899,0.4579870998859405,0.6511062979698181
1631106894557,0.491210013628006,0.0254123602062463,0.4538872838020324,0.635286271572113
1631106894635,0.4950554668903351,0.0228183045983314,0.4491787850856781,0.6235272884368896
1631106894745,0.4961810410022735,0.0218297038227319,0.4449983537197113,0.6202309131622314
1631106894901,0.4981473684310913,0.0247742757201194,0.4400050044059753,0.6274675726890564
1631106894979,0.5029934644699097,0.0335944928228855,0.4322651028633117,0.6429051160812378
1631106895058,0.5063167214393616,0.0483554527163505,0.4194940030574798,0.6610254645347595
1631106895142,0.5032609105110168,0.0780643373727798,0.4000766277313232,0.6775019764900208
1631106895251,0.4949256479740143,0.1032145246863365,0.3773184716701507,0.6925269365310669
1631106895345,0.4879022240638733,0.1239760965108871,0.3603828847408294,0.7089608907699585
1631106895485,0.4879022240638733,0.1421112716197967,0.3571163117885589,0.7089608907699585
1631106895610,0.4879022240638733,0.1577074825763702,0.3639856278896332,0.7089608907699585
1631106895657,0.4879022240638733,0.16862553358078,0.3693812489509582,0.7089608907699585
1631106895782,0.4879022240638733,0.1741349399089813,0.3663374185562134,0.7089608907699585
1631106895845,0.4879022240638733,0.1769213378429412,0.3553135097026825,0.7089608907699585
1631106895985,0.3058482110500335,0.1825893223285675,0.3409182429313659,0.5374950766563416
1631106896095,0.3132775425910949,0.1918999403715133,0.3268249034881592,0.5202258825302124
1631106896177,0.323103666305542,0.2010202258825302,0.3165947496891022,0.5055961012840271
1631106896270,0.3250791132450104,0.1961427330970764,0.313196450471878,0.4972458779811859
1631106896364,0.3197802603244781,0.1901674717664718,0.3179352879524231,0.4943607747554779
1631106896505,0.3139466345310211,0.1846192330121994,0.328856885433197,0.4911827445030212
1631106896583,0.3128558695316314,0.1806326657533645,0.3421425223350525,0.4837595522403717
1631106896692,0.3184030652046203,0.17891426384449,0.3547611832618713,0.4753747284412384
1631106896786,0.3304368853569031,0.1804023534059524,0.3642489314079284,0.4712882041931152
1631106896911,0.3473866879940033,0.1847082078456878,0.3689861893653869,0.4720496535301208
1631106897005,0.3649884760379791,0.1889228522777557,0.3691720366477966,0.4736499786376953
1631106897083,0.3784820437431335,0.1908213645219802,0.366862028837204,0.4740730226039886
1631106897161,0.3809147179126739,0.1911895275115966,0.3646986186504364,0.4637968838214874
1631106897336,0.3866605758666992,0.1931384354829788,0.3647404015064239,0.4639438390731811
1631106897429,0.3932176232337951,0.1986162960529327,0.3685630261898041,0.468512088060379
1631106897492,0.398331880569458,0.2055114060640335,0.376756876707077,0.469219297170639
1631106897586,0.4016080200672149,0.2104726284742355,0.389003723859787,0.4633086025714874
1631106897695,0.4033252596855163,0.2123451828956604,0.4024316966533661,0.4516586065292358
1631106897820,0.4029637277126312,0.2118395715951919,0.4137740731239319,0.4360083341598511
1631106897914,0.3993681669235229,0.2118695229291916,0.4209051132202148,0.4207111895084381
1631106898023,0.3909315466880798,0.2150814235210418,0.4228880107402801,0.4123117625713348
1631106898117,0.3765892684459686,0.2221381217241287,0.4197590947151184,0.4140051007270813
1631106898197,0.3570806682109833,0.2300718128681183,0.4127852618694305,0.4195670485496521
1631106898307,0.3348608314990997,0.2329760789871215,0.4049753844738006,0.4193274676799774
1631106898385,0.3123884201049804,0.2255349308252334,0.3995154500007629,0.4096294045448303
1631106898525,0.29228276014328,0.2086459249258041,0.3975419104099273,0.3946943581104278
1631106898619,0.2769456803798675,0.1894517838954925,0.3972684741020202,0.3789432346820831
1631106898729,0.2678050398826599,0.1759807467460632,0.3969351649284363,0.359220802783966
1631106898822,0.2635174691677093,0.1691043823957443,0.3966412246227264,0.3309386074542999
1631106898932,0.2586247622966766,0.1627442240715026,0.3972483575344085,0.2966431677341461
1631106899010,0.2481316328048706,0.1518635898828506,0.3979800939559936,0.2678589224815368
1631106899150,0.2308660298585891,0.1380267590284347,0.3959064185619354,0.2554758489131927
1631106899244,0.2117489278316497,0.1276780366897583,0.3883846998214721,0.258783757686615
1631106899322,0.1995720565319061,0.1258781254291534,0.3760712146759033,0.267617404460907
1631106899431,0.1997459977865219,0.1302883625030517,0.3643383681774139,0.2709341049194336
1631106899510,0.2094762027263641,0.1329101920127868,0.359911561012268,0.2642542421817779
1631106899603,0.2227495312690735,0.1279030442237854,0.3652218580245971,0.2503620386123657
1631106899744,0.2356777191162109,0.1169325336813926,0.3756601810455322,0.2360099703073501
1631106899853,0.2462606579065323,0.1078356802463531,0.3836172521114349,0.2265162467956543
1631106899947,0.251127153635025,0.1077051907777786,0.3835826814174652,0.2218383550643921
1631106900056,0.2468935251235962,0.1156646758317947,0.3750682175159454,0.2197210937738418
1631106900166,0.2348207980394363,0.1235416233539581,0.3617288470268249,0.2192254215478897
1631106900244,0.2203036546707153,0.1228843182325363,0.3472432494163513,0.2223556339740753
1631106900416,0.208877295255661,0.1112491935491561,0.3320841193199157,0.2313538491725921
1631106900478,0.2008165717124939,0.0928879901766777,0.3149888515472412,0.247533917427063
1631106900572,0.1928871721029281,0.0747488737106323,0.297282874584198,0.2670938372611999
1631106900650,0.1846057772636413,0.0599191300570964,0.283519297838211,0.2831777334213257
1631106900759,0.1785947233438491,0.0456917211413383,0.2765591740608215,0.2917746007442474
1631106900869,0.1770082265138626,0.0287406612187623,0.2735184729099273,0.293515682220459
1631106900947,0.1814672499895095,0.0102834636345505,0.266790509223938,0.2925500273704529
1631106901072,0.1934991180896759,-0.0046613970771431,0.2516041696071625,0.291093111038208
1631106901181,0.2140273600816726,-0.0134460302069783,0.2312700152397155,0.2881087064743042
1631106901259,0.2420864105224609,-0.0173801761120557,0.2150857746601104,0.2829148471355438
1631106901369,0.2771890163421631,-0.0181655436754226,0.2097984850406646,0.2782280743122101
1631106901447,0.3233354091644287,-0.0148792164400219,0.2141078561544418,0.2795644998550415
1631106901587,0.3805231153964996,-0.0052405162714421,0.2208340167999267,0.289810299873352
1631106901665,0.4381950795650482,0.010683262720704,0.2246894836425781,0.3077774345874786
1631106901790,0.4857974648475647,0.0319441854953765,0.2257121503353119,0.3314957320690155
1631106901884,0.5205139517784119,0.0559380464255809,0.228315845131874,0.3590787649154663
1631106901962,0.5459984540939331,0.0781063660979271,0.2373860031366348,0.3854067921638489
1631106902056,0.5658254027366638,0.0940847620368003,0.2510898113250732,0.406218945980072
1631106902212,0.5806795954704285,0.1026482209563255,0.2614177465438843,0.4210115075111389
1631106902321,0.5898628830909729,0.1050688177347183,0.2627644538879394,0.4324322342872619
1631106902368,0.5941042900085449,0.1027753725647926,0.257645696401596,0.4430290460586548
1631106902446,0.594930112361908,0.0963490679860115,0.253695547580719,0.4542208611965179
1631106902556,0.5957636833190918,0.0874285101890564,0.254448801279068,0.4671073853969574
1631106902649,0.6003473997116089,0.0797025114297866,0.2543605268001556,0.4823390543460846
1631106902806,0.6080906987190247,0.0754058063030242,0.2452847957611084,0.4998093545436859
1631106902899,0.6138689517974854,0.0740930065512657,0.2245271652936935,0.5193843841552734
1631106903009,0.6115130186080933,0.0746262148022651,0.1975905150175094,0.5395076870918274
1631106903102,0.5985496640205383,0.075231023132801,0.1748722493648529,0.5553820133209229
1631106903181,0.5791304111480713,0.0736893638968467,0.1637836098670959,0.5617557764053345
1631106903290,0.5587969422340393,0.0669434890151023,0.1646312028169632,0.5564437508583069
1631106903415,0.5405951142311096,0.0557372421026229,0.1716452986001968,0.5424129366874695
1631106903509,0.5249653458595276,0.0464182123541832,0.1780677586793899,0.527720034122467
1631106903602,0.5124990940093994,0.0471558906137943,0.1807853728532791,0.5201643109321594
1631106903712,0.5038509368896484,0.0623566508293151,0.1810030788183212,0.5226942896842957
1631106903774,0.4982684552669525,0.0916031599044799,0.1811418533325195,0.532270610332489
1631106903868,0.4931323230266571,0.1283554583787918,0.1814838051795959,0.5456225872039795
1631106904040,0.4865047335624695,0.1626778841018676,0.1820344775915146,0.5611593127250671
1631106904151,0.4758601188659668,0.1863428801298141,0.1857555210590362,0.5771075487136841
1631106904198,0.4571203291416168,0.1963995993137359,0.1971072852611541,0.590854287147522
1631106904292,0.429760992527008,0.1952018439769745,0.2175158560276031,0.5992407202720642
1631106904417,0.398381620645523,0.1863692998886108,0.2437392026185989,0.6002588868141174
1631106904479,0.3686891794204712,0.1714271008968353,0.2708235681056976,0.5937206149101257
1631106904620,0.3422402441501617,0.1512830853462219,0.2944705188274383,0.5829702019691467
1631106904745,0.3154103755950928,0.1282171159982681,0.3112642168998718,0.573959469795227
1631106904823,0.2872282862663269,0.10685346275568,0.3190185725688934,0.5707008838653564
1631106904917,0.2600995004177093,0.0902022644877433,0.3193852603435516,0.5710547566413879
1631106905011,0.2375722378492355,0.076294831931591,0.3173902034759521,0.5686571598052979
1631106905089,0.2224414646625518,0.0614654347300529,0.3195998072624206,0.5600327849388123
1631106905248,0.2169578522443771,0.0436345972120761,0.3290871977806091,0.5563679337501526
1631106905341,0.2162211388349533,0.0223328769207,0.3450194299221039,0.5484049320220947
1631106905435,0.2216021567583084,-0.0016632479382678,0.3667253255844116,0.5378937125205994
1631106905529,0.2315022349357605,-0.0222914293408393,0.3968531787395477,0.5232203602790833
1631106905638,0.2418808490037918,-0.0308401063084602,0.4337674677371979,0.5015162229537964
1631106905716,0.25050750374794,-0.0470372028648853,0.4684070944786072,0.4720324873924255
1631106905841,0.2552286684513092,-0.0510447137057781,0.4905494451522827,0.4389954507350921
1631106905967,0.2508969604969024,-0.0475607365369796,0.4973445832729339,0.4076084792613983
1631106906060,0.2302101701498031,-0.0406308062374591,0.4938840270042419,0.3820146024227142
1631106906138,0.1910556703805923,-0.0356426127254962,0.4873675107955932,0.3650654852390289
1631106906219,0.1428197175264358,-0.0347492024302482,0.4811765551567077,0.3555850982666015
1631106906328,0.1428197175264358,-0.0362315624952316,0.4754164218902588,0.3555850982666015
1631106906453,0.1428197175264358,-0.0362589918076992,0.4680710136890411,0.3555850982666015
1631106906547,0.1428197175264358,-0.0290712527930736,0.4575867652893066,0.3555850982666015
1631106906656,0.1428197175264358,-0.0159350335597991,0.4438052773475647,0.3555850982666015
1631106906750,0.1948693096637725,-0.0057083079591393,0.4294066429138183,0.4950514733791351
1631106906844,0.1861064434051513,-0.0083931591361761,0.4170882701873779,0.4968442320823669
1631106906922,0.1795728653669357,-0.0248139034956693,0.4043316841125488,0.5083994269371033
1631106907062,0.1811190247535705,-0.0492989234626293,0.3804327547550201,0.5323120951652527
1631106907156,0.193261057138443,-0.0743906795978546,0.3366324305534363,0.5610475540161133
1631106907238,0.2129683792591095,-0.0606200210750103,0.2756190299987793,0.5828554630279541
1631106907331,0.2338725328445434,-0.0503569282591342,0.2146707624197006,0.5902361869812012
1631106907441,0.2551198899745941,-0.0450847148895263,0.173978790640831,0.5841284394264221
1631106907550,0.2787415087223053,-0.0423441603779792,0.1583895087242126,0.5716925859451294
1631106907659,0.3031139075756073,-0.0363679490983486,0.1600793451070785,0.5599059462547302
1631106907769,0.3217223882675171,-0.025723161175847,0.1735409051179886,0.551464855670929
1631106907878,0.3291666507720947,-0.0129757914692163,0.1949504762887954,0.5465261936187744
1631106907956,0.3312294781208038,4.218319736537524e-05,0.2188901603221893,0.5479065179824829
1631106908050,0.3318327963352203,0.0120231611654162,0.2396610379219055,0.5511271953582764
1631106908159,0.3354279994964599,0.0228521209210157,0.2546456158161163,0.5534771084785461
1631106908300,0.3435833156108856,0.0348429232835769,0.264707863330841,0.5542758703231812
1631106908394,0.3551384508609772,0.051000453531742,0.2710148394107818,0.5528147220611572
1631106908487,0.3679851293563843,0.0699516460299491,0.2748066484928131,0.5469064712524414
1631106908581,0.3777327239513397,0.0851958245038986,0.2779613435268402,0.533767580986023
1631106908659,0.3797543048858642,0.0915865153074264,0.2813124656677246,0.5143970251083374
1631106908753,0.3719735145568847,0.0903568416833877,0.2854664921760559,0.4949618577957153
1631106908894,0.357862651348114,0.0873426049947738,0.2901119291782379,0.4829832911491394
1631106909003,0.3408693969249725,0.0856537595391273,0.2932420670986175,0.4808042347431183
1631106909112,0.3197605311870575,0.0847731232643127,0.2922084629535675,0.4858164489269256
1631106909194,0.2920912504196167,0.0842419266700744,0.2856818437576294,0.4952773451805115
1631106909288,0.262904018163681,0.0862898603081703,0.2751121819019317,0.5073814392089844
1631106909397,0.2423844337463379,0.0911933928728103,0.2631014287471771,0.5184959173202515
1631106909507,0.234519675374031,0.0949791148304939,0.2512447237968445,0.5261824131011963
1631106909585,0.2323809415102005,0.0935378223657608,0.2403847873210907,0.5316777229309082
1631106909694,0.2272473871707916,0.0876383930444717,0.2321519255638122,0.537480890750885
1631106909788,0.2171377688646316,0.0808742195367813,0.2285290509462356,0.5428680777549744
1631106909866,0.2048319429159164,0.0753786563873291,0.2311425656080246,0.545944094657898
1631106909991,0.1927761882543563,0.071658119559288,0.2395010888576507,0.5480912327766418
1631106910137,0.1854875683784485,0.0710369795560836,0.2498319596052169,0.5540304780006409
1631106910218,0.1893926858901977,0.075940802693367,0.2577435374259949,0.5648320317268372
1631106910296,0.2110976129770279,0.0874662771821022,0.260645180940628,0.5770924687385559
1631106910421,0.2502765953540802,0.1034693270921707,0.2588726282119751,0.5875435471534729
1631106910499,0.2985752522945404,0.1210877373814582,0.2564366161823272,0.5952245593070984
1631106910593,0.343757688999176,0.1389015167951584,0.2601222395896911,0.5987391471862793
1631106910702,0.3772753179073334,0.1559469848871231,0.2738712728023529,0.5951488614082336
1631106910827,0.3977059423923492,0.1706148833036422,0.294218897819519,0.5833057165145874
1631106910905,0.4108459055423736,0.1814184337854385,0.3148138523101806,0.5658042430877686
1631106910999,0.4236332476139068,0.1881583929061889,0.3327705860137939,0.54498690366745
1631106911108,0.4374694526195526,0.1925197392702102,0.3483722507953644,0.5218819379806519
1631106911205,0.4499053359031677,0.1948053985834121,0.3607062697410583,0.4992251992225647
1631106911345,0.4587584733963012,0.1929590702056884,0.3661369085311889,0.4839135110378265
1631106911423,0.4652342796325683,0.1848617196083068,0.3618014752864837,0.4833422899246216
1631106911548,0.4715281724929809,0.1714725941419601,0.3483212292194366,0.4947789311408996
1631106911626,0.4782254099845886,0.1570622622966766,0.3293286859989166,0.5061658620834351
1631106911705,0.4832067787647247,0.1453156471252441,0.3096915781497955,0.5085030198097229
1631106911814,0.4816096127033233,0.1352371722459793,0.2937079966068268,0.5021927356719971
1631106911923,0.468149870634079,0.1236311495304107,0.2838964760303497,0.4936892092227936
1631106912048,0.4424079060554504,0.1099114418029785,0.2795235514640808,0.489612340927124
1631106912111,0.4133565425872803,0.0984657332301139,0.273979902267456,0.4909556210041046
1631106912236,0.3959387838840484,0.0950206965208053,0.2589025199413299,0.4963398575782776
1631106912329,0.396687239408493,0.1011762246489524,0.2319658994674682,0.5040099024772644
1631106912407,0.4090616703033447,0.1137044951319694,0.2000310570001602,0.5129092931747437
1631106912552,0.4236374795436859,0.1298093199729919,0.1736791580915451,0.5244041681289673
1631106912677,0.4369949698448181,0.1493934839963913,0.1584172844886779,0.5406383275985718
1631106912755,0.4478623867034912,0.1726800799369812,0.1522546857595443,0.5608469247817993
1631106912833,0.4528358280658722,0.1959557235240936,0.1509237736463546,0.578909158706665
1631106912942,0.4485319554805755,0.2133908420801162,0.1522485762834549,0.5874191522598267
1631106913036,0.4343076944351196,0.2219962030649185,0.1560950428247451,0.5838215351104736
1631106913177,0.4130938053131103,0.2223435342311859,0.1638079732656479,0.571808934211731
1631106913255,0.3895847797393799,0.2165087610483169,0.1739083528518676,0.5575629472732544
1631106913333,0.3696387708187103,0.2069343030452728,0.1819807589054107,0.5444021224975586
1631106913444,0.3571743071079254,0.1965369433164596,0.1859339922666549,0.5321580767631531
1631106913523,0.3514871299266815,0.1877129226922989,0.1895315647125244,0.5204166173934937
1631106913616,0.3480525016784668,0.1788088381290435,0.2020649760961532,0.5123651623725891
1631106913772,0.3412380218505859,0.1651486903429031,0.2286335676908493,0.5129621028900146
1631106913866,0.3276832103729248,0.1448909640312194,0.2631060779094696,0.5233814120292664
1631106913960,0.305739164352417,0.1219405457377433,0.2932625114917755,0.5384442806243896
1631106914038,0.2761372029781341,0.1022307872772216,0.3110312223434448,0.5494912266731262
1631106914116,0.2430883646011352,0.0868368297815322,0.3156399130821228,0.5495733618736267
1631106914228,0.2150208950042724,0.0724728032946586,0.31212317943573,0.5370293855667114
1631106914399,0.1998064219951629,0.0579375736415386,0.3077625334262848,0.5163463354110718
1631106914493,0.1994036138057708,0.0483688898384571,0.3077641725540161,0.4947740733623504
1631106914587,0.2089917957782745,0.0485687479376792,0.3123417496681213,0.478611946105957
1631106914665,0.2219117879867553,0.0584537051618099,0.3170126676559448,0.469714343547821
1631106914759,0.235082134604454,0.0746665820479393,0.3189952969551086,0.4659102857112884
1631106914837,0.2479762881994247,0.0938999652862548,0.3194125294685364,0.464766263961792
1631106914977,0.2608919143676758,0.1141062676906585,0.3195728361606598,0.4655409455299377
1631106915070,0.2719795703887939,0.1319849193096161,0.3171090185642242,0.4673559069633484
1631106915188,0.2779238522052765,0.1431750953197479,0.3071306943893432,0.4675404131412506
1631106915266,0.277143657207489,0.145146906375885,0.2870945036411285,0.4608946144580841
1631106915359,0.2741028964519501,0.1386897265911102,0.2606592178344726,0.4456170797348022
1631106915453,0.2763221859931946,0.1279181540012359,0.2390493303537368,0.4282253980636596
1631106915594,0.2858850657939911,0.1157186627388,0.2351269721984863,0.4217371940612793
1631106915688,0.2981570363044739,0.1015941128134727,0.2517261207103729,0.4335311949253082
1631106915813,0.3082866966724396,0.084055371582508,0.2780387699604034,0.4562034904956817
1631106915891,0.3159750401973724,0.0659918114542961,0.3001316487789154,0.4761869609355926
1631106915984,0.321542888879776,0.0529300794005394,0.3125925362110138,0.4863635599613189
1631106916078,0.3254252970218658,0.0483728125691413,0.3214529156684875,0.4879236817359924
1631106916203,0.3287155926227569,0.0512036979198455,0.3372066020965576,0.4860553443431854
1631106916297,0.3352947533130646,0.0591223947703838,0.363595575094223,0.4843683242797851
1631106916391,0.348543643951416,0.0700749456882476,0.3935810029506683,0.4832916855812073
1631106916484,0.3686397671699524,0.0804538205265998,0.416879266500473,0.4806888997554779
1631106916594,0.3912442624568939,0.0883552059531211,0.4288088381290436,0.4738816022872925
1631106916687,0.4113951921463012,0.0962999984622001,0.431198388338089,0.4620279669761657
1631106916812,0.4287503659725189,0.1095140725374221,0.429540604352951,0.4476811289787292
1631106916906,0.4458066821098327,0.1295984089374542,0.4298134446144104,0.4347389340400696
1631106917000,0.4642912745475769,0.1508302390575409,0.4352450370788574,0.4241927862167358
1631106917125,0.4823302626609802,0.1652050763368606,0.4438937306404114,0.4118272960186004
1631106917187,0.4957200586795807,0.1694719493389129,0.4509601891040802,0.3929210603237152
1631106917312,0.4995083510875702,0.1669320166110992,0.4537559449672699,0.3634450733661651
1631106917437,0.5059050917625427,0.1627735793590545,0.4555229544639587,0.3357123732566833
1631106917546,0.5169122815132141,0.16238634288311,0.4624873995780945,0.3193720877170563
1631106917625,0.533804178237915,0.1661590486764907,0.4805849194526672,0.3138225376605987
1631106917718,0.555395781993866,0.1706567704677581,0.480284035205841,0.3104704022407532
1631106917796,0.5766780376434326,0.1682435274124145,0.4732614755630493,0.3049385249614715
1631106917890,0.5914815068244934,0.1602417379617691,0.4629795849323272,0.2996267974376678
1631106918031,0.5960259437561035,0.1486679166555404,0.4575720727443695,0.2991928160190582
1631106918140,0.5934422612190247,0.1370659619569778,0.4641074240207672,0.3068030774593353
1631106918234,0.5938294529914856,0.1272192448377609,0.4834411144256592,0.32508385181427
1631106918312,0.6047197580337524,0.117345817387104,0.5103499293327332,0.3546425104141235
1631106918406,0.6047197580337524,0.1118368282914161,0.5409002304077148,0.3546425104141235
1631106918484,0.6047197580337524,0.1186177507042884,0.5470190048217773,0.3546425104141235
1631106918640,0.6047197580337524,0.1429501920938491,0.5336828231811523,0.3546425104141235
1631106918765,0.6047197580337524,0.1757173091173172,0.5155579447746277,0.3546425104141235
1631106918827,0.6047197580337524,0.2029447555541992,0.5105938911437988,0.3546425104141235
1631106918921,0.4266724586486816,0.2207298725843429,0.5218173861503601,0.6150526404380798
1631106919015,0.4349536895751953,0.2313536405563354,0.5367046594619751,0.5984091758728027
1631106919140,0.4485539197921753,0.2397606819868087,0.5349161624908447,0.5905808210372925
1631106919281,0.4525263607501983,0.2470554858446121,0.5459736585617065,0.5901795029640198
1631106919363,0.4414395987987518,0.2490789592266082,0.5505661368370056,0.5932466387748718
1631106919457,0.4222545623779297,0.2471936047077179,0.5484909415245056,0.5945988893508911
1631106919566,0.405640572309494,0.2404698580503463,0.5427001714706421,0.5945988893508911
1631106919629,0.4036003351211548,0.2292599529027938,0.5373584032058716,0.5945988893508911
1631106919753,0.4188759624958038,0.2164837718009948,0.5370213389396667,0.5945988893508911
1631106919878,0.4457675516605377,0.2112531065940857,0.5438421964645386,0.6073257923126221
1631106919941,0.4739056825637817,0.2061002850532531,0.5550451278686523,0.631332278251648
1631106920035,0.4948874115943908,0.196432426571846,0.5741258859634399,0.631332278251648
1631106920113,0.5092064738273621,0.1809924840927124,0.5938421487808228,0.6301798224449158
1631106920238,0.5115755796432495,0.1673835068941116,0.6077427268028259,0.6277126669883728
1631106920381,0.5067774653434753,0.1647053658962249,0.6125326156616211,0.6299116611480713
1631106920459,0.4971390068531036,0.1707198619842529,0.6098508238792419,0.6403680443763733
1631106920584,0.4828356504440307,0.1734568327665329,0.6052615642547607,0.6569815278053284
1631106920646,0.4661782383918762,0.1659164726734161,0.6054192185401917,0.6607222557067871
1631106920803,0.4527356922626495,0.1561613976955413,0.6130996942520142,0.6591882109642029
1631106920881,0.4483320116996765,0.1599501371383667,0.625486433506012,0.6531803607940674
1631106920959,0.4538251459598541,0.1823441386222839,0.6384976506233215,0.6454271674156189
1631106921099,0.4659828841686249,0.2122998684644699,0.6501196622848511,0.6313321590423584
1631106921178,0.4773246049880981,0.2372180670499801,0.6609623432159424,0.6224066019058228
1631106921273,0.4820861220359802,0.2530893981456756,0.6701692938804626,0.6178953051567078
1631106921355,0.4781690537929535,0.2622432708740234,0.6761791706085205,0.6021878719329834
1631106921433,0.4674937725067138,0.2687495648860931,0.6811089515686035,0.5622464418411255
1631106921526,0.4545632898807525,0.2752488553524017,0.6891379952430725,0.5545704960823059
1631106921683,0.4454860389232635,0.2817206382751465,0.7009135484695435,0.5466187000274658
1631106921776,0.4449822008609772,0.2858947813510895,0.7131066918373108,0.5410534143447876
1631106921870,0.4527989029884338,0.2857554852962494,0.7241541147232056,0.5395213961601257
1631106921979,0.463784784078598,0.2834804952144623,0.7355071306228638,0.5418304204940796
1631106922073,0.4716317057609558,0.2846740186214447,0.7466940879821777,0.5460720658302307
1631106922151,0.474185973405838,0.2917365729808807,0.7534365653991699,0.5476310849189758
1631106922310,0.472237229347229,0.2988185584545135,0.7531769275665283,0.5472770929336548
1631106922372,0.4662676155567169,0.2965862154960632,0.7496350407600403,0.545486569404602
1631106922497,0.4555608332157135,0.2841084599494934,0.7488436698913574,0.5446372032165527
1631106922591,0.4394479393959045,0.2717596888542175,0.7550098896026611,0.5443276762962341
1631106922669,0.4176490008831024,0.270268827676773,0.7669098377227783,0.5409439206123352
1631106922763,0.3899383246898651,0.2779678702354431,0.7795799970626831,0.5324529409408569
1631106922904,0.3558685779571533,0.2850785851478576,0.788186252117157,0.5202416777610779
1631106922997,0.3177507221698761,0.2854743897914886,0.7911454439163208,0.5097014904022217
1631106923107,0.2812775075435638,0.280998170375824,0.7908847332000732,0.5050733685493469
1631106923216,0.2501935362815857,0.2756891846656799,0.7923117280006409,0.5054130554199219
1631106923278,0.2233505547046661,0.2711867988109588,0.7985295653343201,0.5067281126976013
1631106923357,0.1983385533094406,0.2674626410007477,0.8070803284645081,0.5047224164009094
1631106923528,0.1777037233114242,0.2648802697658539,0.81345134973526,0.4983709156513214
1631106923622,0.1700402200222015,0.2656715512275696,0.8154553174972534,0.4902217388153076
1631106923700,0.1822192817926406,0.2705186903476715,0.8158161640167236,0.4848242998123169
1631106923810,0.2136476933956146,0.2767287194728851,0.8183770179748535,0.4852197170257568
1631106923903,0.2549251317977905,0.2805292010307312,0.8227745890617371,0.4902538657188415
1631106923997,0.2945722937583923,0.2811039090156555,0.8242615461349487,0.4952819347381592
1631106924138,0.3252931237220764,0.2814854383468628,0.8176504969596863,0.4966779053211212
1631106924231,0.3470539152622223,0.2846747636795044,0.8014172911643982,0.4956019818782806
1631106924309,0.3629616200923919,0.29100501537323,0.780028223991394,0.4956274628639221
1631106924419,0.3748319447040558,0.2992616593837738,0.7607051134109497,0.4987741410732269
1631106924497,0.3839423358440399,0.3086754083633423,0.7453588843345642,0.5013256072998047
1631106924606,0.3942784070968628,0.3181989192962646,0.7294191718101501,0.4975515305995941
1631106924731,0.4119644165039062,0.3260983824729919,0.7077041864395142,0.4855188131332397
1631106924825,0.4382810592651367,0.3317402005195617,0.6813625693321228,0.467611700296402
1631106924903,0.466909110546112,0.3355040848255157,0.6585216522216797,0.4482630491256714
1631106925028,0.4885555803775787,0.3374888598918915,0.6452746391296387,0.4301089644432068
1631106925137,0.4979559183120727,0.3354180753231048,0.6393502950668335,0.4127447307109833
1631106925200,0.4952653646469116,0.3279070258140564,0.6313098669052124,0.3929314017295837
1631106925375,0.4836758375167846,0.318019151687622,0.6133379936218262,0.3687184751033783
1631106925453,0.4672991335391998,0.3101070821285248,0.5872045159339905,0.3413445651531219
1631106925531,0.4496059715747833,0.3031011819839477,0.564288318157196,0.3157649636268616
1631106925625,0.4333419501781463,0.2912083268165588,0.5554404854774475,0.2973211109638214
1631106925703,0.4201329052448272,0.2724353969097137,0.5639657974243164,0.2893279194831848
1631106925828,0.4110195338726043,0.2518069148063659,0.5829304456710815,0.2941831946372986
1631106925953,0.4069563150405884,0.2354962825775146,0.6017228364944458,0.3127245306968689
1631106926047,0.4066418409347534,0.2243284881114959,0.6150324940681458,0.3442643880844116
1631106926140,0.4039787054061889,0.2147940844297409,0.6233420372009277,0.3867871165275574
1631106926234,0.3903003633022308,0.205360397696495,0.6281525492668152,0.4343905448913574
1631106926331,0.3613912761211395,0.196097046136856,0.6279972791671753,0.4782234132289886
1631106926409,0.3220594227313995,0.1865433603525161,0.6193287372589111,0.5108272433280945
1631106926565,0.2843425273895263,0.1756429672241211,0.602668285369873,0.5297448635101318
1631106926690,0.2579785585403442,0.1652469336986541,0.5869126319885254,0.5379713773727417
1631106926753,0.2431661784648895,0.1594320088624954,0.5843502283096313,0.5411533713340759
1631106926831,0.2393948584794998,0.158372089266777,0.5994113087654114,0.542990505695343
1631106926971,0.2522526979446411,0.159810408949852,0.6228111386299133,0.5459128618240356
1631106927050,0.284695029258728,0.1644666939973831,0.6413246989250183,0.5516331195831299
1631106927159,0.3254765272140503,0.175022467970848,0.6492958664894104,0.5599513649940491
1631106927253,0.3579089045524597,0.1897344291210174,0.6485965847969055,0.5665910840034485
1631106927362,0.3727808594703674,0.2027332633733749,0.6434100270271301,0.5650561451911926
1631106927456,0.3733048439025879,0.2116416096687317,0.6368916034698486,0.5514540672302246
1631106927549,0.3710810542106628,0.2211293578147888,0.6303033232688904,0.5264330506324768
1631106927659,0.3779061734676361,0.2357090711593628,0.6256970763206482,0.4940267503261566
1631106927768,0.3971777558326721,0.2540079355239868,0.6274070143699646,0.4603591561317444
1631106927893,0.4225493669509887,0.2719733715057373,0.639247477054596,0.4338299334049225
1631106927971,0.4440163671970367,0.2883572578430176,0.659481942653656,0.4207006692886352
1631106928069,0.457310289144516,0.3034332394599914,0.6806311011314392,0.4203942716121673
1631106928156,0.4648807644844055,0.3149373829364776,0.6933274269104004,0.4265026748180389
1631106928250,0.4708246290683746,0.3194491565227508,0.6930815577507019,0.4345937669277191
1631106928375,0.4736354053020477,0.3173224627971649,0.6824409365653992,0.4436740577220917
1631106928484,0.4665228426456451,0.3141089677810669,0.6689174175262451,0.4516108334064483
1631106928593,0.4450509548187256,0.3147075772285461,0.6602256894111633,0.4545548856258392
1631106928687,0.4141103625297546,0.317836195230484,0.6584038138389587,0.4520879089832306
1631106928796,0.3864122331142425,0.3183636367321014,0.6584640741348267,0.4494747519493103
1631106928859,0.3756538033485412,0.315387487411499,0.6557390093803406,0.4529034793376922
1631106929031,0.3843756914138794,0.3132736682891845,0.6512443423271179,0.4640525877475738
1631106929093,0.4016068577766418,0.3154623806476593,0.6504766941070557,0.4790450930595398
1631106929202,0.4118965268135071,0.3196204304695129,0.6555875539779663,0.4913018345832824
1631106929296,0.4066458642482757,0.3202388882637024,0.6614567637443542,0.4955114722251892
1631106929390,0.3894368708133697,0.314824104309082,0.6598272919654846,0.489194244146347
1631106929468,0.3728725612163543,0.3050114512443542,0.6471877694129944,0.4744227826595306
1631106929609,0.3664546906948089,0.2949459552764892,0.6267032027244568,0.4571524858474731
1631106929702,0.3681317567825317,0.2893634140491485,0.6063815951347351,0.4421361982822418
1631106929812,0.3718858957290649,0.2913479804992676,0.5918607115745544,0.4287297427654266
1631106929874,0.3781414330005646,0.3011137545108795,0.5820863246917725,0.41353440284729
1631106930015,0.3928641378879547,0.3153553009033203,0.5730668902397156,0.3956701755523681
1631106930093,0.4157226085662842,0.3298532664775848,0.5631536841392517,0.3793393075466156
1631106930218,0.4377108216285705,0.3422138690948486,0.5538620352745056,0.3695995807647705
1631106930358,0.4516051709651947,0.3533263802528381,0.5476572513580322,0.3594420850276947
1631106930405,0.4571272730827331,0.3635129034519195,0.545735239982605,0.3449588716030121
1631106930499,0.4558827877044678,0.3692361712455749,0.5463938117027283,0.3251827359199524
1631106930593,0.4486844837665558,0.3647103011608124,0.5442071557044983,0.3011096119880676
1631106930686,0.4398078620433807,0.3495156168937683,0.5343242287635803,0.2751154899597168
1631106930843,0.4371362924575805,0.3329812884330749,0.5174616575241089,0.250579684972763
1631106930921,0.4448119699954986,0.3256290555000305,0.5011625289916992,0.2324636727571487
1631106931046,0.4602494835853576,0.3302407264709472,0.4934153854846954,0.2241928726434707
1631106931124,0.4785272479057312,0.3390072882175445,0.4965276718139648,0.2233231961727142
1631106931218,0.4987889230251312,0.3436413407325744,0.5071984529495239,0.2268836349248886
1631106931296,0.5218043327331543,0.3407811224460602,0.522237241268158,0.2364914864301681
1631106931436,0.5427758097648621,0.3298807442188263,0.5432249307632446,0.2364914864301681
1631106931530,0.5494170188903809,0.3110015392303467,0.5738678574562073,0.2364914864301681
1631106931624,0.5494170188903809,0.2840862870216369,0.6121717095375061,0.2364914864301681
1631106931717,0.5494170188903809,0.2527567148208618,0.6485061645507812,0.2364914864301681
1631106931811,0.5494170188903809,0.2237651795148849,0.6736074686050415,0.2364914864301681
1631106931905,0.5494170188903809,0.2040929496288299,0.6837566494941711,0.2364914864301681
