timestamp,TP9,AF7,AF8,TP10
1631106796174,0.751403272151947,-0.0683523714542388,0.2246734052896499,0.2838568389415741
1631106796267,0.7747148275375366,-0.0662361904978752,0.2185307443141937,0.3190279304981231
1631106796345,0.8048241138458252,-0.0706732645630836,0.2155712395906448,0.3559186458587646
1631106796439,0.8317765593528748,-0.0823194906115531,0.2141288965940475,0.3845356404781341
1631106796533,0.8454810380935669,-0.1010055392980575,0.2118249386548996,0.3971790969371795
1631106796611,0.850847601890564,-0.1264392435550689,0.2075324207544326,0.3923205733299255
1631106796783,0.8530178666114807,-0.1574041843414306,0.2013749778270721,0.3754484057426452
1631106796876,0.855494499206543,-0.18950155377388,0.1950213462114334,0.3559488356113434
1631106796955,0.8610812425613403,-0.2146502286195755,0.1922993808984756,0.3426926732063293
1631106797048,0.8686935305595398,-0.2298484295606613,0.1951100528240203,0.3424861431121826
1631106797126,0.8813121318817139,-0.2416343688964843,0.2025406211614608,0.359476625919342
1631106797251,0.895888090133667,-0.2572279274463653,0.2107143104076385,0.390307068824768
1631106797376,0.8972160220146179,-0.2736546397209167,0.2156993448734283,0.4232861995697021
1631106797486,0.8977863788604736,-0.279823899269104,0.2155067473649978,0.4355669915676117
1631106797579,0.9028884768486024,-0.270466148853302,0.2115007936954498,0.4437480866909027
1631106797673,0.9020739793777466,-0.2518787384033203,0.2055118680000305,0.4441967606544494
1631106797767,0.8990048766136169,-0.2314550280570984,0.1989313513040542,0.4359947741031647
1631106797845,0.8858491778373718,-0.2126803994178772,0.1920810043811798,0.4221420288085937
1631106797986,0.8684938549995422,-0.1973300129175186,0.1862434446811676,0.4221628606319427
1631106798079,0.8583788275718689,-0.1879929304122924,0.1863302886486053,0.4370224773883819
1631106798176,0.855291485786438,-0.1859742701053619,0.1948642581701278,0.4557066559791565
1631106798285,0.8597026467323303,-0.1886504292488098,0.2073182463645935,0.4657651484012604
1631106798363,0.8721451759338379,-0.1927477866411209,0.2149739414453506,0.4640186727046966
1631106798457,0.8721451759338379,-0.1965070068836212,0.210580289363861,0.4533619582653045
1631106798613,0.8721451759338379,-0.1973406672477722,0.19378562271595,0.4373452067375183
1631106798707,0.8721451759338379,-0.1929333955049514,0.1687268167734146,0.4130265712738037
1631106798800,0.8721451759338379,-0.185650423169136,0.1402956545352935,0.3761592209339142
1631106798894,0.493138313293457,-0.1845095157623291,0.1121757701039314,0.3297851979732513
1631106798988,0.4312420785427093,-0.1975684016942978,0.088055707514286,0.3227374255657196
1631106799050,0.380166620016098,-0.2242098301649093,0.0723777562379837,0.3165036141872406
1631106799191,0.343401700258255,-0.255595713853836,0.0694702640175819,0.3151673972606659
1631106799300,0.3205881714820862,-0.2840101420879364,0.0777197778224945,0.3178671300411224
1631106799394,0.3079811930656433,-0.3063700795173645,0.0899117663502693,0.3208879232406616
1631106799488,0.3005699813365936,-0.3232519924640655,0.0983717963099479,0.3050025999546051
1631106799582,0.296782910823822,-0.3351088464260101,0.0964711382985115,0.281528115272522
1631106799675,0.3015948235988617,-0.3430637121200561,0.0826787203550338,0.2595625817775726
1631106799831,0.3132935762405395,-0.3485795855522156,0.0614826194941997,0.2491942644119262
1631106799910,0.3394216001033783,-0.3493161201477051,0.0403474010527133,0.251845121383667
1631106800019,0.3630669116973877,-0.3438096642494201,0.0246932245790958,0.263420432806015
1631106800113,0.3442080020904541,-0.3358461558818817,0.0149699011817574,0.276604950428009
1631106800225,0.3407996594905853,-0.3303723335266113,0.0107974270358681,0.2868577837944031
1631106800287,0.3706960380077362,-0.3272231221199035,0.0150315640494227,0.2928029894828796
1631106800443,0.4334304928779602,-0.3220499753952026,0.0293698813766241,0.2949368953704834
1631106800538,0.5069584846496582,-0.3133015036582947,0.0480590164661407,0.2929496467113495
1631106800600,0.5624223351478577,-0.3052543997764587,0.0610783472657203,0.2843700647354126
1631106800693,0.5903211832046509,-0.3009311258792877,0.0610841549932956,0.2680404484272003
1631106800803,0.5986657738685608,-0.2987209260463714,0.0484263896942138,0.2465069442987442
1631106800881,0.5964778065681458,-0.2969266176223755,0.0292591173201799,0.2249578982591629
1631106801037,0.5928586721420288,-0.295478492975235,0.0111212041229009,0.2100007236003875
1631106801115,0.5912562012672424,-0.295895516872406,0.000136632748763,0.208414226770401
1631106801196,0.604229748249054,-0.2995199263095855,-0.0013924177037552,0.2090406566858291
1631106801321,0.6149545311927795,-0.3074676394462585,0.0048093786463141,0.2116438150405883
1631106801399,0.6173832416534424,-0.3186379075050354,0.0148797426372766,0.2129257023334503
1631106801493,0.6185727119445801,-0.3259718716144562,0.0247234087437391,0.2080662846565246
1631106801665,0.6247100830078125,-0.3218782246112823,0.0315691903233528,0.1927482485771179
1631106801743,0.6341968178749084,-0.3059606850147247,0.038328792899847,0.1649749130010604
1631106801868,0.6302200555801392,-0.2839663326740265,0.0499261617660522,0.1278416961431503
1631106801915,0.588954746723175,-0.2601375877857208,0.0676711797714233,0.0908405259251594
1631106802040,0.4917163550853729,-0.2345995455980301,0.0880033522844314,0.0672624930739402
1631106802149,0.3481829464435577,-0.2068886756896972,0.1077054664492607,0.0673067867755889
1631106802303,0.2093150168657302,-0.1801937967538833,0.1273648589849472,0.0893575176596641
1631106802367,0.2093150168657302,-0.1567621529102325,0.1476942896842956,0.0893575176596641
1631106802462,0.2093150168657302,-0.1369402706623077,0.1657417714595794,0.0893575176596641
1631106802568,0.2093150168657302,-0.1215224042534828,0.176943227648735,0.0893575176596641
1631106802640,0.2093150168657302,-0.111844390630722,0.1798675209283828,0.0893575176596641
1631106802781,0.2093150168657302,-0.1073021218180656,0.1772431284189224,0.593129575252533
1631106802859,0.2093150168657302,-0.1059559136629104,0.1734223514795303,0.5597341060638428
1631106802938,0.2093150168657302,-0.1072277799248695,0.1715865582227707,0.5215970277786255
1631106803031,0.6057347655296326,-0.1139263063669204,0.171557068824768,0.486318826675415
1631106803158,0.5761552453041077,-0.1279052942991256,0.1714666783809662,0.4579712450504303
1631106803237,0.5529752969741821,-0.147678405046463,0.1677177399396896,0.4404394924640655
1631106803346,0.5401936769485474,-0.1701129525899887,0.1564343273639679,0.4367077946662903
1631106803470,0.530920684337616,-0.1941708326339721,0.1356265544891357,0.4447272717952728
1631106803565,0.5208868980407715,-0.2201157808303833,0.1085051745176315,0.4580084979534149
1631106803661,0.5068782567977905,-0.2462582886219024,0.0804399847984314,0.4695246517658233
1631106803751,0.4937127232551574,-0.2689806520938873,0.0538438148796558,0.4745003879070282
1631106803840,0.4872934818267822,-0.2881141006946563,0.0282280035316944,0.4713925719261169
1631106803934,0.4638426005840301,-0.3063649535179138,0.005917222239077,0.4521446526050567
1631106804093,0.4529465436935425,-0.3211477100849151,-0.0062850601971149,0.4203706383705139
1631106804155,0.4621123373508453,-0.3245255351066589,-0.0047193858772516,0.3868594169616699
1631106804263,0.4620786607265472,-0.3140392005443573,0.0054622013121843,0.3637238442897796
1631106804373,0.4531759023666382,-0.2948606312274933,0.0141598070040345,0.3556874394416809
1631106804450,0.4327053427696228,-0.2731821835041046,0.0129245035350322,0.3579201698303222
1631106804546,0.4114153981208801,-0.2502883076667785,0.0012196770403534,0.36190265417099
1631106804686,0.3945829272270202,-0.226998284459114,-0.0157729256898164,0.3627236485481262
1631106804781,0.3834818303585052,-0.2059382945299148,-0.0325069837272167,0.3570037484169006
1631106804871,0.3726776242256164,-0.1886828392744064,-0.0471732281148433,0.3397554159164428
1631106804974,0.3653287589550018,-0.1740680485963821,-0.057618711143732,0.3080195188522339
1631106805090,0.3621076047420501,-0.1622127890586853,-0.0610241293907165,0.2645402550697326
1631106805153,0.3634745478630066,-0.1541236639022827,-0.0547098256647586,0.2177759259939193
1631106805296,0.3651741147041321,-0.1474532335996627,-0.0382238291203975,0.1784065216779709
1631106805374,0.3595272004604339,-0.135705828666687,-0.0138276917859911,0.1534803509712219
1631106805483,0.3426366746425628,-0.1143051907420158,0.0139920972287654,0.1430833041667938
1631106805577,0.3175836503505707,-0.0869544446468353,0.0412165373563766,0.142764464020729
1631106805671,0.2903210520744324,-0.0619058907032012,0.064875029027462,0.1459663659334182
1631106805775,0.2708289325237274,-0.0442568399012088,0.0837769955396652,0.146880567073822
1631106805900,0.2637902796268463,-0.0347417891025543,0.0991345420479774,0.1431654244661331
1631106805993,0.2648795545101166,-0.0331683307886123,0.1147850751876831,0.1352785974740982
1631106806103,0.2681394517421722,-0.0404002740979194,0.1340654194355011,0.1263724118471145
1631106806197,0.2698369026184082,-0.0552446842193603,0.1555698364973068,0.1210936084389686
1631106806274,0.2668466866016388,-0.0745564177632331,0.1740560978651046,0.1248349323868751
1631106806418,0.2624406218528747,-0.0952389016747474,0.1861771196126938,0.1418130993843078
1631106806496,0.2564161717891693,-0.1150469556450843,0.1918161660432815,0.169036328792572
1631106806621,0.2494176030158996,-0.129815012216568,0.1931686848402023,0.198502704501152
1631106806715,0.2442961633205413,-0.1366964876651764,0.191781461238861,0.224051758646965
1631106806793,0.2400160282850265,-0.1393236517906189,0.1876582652330398,0.243874967098236
1631106806887,0.2348420917987823,-0.1469030380249023,0.1804870814085006,0.2585995197296142
1631106806996,0.2282618433237075,-0.167276531457901,0.1714691072702407,0.2686204314231872
1631106807121,0.2188141047954559,-0.2018436789512634,0.1613444536924362,0.2733945548534393
1631106807230,0.2106210142374038,-0.2464203685522079,0.1499661058187484,0.2727931439876556
1631106807326,0.2070089876651764,-0.2942702174186706,0.1379360407590866,0.2673029899597168
1631106807407,0.2044707685708999,-0.3372977972030639,0.127778947353363,0.2600764632225036
1631106807485,0.2031509578227996,-0.3679538369178772,0.1211483106017112,0.2579201459884643
1631106807579,0.2037458717823028,-0.3819675743579864,0.1159948632121086,0.2658473253250122
1631106807735,0.2052630186080932,-0.3826750218868255,0.1094553768634796,0.2819583714008331
1631106807829,0.2104591876268386,-0.3750164210796356,0.1037395969033241,0.2990180552005768
1631106807907,0.2176295816898346,-0.3636688590049743,0.1035241708159446,0.3108327090740204
1631106808001,0.2220344841480255,-0.3540361821651459,0.1095808669924736,0.3156650066375732
1631106808126,0.2217482924461364,-0.3528112173080444,0.1158205717802047,0.3146347999572754
1631106808204,0.2160930186510086,-0.3618045747280121,0.1156664714217186,0.3102532923221588
1631106808331,0.2119507044553756,-0.3766660690307617,0.1073807403445243,0.3059039115905761
1631106808425,0.2181486785411834,-0.3902899324893951,0.0940712913870811,0.3045629560947418
1631106808566,0.232117474079132,-0.3957729935646057,0.0788372308015823,0.3068235218524933
1631106808666,0.2473514229059219,-0.3871784508228302,0.0627745687961578,0.3118848204612732
1631106808728,0.2558430135250091,-0.3631264865398407,0.0454822890460491,0.3201247751712799
1631106808823,0.2574659883975982,-0.331553190946579,0.0270075052976608,0.3324027955532074
1631106808962,0.2586731016635895,-0.3062308132648468,0.0096591552719473,0.3463530838489532
1631106809059,0.2610645592212677,-0.2962304055690765,-0.0019600193481892,0.3554447293281555
1631106809155,0.263097733259201,-0.3003325164318084,-0.0019142733654007,0.3535109758377075
1631106809233,0.2606397867202759,-0.3122439682483673,0.0131403999403119,0.33881875872612
1631106809342,0.2507513463497162,-0.3271258473396301,0.0393720567226409,0.3143766820430755
1631106809452,0.2342842072248459,-0.3424050211906433,0.0699245631694793,0.2854189872741699
1631106809546,0.2166577875614166,-0.3556664586067199,0.0996221303939819,0.2567310631275177
1631106809644,0.2046307027339935,-0.3628495037555694,0.126915156841278,0.2320721298456192
1631106809740,0.2003090530633926,-0.3621263206005096,0.1529992818832397,0.2141343653202057
1631106809848,0.1951188743114471,-0.3545608520507812,0.1804930418729782,0.2030025720596313
1631106809954,0.180118441581726,-0.344041645526886,0.2101042866706848,0.1955417394638061
1631106810032,0.1531265974044799,-0.3366218209266662,0.239551842212677,0.1879382580518722
1631106810170,0.1214422136545181,-0.3404625356197357,0.264890968799591,0.1773081123828888
1631106810264,0.0941150858998298,-0.3611054718494415,0.2832913398742676,0.1605611145496368
1631106810420,0.0708515718579292,-0.3955670893192291,0.2950447499752044,0.1353091895580291
1631106810467,0.0484826639294624,-0.4302811324596405,0.3024795353412628,0.1027367115020752
1631106810561,0.0264916718006134,-0.4488269984722137,0.3074988126754761,0.0700070336461067
1631106810670,0.016183903440833,-0.4455037713050842,0.3081853091716766,0.0485140345990657
1631106810795,0.0294188745319843,-0.4241906404495239,0.2998867034912109,0.0439079962670803
1631106810876,0.0609787106513977,-0.3906655609607696,0.2788918912410736,0.0511798188090324
1631106810970,0.0990519225597381,-0.3506633043289184,0.2452233284711837,0.0615489147603511
1631106811064,0.1295554786920547,-0.3116200566291809,0.2036733329296112,0.0713986232876777
1631106811176,0.1466154158115387,-0.2822054922580719,0.1619255542755127,0.0806507691740989
1631106811254,0.1525556296110153,-0.2656327486038208,0.1260288953781128,0.0878775790333747
1631106811379,0.1496005207300186,-0.259813129901886,0.0954593643546104,0.0893721804022789
1631106811473,0.1425863057374954,-0.2597690522670746,0.0652697533369064,0.0836595818400383
1631106811583,0.1375938206911087,-0.2611745595932007,0.032957587391138,0.0745465755462646
1631106811663,0.1355240046977996,-0.2613821923732757,0.0034337355755269,0.0666926279664039
1631106811757,0.1385914534330368,-0.2588719427585602,-0.013774549588561,0.0611878968775272
1631106811855,0.1465625911951065,-0.2538343369960785,-0.0148502215743064,0.0585365071892738
1631106811999,0.1598411202430725,-0.2497330456972122,-0.0063961115665733,0.0603549107909202
1631106812087,0.1767697632312774,-0.2504732012748718,0.0014395808102563,0.0665916129946708
1631106812199,0.1897386908531189,-0.2568473517894745,0.0060631735250353,0.0727134421467781
1631106812277,0.1917772144079208,-0.2665621042251587,0.0130485594272613,0.0738380029797554
1631106812370,0.1805527359247207,-0.2787584066390991,0.0262703094631433,0.0702464655041694
1631106812464,0.1596797704696655,-0.2953414022922516,0.0411819852888584,0.0665859580039978
1631106812605,0.1385767012834549,-0.3168179392814636,0.0509852282702922,0.0651004388928413
1631106812697,0.1234053075313568,-0.336869478225708,0.0540872998535633,0.0645139813423156
1631106812796,0.1137678995728492,-0.3477090001106262,0.0528905056416988,0.0642064064741134
1631106812939,0.1116698086261749,-0.3491461277008056,0.0493109934031963,0.0655683875083923
1631106812994,0.1152448952198028,-0.3487671613693237,0.0427772514522075,0.0684833526611328
1631106813103,0.1235147193074226,-0.3523677289485931,0.0331162363290786,0.0717702358961105
1631106813212,0.134221464395523,-0.3589178919792175,0.0225770622491836,0.0750400349497795
1631106813322,0.1405882090330124,-0.3642027080059051,0.0150729743763804,0.0805820822715759
1631106813416,0.1417825818061828,-0.366692304611206,0.0141211347654461,0.0922240018844604
1631106813494,0.132828950881958,-0.3675595223903656,0.019458882510662,0.1117296516895294
1631106813590,0.1134852617979049,-0.3685516119003296,0.0277562346309423,0.1372605711221695
1631106813680,0.0858910903334617,-0.3725295066833496,0.0339255332946777,0.1636630892753601
1631106813805,0.0549481026828289,-0.3834867775440216,0.0332417711615562,0.1851255446672439
1631106813916,0.0278987996280193,-0.4006035625934601,0.0249332804232835,0.1981892734766006
1631106814025,0.0078125149011611,-0.414187341928482,0.0140227386727929,0.202711671590805
1631106814102,-0.0066011594608426,-0.4137819111347198,0.0074429777450859,0.2111303508281707
1631106814186,-0.0215444024652242,-0.4008487462997436,0.0075451657176017,0.2185854315757751
1631106814280,-0.0370578169822692,-0.3869252502918243,0.0111879538744688,0.2232915312051773
1631106814446,-0.0528932400047779,-0.3765690624713897,0.0150483213365077,0.2240107655525207
1631106814537,-0.0678206607699394,-0.3641546368598938,0.0202686171978712,0.2237847447395324
1631106814626,-0.082637570798397,-0.3654631078243255,0.0295607149600982,0.2282723635435104
1631106814701,-0.1002128645777702,-0.3594292998313904,0.0426206588745117,0.2423237115144729
1631106814826,-0.1186330467462539,-0.3495509326457977,0.0554604791104793,0.2654983401298523
1631106814918,-0.1397337764501571,-0.339681476354599,0.0616935975849628,0.2889178395271301
1631106815041,-0.1540780961513519,-0.3294727504253387,0.0572454854846,0.3000532686710357
1631106815135,-0.1533022075891494,-0.3152885437011719,0.0354712344706058,0.2881086766719818
1631106815230,-0.1533022075891494,-0.2929850220680237,0.0100753959268331,0.2881086766719818
1631106815307,-0.1533022075891494,-0.2611046135425567,-0.0103529067710042,0.2881086766719818
1631106815420,-0.1533022075891494,-0.2230517715215683,-0.0181520264595747,0.2881086766719818
1631106815493,-0.1533022075891494,-0.1885732561349868,-0.0114207323640584,0.2881086766719818
1631106815650,-0.1533022075891494,-0.1666556596755981,0.0054803011007606,0.2881086766719818
1631106815742,-0.1533022075891494,-0.1666556596755981,0.0276564061641693,0.2881086766719818
1631106815820,-0.1533022075891494,-0.1666556596755981,0.0536887384951114,0.2881086766719818
1631106815945,-0.1533022075891494,-0.1666556596755981,0.0840407460927963,0.2881086766719818
1631106816054,-0.1533022075891494,-0.1666556596755981,0.1166977509856224,0.2881086766719818
1631106816122,-0.1533022075891494,-0.1666556596755981,0.1476116776466369,0.2881086766719818
1631106816247,-0.1533022075891494,-0.1666556596755981,0.1476116776466369,0.2881086766719818
1631106816362,-0.1533022075891494,-0.1666556596755981,0.1476116776466369,0.2881086766719818
1631106816457,-0.1533022075891494,-0.1666556596755981,0.1476116776466369,0.2881086766719818
1631106816555,-0.1533022075891494,-0.1666556596755981,0.1476116776466369,0.2881086766719818
1631106816634,-0.1533022075891494,-0.1666556596755981,0.1476116776466369,0.2881086766719818
1631106816729,-0.1533022075891494,-0.1666556596755981,0.1476116776466369,0.2881086766719818
1631106816853,-0.1533022075891494,-0.1666556596755981,0.1476116776466369,0.2881086766719818
1631106816978,-0.1533022075891494,-0.1666556596755981,-0.3578231036663055,0.2881086766719818
1631106817068,0.3027285933494568,-0.3159083127975464,-0.3517190814018249,0.2881086766719818
1631106817145,0.2775163948535919,-0.3197922706604004,-0.3150699734687805,0.263691782951355
1631106817240,0.2519761621952057,-0.3258450031280517,-0.2771658599376678,0.27327761054039
1631106817347,0.2308386117219925,-0.3177347183227539,-0.2512127459049225,0.262795627117157
1631106817478,0.2122478932142257,-0.2871237993240356,-0.2369298785924911,0.242629274725914
1631106817571,0.1964128464460373,-0.2455158978700637,-0.2304306626319885,0.2286865711212158
1631106817664,0.1881832778453827,-0.2097796201705932,-0.2309661507606506,0.2284708768129348
1631106817774,0.1907118111848831,-0.1883851587772369,-0.2373272031545639,0.2372636497020721
1631106817856,0.2023246884346008,-0.1802953630685806,-0.2449296563863754,0.2473916113376617
1631106817950,0.214863121509552,-0.1781287193298339,-0.2488915771245956,0.2536400258541107
1631106818106,0.2205833494663238,-0.1738130748271942,-0.2464991956949234,0.2544355094432831
1631106818200,0.2202601581811905,-0.1640616059303283,-0.239258661866188,0.250153124332428
1631106818278,0.212233692407608,-0.1446162909269333,-0.2061403691768646,0.2423453629016876
1631106818401,0.1996941268444061,-0.1306527256965637,-0.1567667424678802,0.2346626818180084
1631106818475,0.1887038499116897,-0.126208871603012,-0.1093718260526657,0.2233375608921051
1631106818567,0.1854595839977264,-0.1270730942487716,-0.0765061378479003,0.2069667875766754
1631106818723,0.1890694051980972,-0.1259462237358093,-0.0603681318461895,0.1862360388040542
1631106818852,0.1962453722953796,-0.1209085509181022,-0.056718535721302,0.1690908074378967
1631106818905,0.2036623507738113,-0.1183931306004524,-0.0607372596859931,0.1663133651018142
1631106818983,0.2133191376924514,-0.1184270232915878,-0.0682322159409523,0.171224907040596
1631106819077,0.2248865067958831,-0.1282844841480255,-0.0739966109395027,0.1755183339118957
1631106819186,0.234231412410736,-0.14368936419487,-0.0644267499446868,0.1705476194620132
1631106819314,0.2360876649618148,-0.1571570932865142,-0.0500543378293514,0.153886005282402
1631106819423,0.2266370356082916,-0.1633061319589615,-0.0324350818991661,0.1277256309986114
1631106819509,0.2097208946943283,-0.1644735038280487,-0.0144582875072956,0.0970070362091064
1631106819591,0.1971483826637268,-0.1701856404542923,0.0012719630030915,0.066924512386322
1631106819685,0.1939761638641357,-0.1911228895187378,0.0095758885145187,0.0424772724509239
1631106819790,0.1949674487113952,-0.2275788933038711,0.0028115874156355,0.0263720862567424
1631106819930,0.2023518234491348,-0.2623359560966491,-0.0238602794706821,0.0174465961754322
1631106820008,0.2023518234491348,-0.2728758454322815,-0.0691084936261177,0.0174465961754322
1631106820134,0.2023518234491348,-0.2940447926521301,-0.1059112101793289,0.0174465961754322
1631106820196,0.2023518234491348,-0.3176986873149872,-0.1085809990763664,0.0174465961754322
1631106820274,0.2023518234491348,-0.3443886935710907,-0.0705490559339523,0.0174465961754322
1631106820402,0.2023518234491348,-0.3641301691532135,-0.0095488913357257,0.0174465961754322
1631106820527,0.0300441998988389,-0.3497122526168823,0.0457956530153751,0.08728838711977
1631106820620,0.0208394173532724,-0.3537652194499969,0.0769287496805191,0.090799793601036
1631106820713,0.0227983295917511,-0.3680199682712555,0.0511350892484188,0.092876024544239
1631106820808,0.0395073145627975,-0.3807430863380432,0.0311285089701414,0.0914927273988723
1631106820918,0.0672878921031951,-0.3869563341140747,0.0282280519604682,0.0886308401823043
1631106820988,0.0958579033613205,-0.3890520334243774,0.0390524715185165,0.0886308401823043
1631106821164,0.1186302676796913,-0.3931121826171875,0.0519527792930603,0.0886308401823043
1631106821242,0.133182868361473,-0.4019181728363037,0.0592751055955886,0.0886308401823043
1631106821323,0.1433034241199493,-0.4117418527603149,0.0596816651523113,0.0886308401823043
1631106821417,0.155171200633049,-0.4181270599365234,0.054547157138586,0.0886308401823043
1631106821511,0.1658640950918197,-0.4206426739692688,0.0465613082051277,0.0799672529101371
1631106821605,0.1739661246538162,-0.4204041659832001,0.0420489348471164,0.0714818760752677
1631106821761,0.1819517612457275,-0.4182409346103668,0.0348875038325786,0.0611933581531047
1631106821855,0.1854356825351715,-0.4158686697483063,0.0243642684072256,0.0455615930259227
1631106821964,0.1890972852706909,-0.4091925621032715,0.0145240435376763,0.0250159911811351
1631106822105,0.193769559264183,-0.3919775784015655,0.0157545655965805,0.0058904439210891
1631106822153,0.1979836821556091,-0.3637596666812897,0.0349190607666969,-0.0043502920307219
1631106822231,0.1979210078716278,-0.3314313888549804,0.064954824745655,0.0020366078242659
1631106822387,0.1884946525096893,-0.3026312589645386,0.0896937996149063,0.0290201660245656
1631106822481,0.1689654290676117,-0.2802279591560364,0.099415585398674,0.069631427526474
1631106822590,0.1438094079494476,-0.2644135951995849,0.0967995226383209,0.1073273718357086
1631106822653,0.1193981543183326,-0.252535730600357,0.093192234635353,0.1315146833658218
1631106822755,0.1032905653119087,-0.241413414478302,0.0968398079276084,0.1421078145503997
1631106822833,0.0960745513439178,-0.2286127209663391,0.106508731842041,0.1441677510738372
1631106823005,0.0917591080069542,-0.2134389281272888,0.1166552752256393,0.1445108205080032
1631106823051,0.0881106778979301,-0.1979342401027679,0.1233095899224281,0.1547116488218307
1631106823176,0.084892563521862,-0.1849753707647323,0.1252834349870681,0.1670019924640655
1631106823254,0.0855267271399498,-0.1755205392837524,0.1237612813711166,0.1792587339878082
1631106823348,0.0931054055690765,-0.1679085046052932,0.121936984360218,0.1904263347387313
1631106823442,0.0995784923434257,-0.1614614129066467,0.1212706789374351,0.2003267407417297
1631106823582,0.1008379980921745,-0.1583879739046096,0.1191710904240608,0.2085251212120056
1631106823660,0.0975628495216369,-0.1613974422216415,0.1124442517757415,0.213901475071907
1631106823801,0.0952217727899551,-0.1708921045064926,0.1032093167304992,0.2157659977674484
1631106823895,0.0997614413499832,-0.1851694583892822,0.0980434492230415,0.2163861542940139
1631106823974,0.1106444224715232,-0.2015760093927383,0.1008330658078193,0.2201155871152877
1631106824036,0.1217694580554962,-0.2161058336496353,0.1076450422406196,0.2289694249629974
1631106824192,0.1262221038341522,-0.225356712937355,0.1093262061476707,0.2398474961519241
1631106824286,0.1210444420576095,-0.2290600836277008,0.0999665334820747,0.2478273510932922
1631106824364,0.1052504181861877,-0.2307722568511963,0.0823325291275978,0.2500990331172943
1631106824489,0.0843901857733726,-0.2342390567064285,0.0644616186618805,0.2462024837732315
1631106824567,0.0673328712582588,-0.2385236471891403,0.0530812442302703,0.2380269318819046
1631106824660,0.0542649589478969,-0.2387396246194839,0.0488154739141464,0.2294942289590835
1631106824801,0.0422684103250503,-0.2336432337760925,0.0479416400194168,0.2244051396846771
1631106824910,0.0277437455952167,-0.2295203357934951,0.0465181581676006,0.2231574058532714
1631106824973,0.0122236022725701,-0.2338413149118423,0.0449331812560558,0.2217301875352859
1631106825067,0.0022881946060806,-0.2475417107343673,0.0472212508320808,0.2160952091217041
1631106825194,-0.0043905372731387,-0.2637161314487457,0.055763553828001,0.2056884616613388
1631106825241,-0.0105719771236181,-0.2735871374607086,0.0690362229943275,0.1909173429012298
1631106825408,-0.0175302866846323,-0.2727806866168976,0.0821042209863662,0.1690378189086914
1631106825501,-0.0249271877110004,-0.2623307406902313,0.0895995572209358,0.136676475405693
1631106825595,-0.0290749054402112,-0.2465152740478515,0.0882566720247268,0.0968578234314918
1631106825720,-0.0265741869807243,-0.2291996031999588,0.0792993828654289,0.0653553530573844
1631106825783,-0.0207754839211702,-0.2132357954978943,0.0679242759943008,0.061513926833868
1631106825908,-0.0118709970265626,-0.2020444422960281,0.0591545812785625,0.0868551805615425
1631106826017,-0.0081852544099092,-0.1974231898784637,0.0540119372308254,0.1243501082062721
1631106826111,-0.014949744567275,-0.1981405615806579,0.0509978607296943,0.1562851816415786
1631106826208,-0.0259951166808605,-0.2022994011640548,0.0499092116951942,0.1745809614658355
1631106826333,-0.0340587645769119,-0.2093347609043121,0.0516360029578208,0.1805088073015213
1631106826395,-0.0333292447030544,-0.2190398126840591,0.0548238791525363,0.1802678108215332
1631106826505,-0.0224063228815794,-0.2282301783561706,0.0537223070859909,0.1813715696334839
1631106826614,-0.0064666657708585,-0.2323350608348846,0.0410467647016048,0.1895716786384582
1631106826708,0.0166847202926874,-0.2309514284133911,0.0131373489275574,0.2058612555265426
1631106826817,0.0425085574388504,-0.228358656167984,-0.0274902433156967,0.2269382923841476
1631106826927,0.066788725554943,-0.2293107211589813,-0.0726981684565544,0.247915118932724
1631106826989,0.0876051038503646,-0.2367040663957595,-0.1123214438557624,0.2630791068077087
1631106827083,0.1031303256750106,-0.2516556084156036,-0.1367264091968536,0.2695665061473846
1631106827242,0.1141741573810577,-0.2745340764522552,-0.1405518651008606,0.2682611346244812
1631106827321,0.1183850094676017,-0.3034918010234833,-0.1215170249342918,0.2613807320594787
1631106827445,0.1173120886087417,-0.3324852287769317,-0.0810829848051071,0.2502723336219787
1631106827508,0.1147888079285621,-0.3550766706466675,-0.0291481874883174,0.235124260187149
1631106827633,0.1133497133851051,-0.3680540919303894,0.0181673876941204,0.2173697501420974
1631106827711,0.1121681630611419,-0.3712356090545654,0.0496996194124221,0.2018621563911438
1631106827836,0.1101601794362068,-0.3648857176303863,0.0637446716427803,0.1946643888950348
1631106827945,0.1062652990221977,-0.34920334815979,0.0663951262831687,0.1990614980459213
1631106828039,0.0999709814786911,-0.3299560844898224,0.0658369660377502,0.2112304419279098
1631106828180,0.0905271023511886,-0.3133817017078399,0.0676236823201179,0.2219986915588379
1631106828214,0.08051747828722,-0.3018177151679992,0.0746040791273117,0.2224878668785095
1631106828386,0.0659935176372528,-0.3012401163578033,0.0845146924257278,0.2175773680210113
1631106828479,0.0473852008581161,-0.2997311353683471,0.0939976572990417,0.2098851650953292
1631106828589,0.0242936294525861,-0.2953925728797912,0.1059243008494377,0.2059027701616287
1631106828698,-0.0016997561324387,-0.2857743203639984,0.1173860058188438,0.2095471769571304
1631106828838,-0.0295045748353004,-0.2691008448600769,0.1284341663122177,0.2157789021730423
1631106828916,-0.0470178499817848,-0.2453500032424926,0.1348733901977539,0.2145528644323349
1631106828963,-0.052032720297575,-0.2170007824897766,0.1277316808700561,0.2020076960325241
1631106829120,-0.0466733090579509,-0.1867581754922866,0.1011382788419723,0.1873631775379181
1631106829198,-0.0353550128638744,-0.1582521796226501,0.0600445568561553,0.1893564611673355
1631106829291,-0.0220646299421787,-0.137006938457489,0.0198522545397281,0.217224970459938
1631106829403,-0.0220646299421787,-0.1285347789525985,-0.0033217892050743,0.217224970459938
1631106829478,-0.0220646299421787,-0.1285347789525985,0.248916819691658,0.217224970459938
1631106829571,-0.0220646299421787,-0.1285347789525985,0.4816276133060455,0.217224970459938
1631106829694,-0.0220646299421787,-0.1285347789525985,0.6651290655136108,0.217224970459938
1631106829757,-0.0220646299421787,-0.1285347789525985,0.8062559962272644,0.217224970459938
1631106829927,0.0209919735789299,0.0273157842457294,0.9229484796524048,0.217224970459938
1631106830005,0.0298866890370845,0.0385671034455299,1.030076026916504,0.440431535243988
1631106830052,0.0439797081053257,0.0544772520661354,1.068045139312744,0.415673017501831
1631106830130,0.0751359686255455,0.0764907449483871,1.0972602367401123,0.4101463556289673
1631106830383,0.118815429508686,0.0999744161963462,1.110323190689087,0.4166766405105591
1631106830429,0.1597779095172882,0.1172039583325386,1.107181429862976,0.4227544367313385
1631106830492,0.1822150200605392,0.1223056316375732,1.0933465957641602,0.42067551612854
1631106830554,0.1865728348493576,0.1172785758972168,1.0762337446212769,0.4113275110721588
1631106830679,0.1828396022319793,0.1083157435059547,1.061261773109436,0.40268474817276
1631106830774,0.1781982034444809,0.0997670292854309,1.0502392053604126,0.4030848443508148
1631106830945,0.1794908791780471,0.0913066938519477,1.041994571685791,0.4124083518981933
1631106830992,0.1889669895172119,0.0842452272772789,1.0473400354385376,0.4223321676254272
1631106831086,0.2216503024101257,0.0894734412431716,1.0425995588302612,0.4256658256053924
1631106831195,0.2588644623756408,0.1052417084574699,1.0441246032714844,0.415056437253952
1631106831308,0.2936149537563324,0.1365077048540115,1.0424070358276367,0.4086542427539825
1631106831386,0.3245959281921386,0.1798840463161468,1.0363246202468872,0.4195606708526611
1631106831557,0.3569617569446563,0.2256882488727569,1.02061927318573,0.4487948715686798
1631106831667,0.391027569770813,0.264507532119751,0.9902387261390686,0.4846491813659668
1631106831729,0.4224834740161896,0.2909283638000488,0.9465081691741944,0.5176629424095154
1631106831839,0.4519002735614776,0.3050386011600494,0.9005182981491089,0.5456782579421997
1631106831901,0.4834667146205902,0.310442179441452,0.8680508136749268,0.571958601474762
1631106831979,0.5208583474159241,0.312678188085556,0.8580808043479919,0.5985927581787109
1631106832167,0.5625823140144348,0.315123438835144,0.8648067116737366,0.624162495136261
1631106832229,0.6021451354026794,0.3193214237689972,0.8744338154792786,0.6450693607330322
1631106832354,0.6374830007553101,0.3260900378227234,0.8744338154792786,0.6580701470375061
1631106832385,0.6661742925643921,0.3375242054462433,0.8744338154792786,0.6629160046577454
1631106832510,0.6865724325180054,0.35284423828125,0.8744338154792786,0.6635212302207947
1631106832635,0.6991492509841919,0.3676343262195587,0.8744338154792786,0.6660782694816589
1631106832776,0.705873966217041,0.3765549063682556,0.8744338154792786,0.6739322543144226
1631106832807,0.7102763652801514,0.3766791224479675,0.8387623429298401,0.6843883991241455
1631106832948,0.7128972411155701,0.3687618374824524,0.8264825344085693,0.6899630427360535
1631106833057,0.7106075882911682,0.3554066717624664,0.8495569825172424,0.6852671504020691
1631106833151,0.7029423713684082,0.3404350578784942,0.8918918967247009,0.6709859371185303
1631106833182,0.6902459859848022,0.3283198177814483,0.9313313961029052,0.651427686214447
1631106833310,0.6723902821540833,0.3236495554447174,0.9568555951118468,0.6304780840873718
1631106833420,0.6480119824409485,0.3274714946746826,0.9665126204490662,0.6073916554450989
1631106833545,0.6181946992874146,0.3362663090229034,0.9641078114509584,0.5798677206039429
1631106833623,0.5867076516151428,0.3455459177494049,0.9550825953483582,0.5485049486160278
1631106833701,0.556225597858429,0.3528166115283966,0.9434045553207396,0.5165013074874878
1631106833779,0.5258949995040894,0.3579714298248291,0.930599570274353,0.4873961806297302
1631106833920,0.4934689402580261,0.3605378270149231,0.9166780710220336,0.4634105265140533
1631106834029,0.4618420302867889,0.3593043386936188,0.8998945951461792,0.4464271366596222
1631106834123,0.4340968430042267,0.3531251847743988,0.8834384679794312,0.4337267279624939
1631106834216,0.4090678095817566,0.3417568504810333,0.8704217672348022,0.4173830449581146
1631106834326,0.3840847909450531,0.3255657851696014,0.8599376082420349,0.389203667640686
1631106834404,0.3599813878536224,0.3053533136844635,0.8458291888237,0.3507736921310425
1631106834560,0.3433223366737366,0.2831659317016601,0.8196576237678528,0.3134195804595947
1631106834623,0.3360100388526916,0.2605277299880981,0.7767113447189331,0.2947443425655365
1631106834748,0.3343633115291595,0.2366316169500351,0.7192162275314331,0.2782492041587829
1631106834857,0.3367774486541748,0.208543449640274,0.655261754989624,0.2573029696941376
1631106834935,0.3428503274917602,0.1775139272212982,0.5959396362304688,0.2333613038063049
1631106835045,0.3489478826522827,0.1613416075706482,0.556860625743866,0.2170091122388839
1631106835153,0.3463395535945892,0.1476668417453766,0.524848222732544,0.21516153216362
1631106835247,0.3349792063236236,0.1360211223363876,0.4962726533412933,0.2242026329040527
1631106835343,0.3175472021102905,0.1217802837491035,0.4693593680858612,0.2352066934108734
1631106835452,0.3063841164112091,0.1000736057758331,0.446001261472702,0.2429362386465072
1631106835530,0.3042454123497009,0.0703226700425148,0.427127867937088,0.2381653934717178
1631106835608,0.2999841868877411,0.035690288990736,0.4131879508495331,0.2110221683979034
1631106835749,0.2999841868877411,-0.0045971027575433,0.4079340100288391,0.2110221683979034
1631106835843,0.2999841868877411,-0.0444701761007308,0.4120438992977142,0.2110221683979034
1631106835952,0.2999841868877411,-0.080346442759037,0.416008323431015,0.2110221683979034
1631106836046,0.2999841868877411,-0.1108388528227806,0.4099349677562713,0.2110221683979034
1631106836155,0.2999841868877411,-0.135310098528862,0.4099349677562713,0.2110221683979034
1631106836249,0.2999841868877411,-0.1520254909992218,0.4099349677562713,0.2110221683979034
1631106836377,0.2999841868877411,-0.1636025458574295,0.4099349677562713,0.0558164753019809
1631106836470,0.4676044881343841,-0.1807824373245239,0.4099349677562713,0.0947559773921966
1631106836564,0.458263099193573,-0.1963689178228378,0.4099349677562713,0.1385252475738525
1631106836642,0.4440962374210357,-0.2056038379669189,0.3259300887584686,0.1736945211887359
1631106836751,0.4289398789405823,-0.2035023123025894,0.2971942722797394,0.1922966986894607
1631106836830,0.4187231361865997,-0.1919746845960617,0.2707878053188324,0.1954573690891266
1631106836986,0.4227904379367828,-0.178177922964096,0.2501397132873535,0.1908178627490997
1631106837064,0.4419857859611511,-0.1698782444000244,0.2425335496664047,0.18513123691082
1631106837158,0.4662032127380371,-0.187258243560791,0.2487047463655471,0.1793488711118698
1631106837251,0.4829811155796051,-0.1992357671260833,0.2606825232505798,0.1715003848075866
1631106837363,0.4888334572315216,-0.2080375850200653,0.2704059183597564,0.1639170050621032
1631106837473,0.4861754179000854,-0.2166140973567962,0.2762169241905212,0.1639170050621032
1631106837598,0.4815773665904999,-0.226316899061203,0.2805756330490112,0.1696154475212097
1631106837676,0.4783181250095367,-0.2339641004800796,0.2842195630073547,0.1807372421026229
1631106837785,0.478349506855011,-0.2339232563972473,0.2848078906536102,0.2249918729066848
1631106837879,0.4798957109451294,-0.2245193421840667,0.2697741985321045,0.2569237947463989
1631106837957,0.4787282645702362,-0.209416389465332,0.25093474984169,0.2776667773723602
1631106838050,0.4748269319534302,-0.1935478448867797,0.2313798815011978,0.2934267818927765
1631106838200,0.4676038026809692,-0.1802967488765716,0.2122505605220794,0.2889297902584076
1631106838298,0.4587259292602539,-0.1716554909944534,0.1940572559833526,0.2873870134353637
1631106838391,0.466106653213501,-0.1692443639039993,0.1767295897006988,0.294272631406784
1631106838501,0.4670221209526062,-0.1740937083959579,0.1581795811653137,0.3096396028995514
1631106838579,0.4556066989898681,-0.1837529391050338,0.1561838090419769,0.3307228088378906
1631106838657,0.4320625364780426,-0.192668080329895,0.1433994621038437,0.3586387932300567
1631106838797,0.4055089652538299,-0.1839102506637573,0.1199493557214737,0.3994231820106506
1631106838923,0.3854569494724273,-0.1697055846452713,0.0902501344680786,0.4555383622646332
1631106839001,0.3766624629497528,-0.1543568223714828,0.0559762120246887,0.4555383622646332
1631106839094,0.3714492917060852,-0.1404466778039932,0.0113834412768483,0.4555383622646332
1631106839204,0.3629533946514129,-0.1297841966152191,-0.0514668524265289,0.4555383622646332
1631106839297,0.3409389853477478,-0.124592125415802,-0.1339001506567001,0.4555383622646332
1631106839438,0.2928285300731659,-0.1248228102922439,-0.2245774120092392,0.4555383622646332
1631106839516,0.2928285300731659,-0.1273734867572784,-0.3097819983959198,0.4555383622646332
1631106839641,0.2928285300731659,-0.1298905164003372,-0.37840136885643,0.4555383622646332
1631106839719,0.2928285300731659,-0.1352081596851349,-0.37840136885643,0.4555383622646332
1631106839813,0.2928285300731659,-0.154248759150505,-0.37840136885643,0.4555383622646332
1631106839891,0.2928285300731659,-0.154248759150505,-0.37840136885643,0.4555383622646332
1631106840031,0.2928285300731659,-0.154248759150505,-0.37840136885643,0.4555383622646332
1631106840141,0.2928285300731659,-0.154248759150505,-0.37840136885643,0.4555383622646332
1631106840203,0.2928285300731659,-0.154248759150505,-0.37840136885643,0.4555383622646332
1631106840300,0.2928285300731659,-0.154248759150505,-0.37840136885643,0.4555383622646332
1631106840409,0.2928285300731659,-0.154248759150505,-0.37840136885643,0.4555383622646332
1631106840503,0.2928285300731659,-0.154248759150505,-0.37840136885643,0.4555383622646332
1631106840628,0.2928285300731659,-0.154248759150505,-0.37840136885643,0.4555383622646332
1631106840737,0.2928285300731659,-0.154248759150505,-0.37840136885643,0.4555383622646332
1631106840831,0.2928285300731659,-0.154248759150505,-0.37840136885643,0.4555383622646332
1631106840940,0.2928285300731659,0.249108999967575,-0.37840136885643,0.4555383622646332
1631106841018,0.2928285300731659,0.2383732795715332,-0.37840136885643,0.4555383622646332
1631106841112,0.2928285300731659,0.2227843850851059,0.6191262602806091,0.4555383622646332
1631106841253,0.2928285300731659,0.2019346356391906,0.5774099230766296,0.4555383622646332
1631106841365,0.2928285300731659,0.1782760471105575,0.5369515419006348,0.4555383622646332
1631106841412,0.2928285300731659,0.1540672332048416,0.5033943057060242,0.4555383622646332
1631106841521,0.2928285300731659,0.131610095500946,0.4772532284259796,0.4555383622646332
1631106841646,0.2928285300731659,0.0881125107407569,0.4544121325016022,0.4555383622646332
1631106841709,0.2928285300731659,0.0407507792115211,0.4329527020454407,0.4555383622646332
1631106841849,0.2928285300731659,0.0407507792115211,0.417154312133789,0.4555383622646332
1631106841943,0.2928285300731659,0.0407507792115211,0.4146126806735992,0.4555383622646332
1631106842037,0.2928285300731659,0.0407507792115211,0.4243836402893066,0.4555383622646332
1631106842146,0.2928285300731659,0.0244217682629823,0.4362044930458069,0.4555383622646332
1631106842240,0.2928285300731659,0.0099648125469684,0.4396508932113647,0.4555383622646332
1631106842336,0.2928285300731659,-0.0196017175912857,0.4037473797798157,0.4555383622646332
1631106842477,0.2928285300731659,-0.055619940161705,0.3639760613441467,0.4555383622646332
1631106842555,0.4606145918369293,-0.0938365310430526,0.3260432481765747,0.4555383622646332
1631106842664,0.4606145918369293,-0.1299946457147598,0.2956088483333587,0.4555383622646332
1631106842742,0.4524288177490234,-0.163018137216568,0.2760423421859741,0.4555383622646332
1631106842836,0.4408660233020782,-0.1940590143203735,0.2640009224414825,0.006610935088247
1631106842914,0.4246415197849273,-0.2240651696920395,0.254048228263855,-0.0381808839738369
1631106843149,0.4083967506885528,-0.254427045583725,0.2434411346912384,-0.0738576129078865
1631106843180,0.3993653059005737,-0.2851868569850921,0.2340317517518997,-0.0963816344738006
1631106843291,0.3950386643409729,-0.3148263096809387,0.227736234664917,-0.1099663451313972
1631106843369,0.3922496140003204,-0.3172774314880371,0.2199084311723709,-0.1199753656983375
1631106843463,0.3891618549823761,-0.3179439008235931,0.1983335465192794,-0.1272598206996917
1631106843541,0.3856136798858642,-0.3225792944431305,0.1562672555446624,-0.1269239485263824
1631106843666,0.3829659819602966,-0.3446543514728546,0.1026025936007499,-0.116444319486618
1631106843791,0.3778201937675476,-0.3718251883983612,0.0612438097596168,-0.1195014268159866
1631106843901,0.3598286807537079,-0.4017224311828613,0.0484585538506507,-0.1258417218923568
1631106843963,0.331875592470169,-0.4310927093029022,0.0560892894864082,-0.1126663535833358
1631106844072,0.2974913716316223,-0.4545048773288727,0.0664591416716575,-0.1057882830500602
1631106844182,0.2757998704910278,-0.4649047255516052,0.07533560693264,-0.1014648601412773
1631106844294,0.2449743747711181,-0.4570448100566864,0.0890802070498466,-0.0988287776708602
1631106844419,0.2212573438882827,-0.4347661137580871,0.111243724822998,-0.0845128521323204
1631106844482,0.2066108882427215,-0.4064351916313171,0.1363095194101333,-0.0592640042304992
1631106844575,0.1970073878765106,-0.3800635039806366,0.1557126343250274,-0.0259795784950256
1631106844685,0.1847641915082931,-0.360996663570404,0.1656811982393264,0.0096116522327065
1631106844779,0.1707661747932434,-0.3516952097415924,0.1669905930757522,0.0423877723515033
1631106844919,0.1582552045583725,-0.3495539128780365,0.1623718440532684,0.0677936673164367
1631106844998,0.1495745778083801,-0.3456098139286041,0.1548307389020919,0.0818028897047042
1631106845090,0.1431728601455688,-0.3324122726917267,0.1468672603368759,0.0942122191190719
1631106845190,0.1241856291890144,-0.3115246593952179,0.1383535116910934,0.1022043526172638
1631106845284,0.1040143370628357,-0.2909845411777496,0.1268585622310638,0.0913028642535209
1631106845381,0.0988362357020378,-0.2760709822177887,0.1126239895820617,0.082448773086071
1631106845506,0.1079571396112442,-0.265722781419754,0.100841999053955,0.0806649252772331
1631106845600,0.1263083517551422,-0.2580726444721222,0.0964436158537864,0.0833902508020401
1631106845678,0.1473477035760879,-0.2521643042564392,0.0962434038519859,0.0871270596981048
1631106845803,0.1666134744882583,-0.2465204447507858,0.0885702818632125,0.0903714299201965
1631106845866,0.180684208869934,-0.2381394654512405,0.0634559243917465,0.0951118394732475
1631106845975,0.1933493316173553,-0.2277996689081192,0.0217188149690628,0.1010490879416465
1631106846131,0.2040375620126724,-0.2207827419042587,-0.0248719472438097,0.1046436056494712
1631106846241,0.2104711532592773,-0.2216455191373825,-0.0620986893773078,0.1049193441867828
1631106846321,0.2100376635789871,-0.2292491644620895,-0.0836598947644233,0.103310152888298
1631106846425,0.2015261799097061,-0.2384466826915741,-0.092564508318901,0.103676289319992
1631106846504,0.1855766922235489,-0.2461974322795868,-0.0950327292084693,0.1086692214012146
1631106846582,0.1665585190057754,-0.2513398230075836,-0.0968264415860176,0.1113210394978523
1631106846738,0.158066526055336,-0.2530076503753662,-0.1006613448262214,0.1160723641514778
1631106846846,0.1560285687446594,-0.2505941689014435,-0.1044409349560737,0.1361545175313949
1631106846925,0.1624204963445663,-0.2466956824064254,-0.1031193435192108,0.1557057797908783
1631106847004,0.1764178127050399,-0.2453710734844207,-0.0957546904683113,0.1747887879610061
1631106847114,0.1908194124698639,-0.2479965388774871,-0.0873438492417335,0.1974169313907623
1631106847236,0.2006299495697021,-0.2533712387084961,-0.0826754570007324,0.2246467918157577
1631106847347,0.2057232409715652,-0.2624241709709167,-0.0810139998793602,0.2519374191761017
1631106847456,0.2096501439809799,-0.2774924337863922,-0.0771324336528778,0.2728095352649688
1631106847550,0.2121749073266983,-0.2967913150787353,-0.069517396390438,0.2838189899921417
1631106847612,0.2152328342199325,-0.311461865901947,-0.0619229190051555,0.2860191464424133
1631106847705,0.2201501280069351,-0.3133028447628021,-0.0581965148448944,0.2815158069133758
1631106847813,0.2278082966804504,-0.3048771023750305,-0.0572331361472606,0.2736352980136871
1631106847970,0.2388496249914169,-0.2974395453929901,-0.0531449541449546,0.2664341032505035
1631106848033,0.2532590925693512,-0.2992945313453674,-0.0405111424624919,0.2618778049945831
1631106848157,0.2674222588539123,-0.3115314543247223,-0.0205414742231369,0.257561445236206
1631106848236,0.2759072482585907,-0.3278658986091614,-0.0011404020478948,0.2488460540771484
1631106848331,0.2738951742649078,-0.3425556421279907,0.0094509935006499,0.2333474457263946
1631106848415,0.2597383856773376,-0.3531185984611511,0.0074556362815201,0.2123953551054
1631106848564,0.2380957901477813,-0.3588226735591888,-0.0050487732514739,0.1871424913406372
1631106848683,0.2169080376625061,-0.3592208325862884,-0.0235347114503383,0.156486302614212
1631106848748,0.2026479691267013,-0.3564012944698334,-0.0440091527998447,0.1206752061843872
1631106848850,0.1959218233823776,-0.3541514277458191,-0.0628848671913147,0.0831120535731315
1631106848920,0.191843569278717,-0.3549809753894806,-0.0741874352097511,0.0487484149634838
1631106849013,0.1843829452991485,-0.3577902913093567,-0.07242052257061,0.0218472443521022
1631106849155,0.170946329832077,-0.3617126047611236,-0.0574396774172782,0.0037208967842161
1631106849265,0.1518887281417846,-0.3675783574581146,-0.0376323238015174,-0.0055862036533653
1631106849343,0.129961684346199,-0.3741234838962555,-0.0239659063518047,-0.0090106735005974
1631106849467,0.1061093136668205,-0.377468079328537,-0.0238445103168487,-0.0115790385752916
1631106849560,0.0790169984102249,-0.3753537535667419,-0.0395316667854785,-0.0151872942224144
1631106849637,0.0498242862522602,-0.3697410821914673,-0.0662537291646003,-0.0170847997069358
1631106849782,0.0236142873764038,-0.3639718890190124,-0.0944160521030426,-0.0133247561752796
1631106849888,0.0058075156994163,-0.3575054109096527,-0.1153324469923973,-0.0031941542401909
1631106849982,-0.0045293136499822,-0.3496862053871155,-0.1277325302362442,0.0143904406577348
1631106850061,-0.0107346959412097,-0.3435237407684326,-0.1364407241344452,0.0393795818090438
1631106850153,-0.0180468596518039,-0.3425629436969757,-0.1413223445415496,0.0662925466895103
1631106850261,-0.0319349318742752,-0.3447729051113128,-0.1381873339414596,0.0861654728651046
1631106850388,-0.0545656457543373,-0.3443012535572052,-0.1276668310165405,0.0941362604498863
1631106850481,-0.0861118659377098,-0.3386534750461578,-0.120220199227333,0.0927148684859275
1631106850557,-0.1167828813195228,-0.3316825330257416,-0.1248307451605796,0.0886535495519638
1631106850666,-0.1411786675453186,-0.3275409638881683,-0.1413462907075882,0.0866053029894828
1631106850740,-0.1574301570653915,-0.3261153399944305,-0.161398559808731,0.0861595794558525
1631106850849,-0.1709304749965667,-0.3248673975467682,-0.1768648773431778,0.0863978564739227
1631106850989,-0.1868146508932113,-0.321026474237442,-0.1863151341676712,0.0861208289861679
1631106851130,-0.2029562592506408,-0.3123144805431366,-0.191748708486557,0.0846995785832405
1631106851188,-0.2171141654253006,-0.2978787720203399,-0.1956362426280975,0.0837313830852508
1631106851251,-0.2245925962924957,-0.2796634137630462,-0.1977214515209198,0.0860956162214279
1631106851373,-0.2261798679828643,-0.2619098722934723,-0.1969767361879348,0.0914940685033798
1631106851467,-0.2251245677471161,-0.2480708807706833,-0.1930282264947891,0.0936713889241218
1631106851621,-0.2230522334575653,-0.2396355718374252,-0.1868813633918762,0.0841701105237007
1631106851696,-0.2214166224002838,-0.2366474568843841,-0.1819589287042617,0.0629848018288612
1631106851822,-0.2196546345949173,-0.2392618060111999,-0.1803595125675201,0.0416454784572124
1631106851883,-0.215409517288208,-0.2481142729520797,-0.1815733909606933,0.0338248200714588
1631106851976,-0.2044085562229156,-0.2637765109539032,-0.1845387816429138,0.042608305811882
1631106852070,-0.1921956986188888,-0.2828761637210846,-0.1898103356361389,0.0587827451527118
1631106852212,-0.1774017363786697,-0.2986567318439483,-0.1998398154973983,0.0740755423903465
1631106852306,-0.1602390706539154,-0.3057040870189667,-0.2152612507343292,0.0875574052333831
1631106852399,-0.1416443735361099,-0.3053710460662842,-0.231973186135292,0.100239560008049
1631106852506,-0.1158556714653968,-0.3042630553245544,-0.2414934486150741,0.1116899400949478
1631106852600,-0.0823721885681152,-0.3072793781757355,-0.2374186813831329,0.1191352158784866
1631106852663,-0.0462499521672725,-0.3148522078990936,-0.2228314578533172,0.1204671636223793
1631106852836,-0.0140945948660373,-0.3263252079486847,-0.2079815119504928,0.1157974675297737
1631106852928,0.005912811961025,-0.342407077550888,-0.2011523842811584,0.1084676459431648
1631106853005,0.0154123399406671,-0.3624188899993896,-0.2029729932546615,0.101735733449459
1631106853084,0.0171655304729938,-0.3801239132881164,-0.2096755057573318,0.0980769395828247
1631106853206,0.0122194150462746,-0.3884773850440979,-0.2179000824689865,0.0972723960876464
1631106853283,0.0073177875019609,-0.3855787515640259,-0.2273455560207367,0.0958418920636177
1631106853427,0.0062677841633558,-0.3744798898696899,-0.2382828593254089,0.0899476334452629
1631106853536,0.0121097583323717,-0.3549477458000183,-0.2478834092617035,0.0775758624076843
1631106853628,0.0245913974940776,-0.3303979039192199,-0.2523242533206939,0.0597150884568691
1631106853721,0.0371601544320583,-0.3094250857830047,-0.2500297129154205,0.039178479462862
1631106853828,0.0416450425982475,-0.3006651699542999,-0.2427773475646972,0.0181780140846967
1631106853893,0.0379077158868312,-0.3053513765335083,-0.234474241733551,-0.0007667311001569
1631106854045,0.0311517417430877,-0.3165221512317657,-0.2308887541294098,-0.01494628097862
1631106854112,0.0225776024162769,-0.3267623484134674,-0.2365992814302444,-0.0115354703739285
1631106854211,0.007420701906085,-0.3342670202255249,-0.2507591545581817,0.0031845332123339
1631106854316,-0.010590580292046,-0.3399935364723205,-0.2645576298236847,0.0040536550804972
1631106854407,-0.0206962581723928,-0.3430003225803375,-0.2675981223583221,0.0039815111085772
1631106854545,-0.0186280664056539,-0.3418806195259094,-0.2582175731658935,0.0035509779118001
1631106854654,-0.0052788634784519,-0.3379147350788116,-0.2418197691440582,0.006689918693155
1631106854810,0.0205959901213645,-0.3348875641822815,-0.2274347245693206,0.0153936157003045
1631106854853,0.0496286861598491,-0.3333490788936615,-0.2202795296907425,0.0272066444158554
1631106854947,0.0720619186758995,-0.3328895568847656,-0.2211013287305832,0.082508198916912
1631106855026,0.0760082453489303,-0.3346804976463318,-0.2260700613260269,0.1165546029806137
1631106855120,0.0537789091467857,-0.3362409770488739,-0.2318019121885299,0.1401813328266143
1631106855307,0.0537789091467857,-0.331394761800766,-0.2371111363172531,0.1498402953147888
1631106855375,0.0537789091467857,-0.3161344528198242,-0.2432347685098648,0.1579003483057022
1631106855445,0.0537789091467857,-0.2940556406974792,-0.2533719539642334,0.1662507504224777
1631106855539,0.0537789091467857,-0.273864597082138,-0.2653739154338836,0.1786217093467712
1631106855633,0.0537789091467857,-0.2602716982364654,-0.2719244658946991,0.1894751340150833
1631106855726,0.7553483247756958,-0.2545458078384399,-0.2641240954399109,0.193379059433937
1631106855898,0.706692636013031,-0.2566370368003845,-0.2446908801794052,0.1945255547761917
1631106855979,0.6794403195381165,-0.2649978399276733,-0.2233799248933792,0.1895598620176315
1631106856041,0.6633549928665161,-0.2748262286186218,-0.2089471668004989,0.179975539445877
1631106856167,0.6633549928665161,-0.2816819250583648,-0.2068702727556228,0.179975539445877
1631106856238,0.6633549928665161,-0.2854150533676147,-0.2136236131191253,0.179975539445877
1631106856334,0.6633549928665161,-0.2896333038806915,-0.2254086285829544,0.179975539445877
1631106856471,0.6633549928665161,-0.2950257360935211,-0.2356644123792648,0.1631059050559997
1631106856580,0.6633549928665161,-0.3002363443374634,-0.2367599010467529,0.1526433080434799
1631106856674,0.6633549928665161,-0.3054935932159424,-0.2257881015539169,0.1476659625768661
1631106856751,0.6633549928665161,-0.3125343024730682,-0.2035338133573532,0.1568054556846618
1631106856844,0.6633549928665161,-0.3265757262706756,-0.1702110022306442,0.1690751016139984
1631106856958,0.6071112751960754,-0.3435658514499664,-0.1214995756745338,0.1797900050878524
1631106857085,0.5491405129432678,-0.3581040501594543,-0.0627904906868934,0.1822461038827896
1631106857155,0.4945404231548309,-0.2963825464248657,-0.0068431054241955,0.1630841195583343
1631106857264,0.4945404231548309,-0.2425025999546051,0.0336779840290546,0.1630841195583343
1631106857358,0.4945404231548309,-0.2051776349544525,0.0576208755373954,0.1630841195583343
1631106857441,0.4945404231548309,-0.1758190244436264,0.0710688531398773,0.1630841195583343
1631106857550,0.4945404231548309,-0.1448830217123031,0.079399898648262,0.1630841195583343
1631106857687,0.4945404231548309,-0.1107032299041748,0.0886720493435859,0.1630841195583343
1631106857812,0.4945404231548309,-0.0776930153369903,0.0991948023438453,0.1630841195583343
1631106857906,0.4945404231548309,-0.0491865277290344,0.1123888194561004,1.1433227062225342
1631106858000,0.4945404231548309,-0.0268682036548852,0.1256008148193359,1.1116608381271362
1631106858095,0.4945404231548309,-0.0116281295195221,0.1355846673250198,1.0862858295440674
1631106858160,0.4945404231548309,-0.00268628122285,0.1422733962535858,1.0770207643508911
1631106858304,0.4945404231548309,0.0012475495459511,0.144941434264183,1.0693198442459106
1631106858414,0.4945404231548309,-0.0119483461603522,0.1428116708993911,1.0693198442459106
1631106858509,0.4945404231548309,-0.0216466914862394,0.1332603842020034,1.0693198442459106
1631106858587,0.4945404231548309,-0.0216466914862394,0.1160772368311882,1.0693198442459106
1631106858681,0.4945404231548309,-0.0362366884946823,0.0931007042527198,1.0693198442459106
1631106858790,0.4945404231548309,-0.051226370036602,0.0713195577263832,1.0693198442459106
1631106858900,0.4945404231548309,-0.0582239292562007,0.0529944188892841,1.0693198442459106
1631106859012,0.4945404231548309,-0.0586944669485092,0.0388029552996158,1.0693198442459106
1631106859088,0.4945404231548309,-0.0614652521908283,0.0294224545359611,1.0716001987457275
1631106859227,0.4945404231548309,-0.0741384699940681,0.0220251902937889,1.0507946014404297
1631106859305,0.4945404231548309,-0.0961871817708015,0.0168489404022693,1.010475754737854
1631106859420,0.4945404231548309,-0.1244679242372512,0.0115770082920789,0.9800634384155272
1631106859554,0.4945404231548309,-0.155078113079071,0.0095494845882058,0.9800634384155272
1631106859622,0.4945404231548309,-0.1808137446641922,-0.0224849842488765,0.9800634384155272
1631106859716,0.4945404231548309,-0.1808137446641922,-0.0531999729573726,0.9800634384155272
1631106859825,0.4945404231548309,-0.1808137446641922,-0.0709004998207092,0.9800634384155272
1631106859903,0.4945404231548309,-0.1808137446641922,-0.0702988281846046,0.9800634384155272
1631106860028,0.4945404231548309,-0.1808137446641922,-0.0637176483869552,0.9800634384155272
1631106860156,-0.1352145671844482,-0.3271547257900238,-0.0692653432488441,-0.0476439781486988
1631106860234,-0.1535216718912124,-0.3049503862857818,-0.0902107879519462,-0.0605366080999374
1631106860328,-0.1854670196771621,-0.2786776423454284,-0.0894503965973854,-0.070706233382225
1631106860422,-0.2164803892374038,-0.2461131662130355,-0.0768413171172142,-0.0677153021097183
1631106860516,-0.2390156686305999,-0.2113707512617111,-0.0457177758216857,-0.0559191033244133
1631106860593,-0.2515981197357178,-0.1820073276758194,-0.0060700294561684,-0.0463427677750587
1631106860748,-0.2590705156326294,-0.1641388982534408,0.0259334798902273,-0.0428870543837547
1631106860856,-0.2641249895095825,-0.1596070379018783,0.0398627296090126,-0.039527740329504
1631106860917,-0.2668874561786651,-0.1658288389444351,0.037183292210102,-0.0316893868148326
1631106861027,-0.2646273374557495,-0.1772243082523346,0.0271673910319805,-0.0234047770500183
1631106861124,-0.2552191019058227,-0.1883821338415146,0.0351952463388443,-0.0217511598020792
1631106861223,-0.2401482015848159,-0.197075217962265,0.0473051071166992,-0.0289922878146171
1631106861360,-0.2274741977453231,-0.1940802633762359,0.0591044947504997,-0.0373604968190193
1631106861453,-0.2185496091842651,-0.1934595555067062,0.0672171115875244,-0.0494893938302993
1631106861549,-0.2163565307855606,-0.1957391798496246,0.0738125219941139,-0.0586298294365406
1631106861638,-0.2156834751367569,-0.2007830291986465,0.0824023485183715,-0.061091735959053
1631106861727,-0.2094025909900665,-0.2092682719230651,0.0930814370512962,-0.0579747594892978
1631106861807,-0.1952879428863525,-0.2234971523284912,0.1031543537974357,-0.0546854808926582
1631106861985,-0.1730869561433792,-0.2467901110649109,0.1097388789057731,-0.0571269206702709
1631106862065,-0.1449996531009674,-0.2799673080444336,0.111822172999382,-0.0659089088439941
1631106862144,-0.1180255934596061,-0.3182606399059295,0.1105583384633064,-0.0778165683150291
1631106862243,-0.1060872599482536,-0.3515829741954803,0.1093838214874267,-0.0828416049480438
1631106862352,-0.093367114663124,-0.3703500628471374,0.1130228713154792,-0.0892361849546432
1631106862431,-0.0799523517489433,-0.3702287673950195,0.1225290969014167,-0.1027001589536666
1631106862573,-0.0680488049983978,-0.3721566796302795,0.1342625170946121,-0.1217666938900947
1631106862653,-0.0607673898339271,-0.3724986612796783,0.1427564918994903,-0.1359438002109527
1631106862759,-0.0596860945224761,-0.3751765489578247,0.14568692445755,-0.134889617562294
1631106862855,-0.0618234798312187,-0.3801223933696747,0.1444615125656128,-0.1201897636055946
1631106862953,-0.0642207637429237,-0.384583443403244,0.1418786346912384,-0.1034028828144073
1631106863043,-0.062868982553482,-0.3877743780612945,0.1402543485164642,-0.094520203769207
1631106863207,-0.0540916323661804,-0.3903968632221222,0.139729842543602,-0.0955677404999733
1631106863291,-0.0338352508842945,-0.3910829722881317,0.1386244893074035,-0.1032710522413253
1631106863354,-0.0338352508842945,-0.3109678626060486,0.1335830390453338,-0.1032710522413253
1631106863494,-0.0338352508842945,-0.25700443983078,0.121417760848999,-0.1032710522413253
1631106863557,-0.0338352508842945,-0.2234880924224853,0.1004756316542625,-0.1032710522413253
1631106863666,-0.0338352508842945,-0.2040372490882873,0.0728714913129806,-0.1032710522413253
1631106863806,-0.0338352508842945,-0.1959314197301864,0.0437035374343395,-0.1032710522413253
1631106863934,-0.1239506155252456,-0.1943135261535644,0.0182668510824441,-0.0160286743193864
1631106863980,-0.1190318316221237,-0.1918473541736602,-0.0016411910764873,0.0017075777286663
1631106864073,-0.1097448915243148,-0.1833526641130447,-0.018958531320095,0.006231190636754
1631106864157,-0.1055458039045333,-0.1705558001995086,-0.0365831218659877,0.0113264331594109
1631106864251,-0.1092051938176155,-0.1630264967679977,-0.0537954457104206,0.0221640449017286
1631106864405,-0.1167751252651214,-0.1638586819171905,-0.0682439431548118,0.0335742384195327
1631106864515,-0.125147059559822,-0.1671521663665771,-0.0792416408658027,0.0394903533160686
1631106864593,-0.1324116289615631,-0.1662985384464264,-0.0887558013200759,0.0390763841569423
1631106864700,-0.1373448222875595,-0.1609414517879486,-0.0958842560648918,0.035492405295372
1631106864788,-0.1409248262643814,-0.1554140448570251,-0.0946760401129722,0.0318143814802169
1631106864888,-0.1453105211257934,-0.163267120718956,-0.0793118178844451,0.0281713921576738
1631106865012,-0.1537985205650329,-0.1679585427045822,-0.051795981824398,0.0244949385523796
1631106865106,-0.1753902733325958,-0.1692312210798263,-0.0198883935809135,0.0326381400227546
1631106865189,-0.1879249960184097,-0.1689639836549759,0.0091550098732113,0.044067345559597
1631106865283,-0.1850057989358902,-0.167689636349678,0.0331602357327938,0.0577655099332332
1631106865363,-0.1634308099746704,-0.1662386208772659,0.0529711842536926,0.0713774636387825
1631106865485,-0.1274722963571548,-0.1678983569145202,0.0705475881695747,0.0828595533967018
1631106865612,-0.0868317484855651,-0.175027310848236,0.087394505739212,0.0912415087223053
1631106865750,-0.0492792278528213,-0.1841992288827896,0.1033791750669479,0.0956534817814827
1631106865828,-0.0193610005080699,-0.1874877661466598,0.1179292947053909,0.0959187895059585
1631106865943,-0.000474465690786,-0.1817293465137481,0.1296939104795456,0.0931399762630462
1631106866021,0.0082919970154762,-0.1734187006950378,0.1363799721002578,0.0894666761159896
1631106866099,0.0100263711065053,-0.1706524938344955,0.1355514228343963,0.0867057740688324
1631106866209,0.0079312566667795,-0.1748520284891128,0.1271950900554657,0.0855671018362045
1631106866352,0.0053955903276801,-0.1831243634223938,0.1146765500307083,0.0870183259248733
1631106866415,0.0057182018645107,-0.1937737315893173,0.1038381680846214,0.0926029607653617
1631106866523,0.0111181885004043,-0.2056410908699035,0.0984944552183151,0.1020194590091705
1631106866634,0.0202238131314516,-0.2151777446269989,0.0981883555650711,0.1102528050541877
1631106866713,0.0266127157956361,-0.2191082090139389,0.1006673648953437,0.1103877574205398
1631106866853,0.0224742442369461,-0.2186889201402664,0.103534385561943,0.1000020131468772
1631106866915,0.0024239905178546,-0.217364028096199,0.1045087724924087,0.0830814614892005
1631106867024,-0.0353254713118076,-0.2171717137098312,0.1014086231589317,0.0673193708062172
1631106867163,-0.0864801555871963,-0.2171573787927627,0.093580886721611,0.0578805245459079
1631106867226,-0.1400555223226547,-0.2168788462877273,0.0829510986804962,0.054882276803255
1631106867336,-0.1803224235773086,-0.2169025838375091,0.0697976946830749,0.0584469996392726
1631106867441,-0.1938330829143524,-0.2180712223052978,0.0537949651479721,0.0708656907081604
1631106867533,-0.1819217652082443,-0.2218792289495468,0.0388734377920627,0.0939231067895889
1631106867628,-0.1538828462362289,-0.2293602079153061,0.0320936553180217,0.125115692615509
1631106867710,-0.118022508919239,-0.2381070405244827,0.0363537557423114,0.1579425930976867
1631106867819,-0.0791471898555755,-0.2409199029207229,0.0469778962433338,0.1852725595235824
1631106867913,-0.040695559233427,-0.2305401414632797,0.0555983409285545,0.2046810537576675
1631106868060,-0.0070197167806327,-0.2083732932806015,0.0563717409968376,0.2178592830896377
1631106868164,0.0205570328980684,-0.1847562491893768,0.0480923913419246,0.2229678183794021
1631106868255,0.0469926372170448,-0.1682240962982177,0.033321063965559,0.2305907011032104
1631106868369,0.0774896815419197,-0.1594948768615722,0.0167742036283016,0.2420915812253952
1631106868431,0.1112524941563606,-0.1547636240720749,0.0020637614652514,0.2578256726264953
1631106868541,0.1455699056386947,-0.1519020944833755,-0.0109675806015729,0.2770545780658722
1631106868681,0.1763592809438705,-0.1529685854911804,-0.0235749594867229,0.2981639802455902
1631106868744,0.2027067989110946,-0.1614245325326919,-0.0360529087483882,0.2897638082504272
1631106868837,0.2193134576082229,-0.1627400070428848,-0.0449583865702152,0.3051750957965851
1631106868962,0.2325364053249359,-0.1671668142080307,-0.0420942530035972,0.3153844475746155
1631106869040,0.2433626651763916,-0.1700745970010757,-0.0044399625621736,0.31651571393013
1631106869160,0.2527128458023071,-0.1661539524793625,0.0915244594216346,0.3045779466629028
1631106869285,0.2604126930236816,-0.1563605368137359,0.2235036492347717,0.2771946489810943
1631106869379,0.2653881907463074,-0.148147627711296,0.2331028282642364,0.2771946489810943
1631106869472,0.266936331987381,-0.1504175662994384,0.2408598363399505,0.2771946489810943
1631106869550,0.2686021327972412,-0.1667691767215728,0.2484792023897171,0.2771946489810943
1631106869660,0.2752756178379059,-0.1926222741603851,0.2589052617549896,0.2771946489810943
1631106869754,0.2858412563800812,-0.2193183898925781,0.2742065489292145,0.2771946489810943
1631106869910,0.2930628359317779,-0.2425575703382492,0.2943494021892547,0.2771946489810943
1631106869988,0.2930628359317779,-0.2425575703382492,0.3200435936450958,0.2771946489810943
1631106870097,0.2930628359317779,-0.2425575703382492,0.3553687632083893,0.2771946489810943
1631106870178,0.2930628359317779,-0.2425575703382492,0.4050483703613281,0.2771946489810943
1631106870272,0.2930628359317779,-0.2425575703382492,0.4717521369457245,0.2771946489810943
1631106870366,0.2930628359317779,-0.2425575703382492,0.5568283796310425,0.2771946489810943
1631106870506,0.2930628359317779,-0.2425575703382492,0.5568283796310425,0.2771946489810943
1631106870584,0.2930628359317779,-0.2425575703382492,0.5568283796310425,0.2771946489810943
1631106870694,0.2930628359317779,-0.2425575703382492,0.5568283796310425,0.2771946489810943
1631106870787,0.2930628359317779,-0.2425575703382492,0.5568283796310425,0.2771946489810943
1631106870912,0.2930628359317779,-0.2425575703382492,0.5568283796310425,0.2771946489810943
1631106870991,0.2930628359317779,-0.2425575703382492,0.5568283796310425,0.2771946489810943
1631106871100,0.2930628359317779,-0.3056371212005615,0.5568283796310425,0.2771946489810943
1631106871209,-0.1402575820684433,-0.335609495639801,0.005042225588113,0.2771946489810943
1631106871319,-0.0726522430777549,-0.362722247838974,0.0058369855396449,0.2771946489810943
1631106871397,-0.0726522430777549,-0.3881440460681915,0.0078193377703428,0.2771946489810943
1631106871522,-0.0726522430777549,-0.4067586362361908,0.0148484483361244,0.2771946489810943
1631106871584,-0.0726522430777549,-0.4096605777740478,0.0267930123955011,0.2771946489810943
1631106871756,-0.0726522430777549,-0.3946553170681,0.0422336310148239,0.2771946489810943
1631106871825,-0.0726522430777549,-0.3946553170681,0.0422336310148239,0.2771946489810943
1631106871919,-0.0726522430777549,-0.3946553170681,0.0422336310148239,0.2771946489810943
1631106871997,-0.0726522430777549,-0.3946553170681,0.0422336310148239,0.2771946489810943
1631106872091,-0.0726522430777549,-0.3946553170681,0.0422336310148239,0.2771946489810943
1631106872219,-0.0726522430777549,-0.3946553170681,0.0422336310148239,0.2771946489810943
1631106872328,-0.0726522430777549,-0.4327272474765777,0.0667498782277107,0.2771946489810943
1631106872422,-0.0439860261976718,-0.4275608956813812,0.0979285314679145,0.2771946489810943
1631106872516,-0.0439860261976718,-0.4234979450702667,0.129224881529808,0.2771946489810943
1631106872594,-0.0439860261976718,-0.4244856238365173,0.1501020193099975,0.2771946489810943
1631106872703,-0.0439860261976718,-0.4271115958690643,0.1606079787015915,0.2771946489810943
1631106872797,-0.0439860261976718,-0.4258805215358734,0.1684408634901046,0.2771946489810943
1631106872937,-0.0439860261976718,-0.4199481606483459,0.1808797419071197,0.2771946489810943
1631106873047,-0.4411367177963257,-0.4129699468612671,0.195303201675415,0.3017861545085907
1631106873141,-0.430130273103714,-0.4088447690010071,0.2033892273902893,0.2778979539871216
1631106873219,-0.4089484810829162,-0.4084691405296325,0.1975441575050354,0.25837242603302
1631106873312,-0.3826426267623901,-0.3808792531490326,0.1764393448829651,0.2388887256383896
1631106873390,-0.3597228527069092,-0.3569726347923279,0.1502357721328735,0.218097448348999
1631106873547,-0.3480484187602997,-0.3423476219177246,0.1237619444727897,0.1963938623666763
1631106873656,-0.3478155136108398,-0.3357192873954773,0.1003926917910575,0.1749026179313659
1631106873734,-0.3549084961414337,-0.3321230113506317,0.0811389163136482,0.1527367383241653
1631106873844,-0.3605701327323913,-0.3280675411224365,0.0507200360298156,0.1308949142694473
1631106873922,-0.3558280169963836,-0.3280672132968902,0.0134939579293131,0.1105717867612838
1631106874015,-0.3375472128391266,-0.3231070339679718,-0.0274002719670534,0.0931429266929626
1631106874156,-0.3111650049686432,-0.3178136646747589,-0.0654995143413543,0.0793211758136749
1631106874250,-0.285024493932724,-0.3136463761329651,-0.0989508330821991,0.0344165749847888
1631106874328,-0.2555300891399383,-0.3085421621799469,-0.1341502070426941,-0.0033780098892748
1631106874468,-0.2376364022493362,-0.2998914420604706,-0.180394634604454,-0.0304085686802864
1631106874546,-0.2305435985326767,-0.2882023453712463,-0.2395584732294082,-0.0496011450886726
1631106874640,-0.2281635552644729,-0.2758992314338684,-0.2998654246330261,-0.0642861425876617
1631106874781,-0.2249566167593002,-0.2644005119800567,-0.3416649401187897,-0.0715241357684135
1631106874875,-0.219201773405075,-0.2544990181922912,-0.3560598194599151,-0.0688869208097457
1631106874953,-0.2134679406881332,-0.246351346373558,-0.3535353541374206,-0.0598067343235015
1631106875046,-0.2082902789115905,-0.2414115369319915,-0.3481450080871582,-0.0514348931610584
1631106875138,-0.199172243475914,-0.2405155003070831,-0.3481617569923401,-0.0479955896735191
1631106875219,-0.1813601553440094,-0.2438766658306121,-0.3552012741565704,-0.0454194024205207
1631106875375,-0.1553783565759658,-0.2506936490535736,-0.368082731962204,-0.0384182706475257
1631106875500,-0.1263054758310318,-0.2585683465003967,-0.3829130828380584,-0.0240872614085674
1631106875579,-0.1011306419968605,-0.2628752589225769,-0.3935723900794983,-0.0055496930144727
1631106875719,-0.0827824473381042,-0.2615656852722168,-0.3943707942962646,0.0110199432820081
1631106875766,-0.0694814994931221,-0.2573965787887573,-0.3853505253791809,0.0206487346440553
1631106875844,-0.0584082677960395,-0.2558472752571106,-0.3697187602519989,0.0228564944118261
1631106875971,-0.0462986826896667,-0.2587736248970032,-0.3534950315952301,0.0203339308500289
1631106876065,-0.0314976684749126,-0.2624192535877228,-0.3435759246349334,0.015508878044784
1631106876209,-0.0155593650415539,-0.265684425830841,-0.3453383147716522,0.0083398818969726
1631106876318,-0.0018459042767062,-0.2736278176307678,-0.3577564358711242,-0.0033874167129397
1631106876349,0.0061260666698217,-0.2921577095985412,-0.3737815022468567,-0.0201222449541091
1631106876474,0.0084367878735065,-0.3200468719005584,-0.3845744431018829,-0.0374486744403839
1631106876599,0.0083613479509949,-0.3478600084781647,-0.3877807855606079,-0.0469562523066997
1631106876677,0.0072781778872013,-0.3672718703746795,-0.3854314684867859,-0.0435681417584419
1631106876787,0.0043269102461636,-0.3781124651432037,-0.3805408775806427,-0.0320373512804508
1631106876880,-0.0032803355716168,-0.3863195478916168,-0.3758749067783355,-0.0234840344637632
1631106876974,-0.0195391811430454,-0.3977440893650055,-0.3760136365890503,-0.0265513528138399
1631106877068,-0.0448973774909973,-0.4153402745723724,-0.3852292597293854,-0.0420843139290809
1631106877183,-0.0758173763751983,-0.4355717599391937,-0.4036059379577636,-0.0640462338924408
1631106877339,-0.1067995056509971,-0.4526555240154266,-0.4273768663406372,-0.0829188898205757
1631106877402,-0.1315010488033294,-0.4629563093185425,-0.4530513882637024,-0.0937997326254844
1631106877464,-0.1500519067049026,-0.4701535403728485,-0.4772587716579437,-0.0992568731307983
1631106877574,-0.1667662262916565,-0.4844413101673126,-0.4950072765350342,-0.1050838828086853
1631106877683,-0.183738499879837,-0.5107932090759277,-0.5024487972259521,-0.1143981292843818
1631106877808,-0.1975771188735962,-0.5417144298553467,-0.501448392868042,-0.1231865137815475
1631106877886,-0.1993744671344757,-0.559982419013977,-0.4964317083358764,-0.1250816136598587
1631106877995,-0.1852171421051025,-0.5569658875465393,-0.4930573999881744,-0.1218367740511894
1631106878089,-0.1619839966297149,-0.5426239371299744,-0.4951965808868408,-0.1232760846614837
1631106878183,-0.1380265951156616,-0.5309544801712036,-0.5060548186302185,-0.1377335339784622
1631106878292,-0.1189232468605041,-0.527762770652771,-0.5248516798019409,-0.1642324030399322
1631106878417,-0.105013407766819,-0.5293130874633789,-0.545415461063385,-0.1922020465135574
1631106878511,-0.0939277559518814,-0.529808521270752,-0.5574939250946045,-0.2094616889953613
1631106878620,-0.0826917961239814,-0.5272201299667358,-0.5536150336265564,-0.2120391428470611
1631106878698,-0.0702218934893608,-0.5249899625778198,-0.5372474193572998,-0.2052834928035736
1631106878808,-0.0569009967148304,-0.5265797972679138,-0.5193344950675964,-0.1983738243579864
1631106878901,-0.0434874631464481,-0.531391441822052,-0.5065582990646362,-0.1945952475070953
1631106879026,-0.027030749246478,-0.5363907814025879,-0.498203843832016,-0.1912623792886734
1631106879136,-0.0064060161821544,-0.5390587449073792,-0.4910440444946289,-0.1844881623983383
1631106879217,0.0135575300082564,-0.5397948026657104,-0.4858861565589905,-0.1750630587339401
1631106879295,0.0261373482644557,-0.5427905917167664,-0.4870470464229584,-0.1690542697906494
1631106879389,0.0297433137893676,-0.5538950562477112,-0.497007668018341,-0.1693072915077209
1631106879498,0.0333298705518245,-0.5759759545326233,-0.5116254091262817,-0.1698305010795593
1631106879639,0.0504145585000515,-0.6027447581291199,-0.5214949250221252,-0.1618727296590805
1631106879748,0.0843997448682785,-0.6206167340278625,-0.5188441276550293,-0.1441057324409485
1631106879842,0.1263408958911895,-0.6195773482322693,-0.5040439367294312,-0.1236547157168388
1631106879920,0.1638225764036178,-0.6041910648345947,-0.4831794500350952,-0.1084669157862663
1631106880014,0.1917476803064346,-0.5840591192245483,-0.4636556506156921,-0.1007040441036224
1631106880092,0.210492730140686,-0.561184823513031,-0.4514234662055969,-0.0952269360423088
1631106880264,0.2216464579105377,-0.5313947796821594,-0.4493230581283569,-0.0864182785153389
1631106880342,0.2266001850366592,-0.4944140017032623,-0.4562000930309295,-0.0732491165399551
1631106880436,0.2252001464366912,-0.457872986793518,-0.4697924256324768,-0.0620109662413597
1631106880561,0.2178188562393188,-0.4289674758911133,-0.4898470044136047,-0.0590207576751709
1631106880623,0.2080863863229751,-0.4103590846061706,-0.5158186554908752,-0.0636791884899139
1631106880701,0.2013656347990036,-0.4017047584056854,-0.5397460460662842,-0.0700843036174774
1631106880842,0.2006785422563552,-0.4004105627536773,-0.5479389429092407,-0.072944201529026
1631106880982,0.2033941447734832,-0.4008066952228546,-0.5340876579284668,-0.0731513351202011
1631106881060,0.2005141824483871,-0.3971838355064392,-0.5031713843345642,-0.0746350437402725
1631106881185,0.1827174127101898,-0.3900074362754822,-0.4658762812614441,-0.0779126957058906
1631106881232,0.1470818519592285,-0.3851222097873688,-0.4295438528060913,-0.0794239789247512
1631106881326,0.1001500114798545,-0.3868975341320038,-0.3981588184833526,-0.0758364871144294
1631106881470,0.0557282157242298,-0.3934904932975769,-0.3740756511688232,-0.0695834830403328
1631106881564,0.0187976714223623,-0.4000169336795807,-0.3574369251728058,-0.0656806379556655
1631106881642,-0.0097364168614149,-0.4062032997608185,-0.3451796770095825,-0.063322827219963
1631106881751,-0.0283286496996879,-0.4173398613929748,-0.3283246457576751,-0.0670378431677818
1631106881845,-0.0370540358126163,-0.4371873736381531,-0.2834424376487732,-0.0771153345704078
1631106881939,-0.034272875636816,-0.4657672345638275,-0.26662278175354,-0.0863852873444557
1631106882095,-0.0210610385984182,-0.4966826140880584,-0.2446180135011673,-0.085415594279766
1631106882157,-0.0069073438644409,-0.521939218044281,-0.2179278284311294,-0.0717226862907409
1631106882267,-0.0022749591153115,-0.5339701771736145,-0.1888121366500854,-0.0500163771212101
1631106882360,-0.0116171296685934,-0.529472827911377,-0.1618348509073257,-0.0269740484654903
1631106882454,-0.0322267599403858,-0.5139665007591248,-0.1403411030769348,-0.0062304819002747
1631106882548,-0.0508504323661327,-0.4984021186828613,-0.1261870861053466,0.0111910216510295
1631106882673,-0.0508504323661327,-0.488615870475769,-0.1188833117485046,0.0111910216510295
1631106882798,-0.0508504323661327,-0.3452946841716766,0.1721317917108535,0.0111910216510295
1631106882876,-0.0508504323661327,-0.2626770138740539,0.2799884974956512,0.0111910216510295
1631106882970,-0.0508504323661327,-0.1913874447345733,0.333717405796051,0.0111910216510295
1631106883048,-0.0508504323661327,-0.1115476414561271,0.378979355096817,0.0111910216510295
1631106883157,0.2178778797388076,-0.0314092561602592,0.4294118583202362,0.0111910216510295
1631106883298,0.2624816596508026,0.0363678149878978,0.4907163977622986,0.0111910216510295
1631106883376,0.273392379283905,0.0412303581833839,0.5565036535263062,0.0111910216510295
1631106883457,0.2614595592021942,0.0362838990986347,0.5565036535263062,0.0111910216510295
1631106883598,0.2381419688463211,0.0287035703659057,0.5485767126083374,0.0111910216510295
1631106883692,0.2108393609523773,0.0238534584641456,0.5342512726783752,0.0111910216510295
1631106883785,0.1818134784698486,0.0215765871107578,0.5122941732406616,0.4693762362003326
1631106883895,0.1531117707490921,0.0185669865459203,0.4858977496623993,0.4740974009037018
1631106884004,0.1258655488491058,0.0108673516660928,0.4607451558113098,0.4698352515697479
1631106884113,0.1001758873462677,-0.0024762251414358,0.4400378465652466,0.4623467922210693
1631106884194,0.0771175324916839,-0.0193327963352203,0.4231824278831482,0.4499017298221588
1631106884287,0.0595607459545135,-0.0412539988756179,0.3562420904636383,0.4326936602592468
1631106884366,0.0536238588392734,-0.0578059069812297,0.3221250474452972,0.413422018289566
1631106884506,0.0422412604093551,-0.0743546336889267,0.3134785592556,0.3966465294361114
1631106884616,0.010935828089714,-0.0982136353850364,0.3103824555873871,0.3783888816833496
1631106884694,-0.0453271716833114,-0.1303838044404983,0.3121290802955627,0.3532567322254181
1631106884787,-0.1145739778876304,-0.1643585562705993,0.3113822638988495,0.3408384919166565
1631106884881,-0.1753551512956619,-0.1912412047386169,0.3088575601577759,0.3275363147258758
1631106885006,-0.216897577047348,-0.2072052210569381,0.3048128187656402,0.3275363147258758
1631106885146,-0.2427182048559188,-0.2164518535137176,0.2796826958656311,0.3275363147258758
1631106885243,-0.2561917304992676,-0.2236635386943817,0.2562620937824249,0.3275363147258758
1631106885321,-0.257621020078659,-0.2280175685882568,0.2383208572864532,0.2952919006347656
1631106885399,-0.249687910079956,-0.2261212468147277,0.2266443520784378,0.2695878744125366
1631106885508,-0.234669417142868,-0.2180965989828109,0.2190015465021133,0.2443758845329284
1631106885618,-0.2125005722045898,-0.2093047797679901,0.2143075466156005,0.2175341099500656
1631106885743,-0.1864436268806457,-0.2046112269163131,0.2141650915145874,0.1946003437042236
1631106885836,-0.1683215647935867,-0.191652700304985,0.2179023474454879,0.18206287920475
1631106885915,-0.169474720954895,-0.1773740947246551,0.2193627655506134,0.1813770830631256
1631106886008,-0.1930376887321472,-0.179624930024147,0.2116545438766479,0.1847714781761169
1631106886118,-0.1930376887321472,-0.1838268786668777,0.1934701651334762,0.1847714781761169
1631106886214,-0.1930376887321472,-0.1900555938482284,0.170197993516922,0.1847714781761169
1631106886339,-0.1930376887321472,-0.1986698061227798,0.1484832167625427,0.1847714781761169
1631106886417,-0.1930376887321472,-0.209734559059143,0.1310513168573379,0.1847714781761169
1631106886526,-0.1294826418161392,-0.2229762524366378,0.1172821745276451,0.1847714781761169
1631106886636,-0.1479867696762085,-0.239118292927742,0.106347382068634,0.0617159344255924
1631106886729,-0.1268447339534759,-0.262346476316452,0.0989219695329666,0.0877834111452102
1631106886807,-0.0737455785274505,-0.2970182001590729,0.0982328280806541,0.0875005051493644
1631106886948,-0.0141537562012672,-0.3421723544597626,0.1103080287575721,0.0732240602374076
1631106887041,0.0374154895544052,-0.3856145143508911,0.1366779059171676,0.0598690621554851
1631106887151,0.0762536227703094,-0.4095217883586883,0.1682151556015014,0.0544142611324787
1631106887247,0.1002001538872718,-0.4072380065917969,0.1907614022493362,0.0545699633657932
1631106887325,0.1096988841891288,-0.3911049962043762,0.1964438706636428,0.0551919601857662
1631106887419,0.1045736894011497,-0.3759785294532776,0.1885597556829452,0.0542177446186542
1631106887575,0.088689312338829,-0.3592106997966766,0.1774738579988479,0.0531900487840175
1631106887669,0.0695870816707611,-0.3467850089073181,0.1719921827316284,0.0532819963991642
1631106887747,0.0544601865112781,-0.3382693529129028,0.1742256730794906,0.0557393580675125
1631106887840,0.0478611327707767,-0.332384705543518,0.1819108128547668,0.0686045512557029
1631106887918,0.0535122901201248,-0.3292214572429657,0.1912358850240707,0.0809016078710556
1631106888028,0.0667578503489494,-0.3297599852085113,0.1980178654193878,0.086580254137516
1631106888184,0.0801998600363731,-0.3313197493553161,0.1998542100191116,0.0868514627218246
1631106888262,0.0864565819501876,-0.3288179636001587,0.1969039142131805,0.0905683040618896
1631106888340,0.0792737379670143,-0.3202085196971893,0.1891610026359558,0.0908869057893753
1631106888466,0.0600646771490573,-0.3070296049118042,0.1725874841213226,0.0985814183950424
1631106888559,0.0345310270786285,-0.289725512266159,0.1414699405431747,0.1087837964296341
1631106888637,0.0016329264035448,-0.2683611512184143,0.0954304188489914,0.1168761327862739
1631106888778,-0.0333191752433776,-0.2471947520971298,0.0433969125151634,0.122522197663784
1631106888887,-0.0627525299787521,-0.2329886257648468,-0.0011482174741104,0.1288150250911712
1631106888965,-0.0742212012410163,-0.2277901172637939,-0.0284461043775081,0.1384055167436599
1631106889059,-0.062343381345272,-0.2270413041114807,-0.0370311103761196,0.1507322490215301
1631106889152,-0.0361157022416591,-0.2266017794609069,-0.0311509631574153,0.164888322353363
1631106889264,-0.0056099984794855,-0.2276264727115631,-0.0199034418910741,0.1671332567930221
1631106889389,0.0290705561637878,-0.232695996761322,-0.0125454338267445,0.1564128696918487
1631106889499,0.036307007074356,-0.2411253303289413,-0.0114990174770355,0.1283170133829116
1631106889577,0.0310918353497982,-0.2492747008800506,-0.0121611217036843,0.0823098495602607
1631106889670,0.0202452335506677,-0.2535079419612884,-0.0099630998447537,0.0301217250525951
1631106889749,0.0045428550802171,-0.2488144189119339,-0.0024335361085832,-0.012725293636322
1631106889842,-0.0116121545433998,-0.2272350043058395,0.0113947242498397,0.0160434506833553
1631106889983,-0.0256050918251276,-0.1891141086816787,0.0301987752318382,0.0442280657589435
1631106890092,-0.0289519038051366,-0.1478391289710998,0.0491438284516334,0.0609459541738033
1631106890201,-0.0257197599858045,-0.1182239949703216,0.0636614710092544,0.0684029906988143
1631106890280,-0.0200881157070398,-0.1045294553041458,0.0728829726576805,0.0736617669463157
1631106890389,-0.0155342137441039,-0.100783497095108,0.0787704139947891,0.0809698104858398
1631106890452,-0.0159041602164506,-0.0980484634637832,0.0834924504160881,0.0893028005957603
1631106890623,-0.0224919449537992,-0.0909334942698478,0.0896847695112228,0.0954015254974365
1631106890717,-0.0309745054692029,-0.0794183239340782,0.102447435259819,0.0982391759753227
1631106890811,-0.0359370149672031,-0.0663512423634529,0.1248807236552238,0.0983287468552589
1631106890889,-0.0441144406795501,-0.0554279796779155,0.1518953591585159,0.1011966541409492
1631106890983,-0.0453102141618728,-0.0481272302567958,0.1743237227201461,0.1105669364333152
1631106891076,-0.0459016039967536,-0.0431060455739498,0.1888803839683532,0.1266829967498779
1631106891221,-0.0481940433382988,-0.0397479757666587,0.2022627741098404,0.1438474655151367
1631106891315,-0.0496780648827552,-0.0272832307964563,0.2223909050226211,0.1540225893259048
1631106891393,-0.0483848191797733,-0.0270595587790012,0.2313585430383682,0.1536501199007034
1631106891518,-0.0451835803687572,-0.0448231399059295,0.23779296875,0.1471319943666458
1631106891596,-0.0440600365400314,-0.0801441818475723,0.2435064315795898,0.142909750342369
1631106891690,-0.0517282374203205,-0.1240730285644531,0.253446489572525,0.1449740976095199
1631106891830,-0.0694831684231758,-0.1624648422002792,0.2714634835720062,0.149235114455223
1631106891908,-0.0975551679730415,-0.1864340603351593,0.2913456261157989,0.1479957848787307
1631106892033,-0.0975551679730415,-0.2069112360477447,0.3110334277153015,0.1479957848787307
1631106892112,-0.0975551679730415,-0.2182384729385376,0.3255333602428436,0.1479957848787307
1631106892192,-0.0975551679730415,-0.2288575619459152,0.328169047832489,0.1479957848787307
1631106892286,-0.0975551679730415,-0.2278023660182953,0.3165747821331024,0.1479957848787307
1631106892411,-0.0975551679730415,-0.1961430162191391,0.2961313426494598,0.1479957848787307
1631106892567,-0.0975551679730415,-0.1365634202957153,0.277316004037857,0.1479957848787307
1631106892645,-0.0418221801519393,-0.07174913585186,0.2649491429328918,0.1479957848787307
1631106892708,-0.0468874759972095,-0.0197855718433856,0.2514208853244781,0.014409352093935
1631106892817,-0.0402811467647552,-0.011307843029499,0.2250528186559677,0.004446520935744
1631106892895,-0.031356643885374,-0.0150763839483261,0.2116051763296127,0.0110530648380517
1631106893051,-0.0267863031476736,-0.0284796971827745,0.200362354516983,0.0239004176110029
1631106893129,-0.0300255753099918,-0.0482000447809696,0.1905030459165573,0.0334664657711982
1631106893258,-0.0405735708773136,-0.0699302777647972,0.1793409287929535,0.0363981686532497
1631106893320,-0.0537845231592655,-0.0904935747385025,0.1649220287799835,0.0365338698029518
1631106893429,-0.0653762891888618,-0.1088093668222427,0.1426836103200912,0.0403796285390853
1631106893523,-0.0726102069020271,-0.1178204417228698,0.119232140481472,0.0533302687108516
1631106893664,-0.0728125870227813,-0.1310188025236129,0.0970282852649688,0.077716588973999
1631106893742,-0.0652563869953155,-0.1459302604198455,0.0781604126095771,0.1095458716154098
1631106893820,-0.0574301853775978,-0.1627067327499389,0.0639576762914657,0.1440590471029281
1631106893930,-0.0477082543075084,-0.1866677552461624,0.0570068135857582,0.1833271831274032
1631106894039,-0.0429158098995685,-0.2235423922538757,0.0578121058642864,0.2232818901538849
1631106894101,-0.0465279184281826,-0.2744413912296295,0.0632561296224594,0.2599219083786011
1631106894245,-0.0558636114001274,-0.3329364359378814,0.0697444230318069,0.2885714173316955
1631106894339,-0.0594386160373687,-0.387910395860672,0.0754735246300697,0.304661363363266
1631106894495,-0.0660698041319847,-0.4282136261463165,0.0807804837822914,0.319536805152893
1631106894557,-0.0724457502365112,-0.4450444281101227,0.0843842700123786,0.3339597582817077
1631106894635,-0.0738918930292129,-0.4381642341613769,0.0837056413292884,0.3503486514091491
1631106894760,-0.0670336484909057,-0.4349876046180725,0.0800701528787612,0.3710634410381317
1631106894901,-0.0533792972564697,-0.4289214313030243,0.0788645520806312,0.3961788117885589
1631106894979,-0.0365185886621475,-0.4227957427501678,0.0839579924941062,0.4235479831695556
1631106895073,-0.0203674864023923,-0.4171664118766784,0.0951055064797401,0.449780136346817
1631106895157,-0.0118295634165406,-0.384615957736969,0.1096599698066711,0.4707798957824707
1631106895251,-0.0204059444367885,-0.3620660006999969,0.1257177293300628,0.4848666191101074
1631106895345,-0.0576666146516799,-0.3491316437721252,0.1412330120801925,0.4908839166164398
1631106895485,-0.0576666146516799,-0.3428683280944824,0.1513534188270568,0.4908839166164398
1631106895610,-0.0576666146516799,-0.3348947465419769,0.1520331054925918,0.4908839166164398
1631106895657,-0.0576666146516799,-0.314529687166214,0.1433762162923813,0.4908839166164398
1631106895782,-0.0576666146516799,-0.2833816707134247,0.1287059336900711,0.4908839166164398
1631106895845,-0.0576666146516799,-0.2543456256389618,0.1120099946856498,0.4908839166164398
1631106895985,0.0301239304244518,-0.237481951713562,0.0970405936241149,0.2603366672992706
1631106896095,0.0186386443674564,-0.2359305024147033,0.0879917740821838,0.2909369766712188
1631106896177,-0.0005721154157072,-0.2456402778625488,0.0892158970236778,0.3178840279579162
1631106896270,-0.0253172386437654,-0.255977064371109,0.1003214567899704,0.3295856714248657
1631106896380,-0.051409725099802,-0.2594757378101349,0.1170006543397903,0.327474445104599
1631106896505,-0.0727545171976089,-0.2583889067173004,0.1346998810768127,0.3191715478897095
1631106896583,-0.0870050638914108,-0.257904440164566,0.1485463678836822,0.3084940612316131
1631106896692,-0.0962997674942016,-0.2676120102405548,0.1552409082651138,0.2945830523967743
1631106896786,-0.1051493510603904,-0.2778865694999695,0.1533287316560745,0.2783206105232239
1631106896911,-0.1154065802693367,-0.2856053113937378,0.1439484059810638,0.2643239498138428
1631106896989,-0.121696837246418,-0.2891712486743927,0.1326479613780975,0.2611467838287353
1631106897083,-0.1202499717473983,-0.2931109070777893,0.1271740794181823,0.2723317742347717
1631106897161,-0.1237513646483421,-0.3055137693881988,0.132708340883255,0.2923549115657806
1631106897320,-0.1225502267479896,-0.3300903737545013,0.1469246745109558,0.3163283169269562
1631106897429,-0.1224474012851715,-0.3620606362819671,0.1630612909793853,0.3316945433616638
1631106897507,-0.1229628920555114,-0.3918321132659912,0.175862967967987,0.3314076960086822
1631106897601,-0.1219479143619537,-0.4109771847724914,0.1847690939903259,0.3159694969654083
1631106897711,-0.1170112565159797,-0.4177640974521637,0.1901589184999466,0.2924063205718994
1631106897820,-0.1084686964750289,-0.4178321361541748,0.1913733482360839,0.2697886824607849
1631106897929,-0.0992255583405494,-0.418863445520401,0.1866663694381714,0.252846896648407
1631106898023,-0.0934191048145294,-0.4229499697685241,0.1748701333999633,0.2413249462842941
1631106898101,-0.0921526104211807,-0.4244976341724396,0.1581198424100875,0.2373251169919967
1631106898197,-0.0934933722019195,-0.4180741608142853,0.1413226425647735,0.2438924461603164
1631106898307,-0.0933118984103202,-0.4068150520324707,0.1292998790740966,0.2575187087059021
1631106898401,-0.089284636080265,-0.3973576128482818,0.1235144212841987,0.2696318924427032
1631106898541,-0.0861199498176574,-0.3893664479255676,0.1205810010433197,0.2713689804077148
1631106898619,-0.0886799320578575,-0.3751569092273712,0.1146816611289978,0.2593973278999328
1631106898729,-0.0997049584984779,-0.3488678336143493,0.1028976961970329,0.2357481271028518
1631106898822,-0.1164144352078437,-0.3118795752525329,0.0893063321709632,0.2073685824871063
1631106898932,-0.1301649063825607,-0.2718264758586883,0.0823501795530319,0.184637188911438
1631106899025,-0.134326085448265,-0.2371143847703933,0.0859734043478965,0.1751859486103058
1631106899166,-0.1289976686239242,-0.2136185616254806,0.0939255282282829,0.1789013445377349
1631106899260,-0.1196395382285118,-0.2022589445114135,0.0978662893176078,0.1906579732894897
1631106899338,-0.1091157421469688,-0.1993693113327026,0.0965610817074775,0.2031906247138977
1631106899431,-0.0964548513293266,-0.1990672647953033,0.0971069782972335,0.2117142081260681
1631106899510,-0.0827283188700676,-0.1984133571386337,0.1068739742040634,0.2137561440467834
1631106899603,-0.0724668949842453,-0.1987590491771698,0.1265188157558441,0.2070356011390686
1631106899760,-0.0684843361377716,-0.2023194879293441,0.1491176486015319,0.1932790279388427
1631106899853,-0.0698542669415474,-0.2077209055423736,0.1660831570625305,0.1785105317831039
1631106899931,-0.0735393315553665,-0.2103601843118667,0.1723719984292984,0.1681009232997894
1631106900056,-0.078259989619255,-0.2093670815229416,0.1684820353984832,0.1605700552463531
1631106900166,-0.0845726132392883,-0.2093414217233657,0.1605835855007171,0.1508014798164367
1631106900244,-0.0923276767134666,-0.2168450206518173,0.1555734723806381,0.1387207508087158
1631106900400,-0.098588153719902,-0.2350971698760986,0.1554456651210785,0.1283531039953231
1631106900478,-0.1019093692302703,-0.2619970738887787,0.1549144685268402,0.1208425536751747
1631106900556,-0.1033070012927055,-0.2900969684123993,0.1481147557497024,0.1119893416762352
1631106900650,-0.1053106263279914,-0.3088863790035248,0.1345031261444091,0.0966304466128349
1631106900759,-0.1095953360199928,-0.3138681948184967,0.118194505572319,0.0734029784798622
1631106900869,-0.1177998334169387,-0.3101248741149902,0.1028422936797142,0.046827282756567
1631106900947,-0.1318032890558242,-0.3075500130653381,0.0871411710977554,0.0247472878545522
1631106901072,-0.1488910615444183,-0.311098963022232,0.067503347992897,0.0153049891814589
1631106901181,-0.163183331489563,-0.3193628489971161,0.0415366776287555,0.0230697076767683
1631106901259,-0.1680482327938079,-0.328298270702362,0.0115771917626261,0.0452150516211986
1631106901369,-0.1620329469442367,-0.3365003764629364,-0.0160293206572532,0.0725187361240387
1631106901447,-0.1505811512470245,-0.3448855280876159,-0.0347160771489143,0.0936317592859268
1631106901587,-0.13874451816082,-0.352055937051773,-0.0426549911499023,0.1019812375307083
1631106901665,-0.1308694779872894,-0.3547884821891784,-0.045298408716917,0.098858430981636
1631106901790,-0.1286114156246185,-0.3509722054004669,-0.0481231324374675,0.0922397449612617
1631106901884,-0.1339239031076431,-0.3416268527507782,-0.0495512299239635,0.0924880430102348
1631106901962,-0.149151474237442,-0.3284009397029876,-0.0414126440882682,0.1044236570596695
1631106902040,-0.1736028343439102,-0.3137085735797882,-0.0206704754382371,0.1248970329761505
1631106902196,-0.2007185667753219,-0.3037483692169189,0.007021106313914,0.1468474417924881
1631106902306,-0.2242269963026046,-0.3046139180660248,0.036310002207756,0.1653672605752945
1631106902368,-0.2421115785837173,-0.3170723617076874,0.0656720474362373,0.1799307763576507
1631106902446,-0.2547286748886108,-0.3346196115016937,0.0940011590719223,0.1937807500362396
1631106902556,-0.2624077796936035,-0.3489850461483001,0.118120938539505,0.2108999192714691
1631106902649,-0.2631499171257019,-0.3555874824523926,0.1368577778339386,0.2311328649520874
1631106902821,-0.2616246044635772,-0.3554106056690216,0.1544383764266967,0.2480240613222122
1631106902899,-0.2657359540462494,-0.3515540361404419,0.1741314083337783,0.2545165419578552
1631106903024,-0.2788395285606384,-0.3485892713069916,0.1932699829339981,0.2517082393169403
1631106903102,-0.2982850670814514,-0.350796639919281,0.2075263261795044,0.246961772441864
1631106903165,-0.3148352801799774,-0.3597495853900909,0.2180615216493606,0.2461870163679123
1631106903290,-0.3201443552970886,-0.3737765848636627,0.2290472835302353,0.2478336095809936
1631106903431,-0.3130101263523102,-0.3888638019561767,0.2399758100509643,0.247919961810112
1631106903509,-0.2997299432754516,-0.4027794599533081,0.2446673661470413,0.2469140142202377
1631106903602,-0.2893952429294586,-0.4158189594745636,0.2387253940105438,0.2482398897409439
1631106903712,-0.2872576117515564,-0.4262944161891937,0.2248605638742447,0.253446102142334
1631106903774,-0.287491887807846,-0.4302178919315338,0.2092432975769043,0.2599498331546783
1631106903868,-0.2790293097496032,-0.4248010814189911,0.195811241865158,0.2630537152290344
1631106904040,-0.2584843337535858,-0.4114993512630462,0.1843455582857132,0.2588038742542267
1631106904149,-0.2355056554079055,-0.3940970301628113,0.1738375574350357,0.2441145777702331
1631106904198,-0.221917375922203,-0.3767554759979248,0.1628953218460083,0.217888593673706
1631106904292,-0.218804657459259,-0.3605261743068695,0.1472095847129821,0.184317260980606
1631106904417,-0.2186843305826187,-0.3450546860694885,0.1237016171216964,0.1531810909509658
1631106904479,-0.2151345014572143,-0.3289253115653991,0.0958431810140609,0.1325920075178146
1631106904620,-0.208746001124382,-0.3123128116130829,0.0713720768690109,0.1228289753198623
1631106904745,-0.202532097697258,-0.2954349219799042,0.0525039732456207,0.1186361461877822
1631106904839,-0.1996657848358154,-0.2769554853439331,0.0349048376083374,0.1145681589841842
1631106904917,-0.2015400677919387,-0.2576614916324615,0.0150462901219725,0.1071171909570694
1631106905011,-0.2063346654176712,-0.2414260655641555,-0.0048844036646187,0.0949496924877166
1631106905089,-0.2103299051523208,-0.2327868938446045,-0.0198997221887111,0.0818843841552734
1631106905248,-0.2029918134212494,-0.2320219576358795,-0.0286107379943132,0.0545762740075588
1631106905341,-0.1977398842573166,-0.2351216822862625,-0.0324360765516757,0.0272620059549808
1631106905435,-0.2010160386562347,-0.2372977584600448,-0.0234182029962539,0.0102576948702335
1631106905529,-0.2165755629539489,-0.2345956712961197,0.0128646753728389,0.0073397392407059
1631106905638,-0.2400799244642257,-0.2222611159086227,0.0743364468216896,0.0135372299700975
1631106905716,-0.2613688707351684,-0.2192098349332809,0.1386666297912597,0.0213475544005632
1631106905857,-0.2752978503704071,-0.2183985412120819,0.184994027018547,0.0255784541368484
1631106905967,-0.2881888449192047,-0.2195615321397781,0.2087834477424621,0.026156960055232
1631106906044,-0.3090908527374267,-0.2234648019075393,0.2172809541225433,0.0257297623902559
1631106906138,-0.3377578556537628,-0.1956848353147506,0.2187272310256958,0.0306886304169893
1631106906219,-0.3700770139694214,-0.1772630959749221,0.2165580838918686,0.0459729842841625
1631106906313,-0.3700770139694214,-0.1698083132505417,0.213711604475975,0.0459729842841625
1631106906453,-0.3700770139694214,-0.1700764149427414,0.2136508226394653,0.0459729842841625
1631106906547,-0.3700770139694214,-0.168897271156311,0.2194445431232452,0.0459729842841625
1631106906672,-0.3700770139694214,-0.1592956036329269,0.229968175292015,0.0459729842841625
1631106906750,-0.1283169239759445,-0.1434724330902099,0.2411744594573974,0.2430197745561599
1631106906828,-0.1472617834806442,-0.1279370039701461,0.2491911202669143,0.2538176774978637
1631106906922,-0.1707959026098251,-0.115416333079338,0.2480671405792236,0.2615505754947662
1631106907062,-0.1949901431798935,-0.1070106774568557,0.2300650924444198,0.2597606182098388
1631106907156,-0.2167627364397049,-0.1091285794973373,0.1911768019199371,0.2491655647754669
1631106907238,-0.2311695516109466,-0.1154929473996162,0.1383382230997085,0.2348450571298599
1631106907331,-0.2342969179153442,-0.1262578666210174,0.0901009142398834,0.2211900055408477
1631106907441,-0.2305895239114761,-0.1390953660011291,0.0620740801095962,0.2089542597532272
1631106907566,-0.2276091575622558,-0.1496823728084564,0.0547622255980968,0.1991337984800338
1631106907659,-0.2309366315603256,-0.1757253855466842,0.0600478015840053,0.193237692117691
1631106907784,-0.2413666993379593,-0.1978975087404251,0.0721148699522018,0.1904150545597076
1631106907878,-0.2553078234195709,-0.2148543745279312,0.0833136737346649,0.1881474703550338
1631106907956,-0.2768090367317199,-0.2260966151952743,0.0864028707146644,0.1782416850328445
1631106908050,-0.306307852268219,-0.2350715845823288,0.0779527649283409,0.1669047772884369
1631106908159,-0.3381303548812866,-0.2428022176027298,0.061279647052288,0.1535935401916504
1631106908300,-0.3650669753551483,-0.2473501563072204,0.0446074232459068,0.1375058591365814
1631106908394,-0.3793779015541076,-0.2485314011573791,0.0360684879124164,0.1185102239251136
1631106908487,-0.3707838356494903,-0.2528899908065796,0.0388674475252628,0.1010414808988571
1631106908581,-0.3341160416603088,-0.2676145136356354,0.0487568862736225,0.0894882157444953
1631106908675,-0.2809415757656097,-0.2918753921985626,0.06088213250041,0.0845223069190979
1631106908769,-0.2323261201381683,-0.3149728178977966,0.0751500278711319,0.0834004878997802
1631106908894,-0.2031117677688598,-0.3286844789981842,0.0947077870368957,0.085572250187397
1631106909019,-0.1911953836679458,-0.3366187512874603,0.1202109828591346,0.0927516743540763
1631106909128,-0.1866629123687744,-0.3488742113113403,0.146320953965187,0.1017783060669899
1631106909194,-0.1791566312313079,-0.3688627779483795,0.1674377173185348,0.1060252413153648
1631106909288,-0.1658744812011718,-0.3935182392597198,0.1824491173028946,0.1034069880843162
1631106909382,-0.1502943634986877,-0.4190921485424042,0.1927732825279235,0.0978488102555275
1631106909507,-0.1367692798376083,-0.4465438425540924,0.1991236358880996,0.0953776463866233
1631106909585,-0.1271097511053085,-0.4771192669868469,0.2010157406330108,0.0974636673927307
1631106909694,-0.1206593438982963,-0.5129985809326172,0.1996898204088211,0.1010327488183975
1631106909788,-0.1147908642888069,-0.5542160868644714,0.1968553960323333,0.1035897657275199
1631106909866,-0.1086971834301948,-0.5962356925010681,0.1926755309104919,0.10422845184803
1631106909991,-0.1078611016273498,-0.6264088153839111,0.1853986531496048,0.1029872745275497
1631106910121,-0.1198629140853881,-0.6327741146087646,0.1759935468435287,0.101197749376297
1631106910218,-0.1469092518091201,-0.6136226058006287,0.1681223064661026,0.0996799319982528
1631106910296,-0.1816833317279815,-0.5781381130218506,0.1633719056844711,0.0971387326717376
1631106910406,-0.2098624408245086,-0.5364189743995667,0.1576820611953735,0.0904305949807167
1631106910515,-0.2250121533870697,-0.4956347942352295,0.1452036201953888,0.0782226920127868
1631106910593,-0.2307247817516327,-0.4592173397541046,0.1250726133584976,0.0638899505138397
1631106910702,-0.2344674617052078,-0.4268441796302795,0.1023988798260688,0.0551224127411842
1631106910827,-0.2392966449260711,-0.3960516452789306,0.083159290254116,0.0581227615475654
1631106910905,-0.2453301101922989,-0.3669090270996094,0.0699261501431465,0.0718238055706024
1631106910999,-0.2504102885723114,-0.3419191837310791,0.063032142817974,0.0873878970742225
1631106911108,-0.2522056102752685,-0.3235346972942352,0.064785286784172,0.0968021228909492
1631106911205,-0.2493318617343902,-0.3122414648532867,0.076459065079689,0.0971019193530082
1631106911330,-0.2446129620075225,-0.3070240318775177,0.094870924949646,0.0912177041172981
1631106911423,-0.2451640367507934,-0.3062281906604767,0.1128037720918655,0.0852302089333534
1631106911564,-0.2525892555713653,-0.3069695830345154,0.1240039095282554,0.0831540673971176
1631106911611,-0.2632387578487396,-0.3049641847610473,0.1261540204286575,0.0842324197292327
1631106911705,-0.2698156833648681,-0.2980187833309173,0.1205083206295967,0.0856821984052658
1631106911799,-0.2687246203422546,-0.2893734574317932,0.1109592169523239,0.0868149250745773
1631106911939,-0.264436811208725,-0.2847389876842499,0.1021297574043273,0.0885192677378654
1631106912048,-0.2614091038703918,-0.2860486209392547,0.097326248884201,0.0912075340747833
1631106912111,-0.260897159576416,-0.2904221415519714,0.095469169318676,0.0945859178900718
1631106912236,-0.2635854482650757,-0.295452743768692,0.0925328433513641,0.0976033881306648
1631106912329,-0.2679968476295471,-0.3027504384517669,0.0860542058944702,0.0979098603129386
1631106912407,-0.2712573707103729,-0.3129897117614746,0.0778560787439346,0.09213537722826
1631106912552,-0.2716303169727325,-0.3214728534221649,0.0712003037333488,0.080444686114788
1631106912677,-0.2695686221122741,-0.3215084075927734,0.0648861676454544,0.0675163492560386
1631106912770,-0.2682876288890838,-0.3101383149623871,0.0549147464334964,0.059991281479597
1631106912817,-0.2695106267929077,-0.2899949252605438,0.040785152465105,0.0596201755106449
1631106912942,-0.2688089907169342,-0.2661255896091461,0.0286016948521137,0.0626766234636306
1631106913036,-0.2628806829452514,-0.2454078495502472,0.0263760685920715,0.0649045184254646
1631106913177,-0.24986132979393,-0.2356785833835601,0.0366497933864593,0.0670189633965492
1631106913255,-0.2326242178678512,-0.2411627471446991,0.0540535449981689,0.0714817941188812
1631106913349,-0.2164932489395141,-0.2592772543430328,0.0698751434683799,0.0773571282625198
1631106913444,-0.2032551765441894,-0.2807546555995941,0.0801227316260337,0.0804780423641204
1631106913523,-0.19129478931427,-0.2961970269680023,0.0879989042878151,0.0771048665046691
1631106913616,-0.1799541562795639,-0.3027902543544769,0.1012687385082244,0.0673911124467849
1631106913772,-0.1704189330339431,-0.3047206699848175,0.1236256808042526,0.0536132417619228
1631106913866,-0.1647629886865615,-0.3056308627128601,0.1507177650928497,0.0362058244645595
1631106913944,-0.1634444743394851,-0.304665595293045,0.1753554195165634,0.0162979923188686
1631106914038,-0.1648229360580444,-0.3007016777992248,0.1940588504076004,-0.0036749821156263
1631106914131,-0.1670646667480468,-0.296252429485321,0.2079226970672607,-0.0202961713075637
1631106914243,-0.1690364331007003,-0.2968352138996124,0.2191851735115051,-0.0324712544679641
1631106914399,-0.1679904609918594,-0.3059069812297821,0.2280484437942505,-0.0409673601388931
1631106914478,-0.1626354455947876,-0.3230740427970886,0.2325420528650283,-0.0464017428457737
1631106914587,-0.1543348580598831,-0.3438367247581482,0.230654776096344,-0.0497987568378448
1631106914665,-0.1489343047142028,-0.3608309924602508,0.2220006138086319,-0.0540391877293586
1631106914759,-0.1527029275894165,-0.3673535287380218,0.208863228559494,-0.0605490580201149
1631106914852,-0.1670674532651901,-0.3613330423831939,0.195992037653923,-0.0650799125432968
1631106914977,-0.1888416111469268,-0.3486157059669494,0.1875349581241607,-0.0595708191394805
1631106915070,-0.2134381383657455,-0.3363308012485504,0.1835569143295288,-0.0402199365198612
1631106915172,-0.2355521023273468,-0.3279319405555725,0.1798469424247741,-0.0145252710208296
1631106915281,-0.2467876374721527,-0.3226355910301208,0.1717550754547119,0.0065017766319215
1631106915359,-0.2415163218975067,-0.3201680779457092,0.1577895879745483,0.0205271057784557
1631106915453,-0.2191482335329055,-0.3233507573604584,0.1396835595369339,0.0324212163686752
1631106915578,-0.1843445897102356,-0.3349049091339111,0.1201409772038459,0.0461552739143371
1631106915688,-0.1470692455768585,-0.3520615100860595,0.101850688457489,0.0599070750176906
1631106915813,-0.1165371984243393,-0.3655016422271728,0.0865110084414482,0.0699306055903434
1631106915891,-0.0993862003087997,-0.3661118149757385,0.0745711773633956,0.0752751603722572
1631106915984,-0.0945369899272918,-0.3534551560878753,0.0654403641819953,0.0789782330393791
1631106916078,-0.0944817662239074,-0.3349760770797729,0.0609003826975822,0.0870449692010879
1631106916203,-0.0934522077441215,-0.3174779415130615,0.0639268457889556,0.1034507900476455
1631106916297,-0.0900980606675148,-0.3039187788963318,0.0733948498964309,0.1263381987810135
1631106916391,-0.0852246135473251,-0.2962676882743835,0.081796608865261,0.1473302394151687
1631106916484,-0.079170748591423,-0.2946441173553467,0.0813588351011276,0.1583566963672638
1631106916594,-0.0719545036554336,-0.2982977628707886,0.0724182426929473,0.1581971496343612
1631106916672,-0.0652747526764869,-0.3040883839130401,0.0646900087594986,0.1527695655822754
1631106916812,-0.0623974986374378,-0.3049077689647674,0.0692298039793968,0.1507786214351654
1631106916906,-0.0654807537794113,-0.2939471304416656,0.0888866111636161,0.1564443111419677
1631106917000,-0.0763449966907501,-0.2713484168052673,0.1179685369133949,0.1672716438770294
1631106917125,-0.0972398668527603,-0.2457986921072006,0.1484330892562866,0.1797225624322891
1631106917187,-0.1256206482648849,-0.2279110699892044,0.1742795407772064,0.1929175555706024
1631106917312,-0.1471930295228958,-0.2234653830528259,0.1917663514614105,0.2060927450656891
1631106917437,-0.1610191017389297,-0.2316354066133499,0.2004053443670272,0.2224128991365432
1631106917562,-0.1668615639209747,-0.2472264915704727,0.2062233388423919,0.237344816327095
1631106917625,-0.1739117205142974,-0.2624558508396148,0.2180890887975692,0.2449769079685211
1631106917703,-0.1869987547397613,-0.272314965724945,0.2253115326166153,0.2413413971662521
1631106917796,-0.2003330886363983,-0.2733186185359955,0.2305492162704467,0.2265913188457489
1631106917890,-0.2048750221729278,-0.2761910557746887,0.2369373142719268,0.2081137299537658
1631106918046,-0.1997602581977844,-0.2812460958957672,0.2492514550685882,0.1971339881420135
1631106918124,-0.1935094147920608,-0.285241425037384,0.2673647403717041,0.2000646144151687
1631106918218,-0.1917988210916519,-0.2865023016929626,0.283844918012619,0.2151872217655182
1631106918312,-0.1947096139192581,-0.24381984770298,0.2899040877819061,0.2341296970844268
1631106918406,-0.1947096139192581,-0.2296105325222015,0.2711018323898315,0.2341296970844268
1631106918499,-0.1947096139192581,-0.2379879653453827,0.2427331209182739,0.2341296970844268
1631106918656,-0.1947096139192581,-0.2514134049415588,0.2191686779260635,0.2341296970844268
1631106918749,-0.1947096139192581,-0.2508791983127594,0.2052530944347381,0.2341296970844268
1631106918827,-0.1947096139192581,-0.2288856208324432,0.2023831158876419,0.2341296970844268
1631106918921,-0.2429050803184509,-0.1949290931224823,0.2124694585800171,0.2896720767021179
1631106919031,-0.1593641489744186,-0.1641714125871658,0.2293862104415893,0.2591825425624847
1631106919140,-0.0900952443480491,-0.1472001671791076,0.2389582842588424,0.2310314625501632
1631106919285,-0.0523411743342876,-0.1457269340753555,0.2523397505283355,0.2098001986742019
1631106919363,-0.044847372919321,-0.1699998527765274,0.2631190419197082,0.1963953077793121
1631106919457,-0.0536250136792659,-0.193329706788063,0.2690578103065491,0.18777796626091
1631106919566,-0.0664195865392685,-0.213154524564743,0.2710307836532593,0.18777796626091
1631106919644,-0.0802575573325157,-0.227071151137352,0.2734907269477844,0.18777796626091
1631106919753,-0.0943267941474914,-0.2330832332372665,0.2841115593910217,0.18777796626091
1631106919878,-0.1066822931170463,-0.2579423785209656,0.3056716620922088,0.2061391025781631
1631106919941,-0.1141724735498428,-0.2663848102092743,0.339430421590805,0.2288867235183715
1631106920035,-0.1155996471643447,-0.2636262476444244,0.370356798171997,0.2288867235183715
1631106920128,-0.1045960262417793,-0.2593198418617248,0.3892881572246551,0.2169626057147979
1631106920238,-0.0882101729512214,-0.2582398355007171,0.396855890750885,0.2024339586496353
1631106920381,-0.071444995701313,-0.2556848227977752,0.3987105190753937,0.1911452710628509
1631106920459,-0.0632652938365936,-0.2434975206851959,0.4021896421909332,0.1899057626724243
1631106920600,-0.0685044378042221,-0.2190270721912384,0.4150265753269195,0.2019185423851013
1631106920646,-0.0845711752772331,-0.186823695898056,0.44074547290802,0.2447572350502014
1631106920803,-0.1012730747461319,-0.1523858159780502,0.4757775068283081,0.2815828323364258
1631106920881,-0.108925350010395,-0.1185869202017784,0.5109884738922119,0.3045888841152191
1631106920959,-0.1096469759941101,-0.0875507518649101,0.5386279821395874,0.313329130411148
1631106921115,-0.1084010973572731,-0.0615559555590152,0.5552793741226196,0.2923833429813385
1631106921178,-0.1033348739147186,-0.04264947026968,0.5607205033302307,0.2784889936447143
1631106921273,-0.0918357819318771,-0.0314779169857502,0.5549331307411194,0.2731462121009826
1631106921355,-0.0750617533922195,-0.027517482638359,0.5386146306991577,0.2635990381240845
1631106921433,-0.0595444478094577,-0.028526684269309,0.5161987543106079,0.2430859506130218
1631106921526,-0.0515220686793327,-0.0285338405519723,0.4962713718414306,0.2414690554141998
1631106921698,-0.052950445562601,-0.020211961120367,0.4882117509841919,0.2401086390018463
1631106921776,-0.0636350139975547,-0.0019144098041579,0.4952532052993774,0.2397963255643844
1631106921870,-0.0818337500095367,0.0182006359100341,0.5119900107383728,0.2378222644329071
1631106921979,-0.1024701669812202,0.03010980412364,0.5279703140258789,0.2317277491092682
1631106922073,-0.1188207790255546,0.032663770020008,0.5327095985412598,0.2236571609973907
1631106922167,-0.1221436932682991,0.0321911796927452,0.5192967653274536,0.2092176973819732
1631106922310,-0.1127565652132034,0.0329299047589302,0.4865707159042358,0.198321059346199
1631106922388,-0.0992370098829269,0.0328926146030426,0.4418123066425323,0.1919780224561691
1631106922482,-0.0887453183531761,0.0285525545477867,0.3987261950969696,0.1894342005252838
1631106922591,-0.0838193520903587,0.0206115301698446,0.3697519898414612,0.1872581392526626
1631106922669,-0.0836531594395637,0.0117058446630835,0.3587130904197693,0.1823558956384658
1631106922763,-0.087507925927639,0.0022260339464992,0.3626415133476257,0.1748677939176559
1631106922919,-0.097989298403263,-0.008610357530415,0.3777190744876861,0.1698201149702072
1631106923013,-0.1158681288361549,-0.020507363602519,0.3987042009830475,0.1712766140699386
1631106923122,-0.1353680938482284,-0.0337508544325828,0.4167150557041168,0.1765113025903701
1631106923216,-0.1463655233383178,-0.0503588132560253,0.4217553436756134,0.1787712424993515
1631106923278,-0.1398247480392456,-0.0722711756825447,0.4091682434082031,0.1743953078985214
1631106923372,-0.1164606735110282,-0.0988632142543792,0.3840010166168213,0.1661354750394821
1631106923528,-0.087588794529438,-0.1262344717979431,0.359872043132782,0.1585515290498733
1631106923622,-0.0644485130906105,-0.1522422581911087,0.3502527773380279,0.1520382016897201
1631106923700,-0.0555181391537189,-0.1789746731519699,0.358312577009201,0.1431624591350555
1631106923825,-0.0595900751650333,-0.2070264220237732,0.375938206911087,0.1294877529144287
1631106923903,-0.0659970864653587,-0.2315003424882888,0.3921057283878326,0.1143718212842941
1631106923997,-0.0650532320141792,-0.2441629022359848,0.400432139635086,0.1033332273364067
1631106924138,-0.0554089024662971,-0.2449370920658111,0.4007216989994049,0.0983903855085372
1631106924231,-0.045391496270895,-0.2402009665966034,0.3950294256210327,0.094604343175888
1631106924294,-0.0400248616933822,-0.2330297231674194,0.3850781917572021,0.0844976156949997
1631106924419,-0.0365714728832244,-0.221214160323143,0.3703134059906006,0.0642137080430984
1631106924497,-0.0306379906833171,-0.2037897557020187,0.3522927165031433,0.038294218480587
1631106924591,-0.0231959261000156,-0.1851678341627121,0.3368188142776489,0.0175698231905698
1631106924731,-0.0179680231958627,-0.1730780750513076,0.3314262628555298,0.0125821446999907
1631106924825,-0.0173949170857667,-0.1721274107694625,0.33661749958992,0.0281505770981311
1631106924919,-0.0220695212483406,-0.1798847764730453,0.3447090983390808,0.0603094659745693
1631106925028,-0.0314534977078437,-0.1881686449050903,0.3454624116420746,0.1000296548008918
1631106925137,-0.0452203638851642,-0.1902333945035934,0.3332371711730957,0.1365091204643249
1631106925200,-0.0607259385287761,-0.1855587214231491,0.3096134662628174,0.1620822250843048
1631106925375,-0.0749914944171905,-0.1794803887605667,0.2832039296627044,0.1760200709104538
1631106925437,-0.0907540395855903,-0.1778081506490707,0.2646997570991516,0.1811805218458175
1631106925531,-0.1106901690363884,-0.1840713322162628,0.2596423327922821,0.1805221289396286
1631106925625,-0.1341411471366882,-0.1957773268222808,0.2632619738578796,0.1774650365114212
1631106925719,-0.1549309492111206,-0.2061203867197036,0.2683553397655487,0.1783644556999206
1631106925828,-0.1690116822719574,-0.2082100659608841,0.2692989408969879,0.1908921152353286
1631106925969,-0.1769104450941085,-0.2009359300136566,0.264503538608551,0.2146547138690948
1631106926047,-0.1786880195140838,-0.1900829374790191,0.2536185383796692,0.2404687255620956
1631106926140,-0.1721142679452896,-0.1826460659503936,0.2379144430160522,0.2596472203731537
1631106926234,-0.1611539721488952,-0.1796576976776123,0.2212548553943634,0.2694354951381683
1631106926315,-0.1536530405282974,-0.1771915256977081,0.208124041557312,0.2715310156345367
1631106926409,-0.1543085128068924,-0.1727825701236724,0.1974403411149978,0.2671083509922027
1631106926565,-0.159600481390953,-0.1695002764463424,0.1847505271434784,0.25745490193367
1631106926675,-0.1627651900053024,-0.1719669550657272,0.1692675799131393,0.2452248334884643
1631106926753,-0.1613206267356872,-0.1798492223024368,0.1556926220655441,0.2353384345769882
1631106926831,-0.1588298082351684,-0.1865072697401046,0.1471773087978363,0.2321590334177017
1631106926971,-0.1561216562986374,-0.1829773783683776,0.1401603668928146,0.2356709390878677
1631106927050,-0.1506388038396835,-0.1612175405025482,0.1296085268259048,0.2432253658771515
1631106927174,-0.1399175524711609,-0.120763711631298,0.1180970221757888,0.2505081593990326
1631106927253,-0.1253450959920883,-0.0711415708065033,0.112096183001995,0.2522980570793152
1631106927378,-0.1124085187911987,-0.0267801098525524,0.1144473329186439,0.2450997829437255
1631106927456,-0.1057696714997291,0.0041953129693865,0.1227993443608284,0.2300170212984085
1631106927549,-0.1068542823195457,0.0235721133649349,0.1324487179517746,0.2135772556066513
1631106927659,-0.1144506484270095,0.0388702750205993,0.1393461376428604,0.2020952999591827
1631106927768,-0.1222068220376968,0.0554322488605976,0.1417165696620941,0.1969390362501144
1631106927893,-0.1245370730757713,0.0732861384749412,0.1421275287866592,0.1946269869804382
1631106927971,-0.1208535805344581,0.0897527113556861,0.1479767709970474,0.192482903599739
1631106928069,-0.1155195608735084,0.10306266695261,0.1636765301227569,0.1895732134580612
1631106928171,-0.113751046359539,0.113201230764389,0.1849428415298462,0.1867889612913131
1631106928250,-0.1163210272789001,0.1202738434076309,0.2038953453302383,0.1868787705898285
1631106928375,-0.1193244904279708,0.1241319850087165,0.218503937125206,0.1912402957677841
1631106928484,-0.1154553890228271,0.1243671625852584,0.2325367033481598,0.1993360519409179
1631106928593,-0.1019342318177223,0.1196829676628112,0.2513397336006164,0.2093768268823623
1631106928687,-0.0836748704314231,0.1093718707561492,0.2786382734775543,0.220445916056633
1631106928796,-0.0681099221110344,0.0949352756142616,0.3140442073345184,0.2332987487316131
1631106928859,-0.0596401020884513,0.0795704796910286,0.3517910838127136,0.2475639879703521
1631106929031,-0.0568481013178825,0.0644732639193534,0.3827520310878753,0.260790079832077
1631106929093,-0.058058924973011,0.0484449118375778,0.4011186957359314,0.2694409489631653
1631106929202,-0.0629961267113685,0.030760733410716,0.4076780080795288,0.2712348699569702
1631106929281,-0.0736232250928878,0.0133809000253677,0.4072639048099518,0.26712566614151
1631106929390,-0.0917354747653007,-0.0012601438211277,0.4054250121116638,0.2591691017150879
